User;Gain;HeadSet;Rates Hz;Date;Start;MAC
;24;16;250.0;20241203;03:23:26 064 PM;0c:dc:7e:cb:72:aa
tpsLocalPC;tps;Fp1;Fp2;F3;Fz;F4;C1;Cz;C2;P3;Pz;P4;O1;Oz;O2;T3;T4;Marker;Tps_Marker;Marker_int
1733235806.06;2097600;-34645.5798;-32568.6783;-26237.7262;-33954.7545;-20759.4037;-36600.9548;-31949.6021;-30946.0759;-14275.8116;-17931.4613;-11486.3142;-17578.572;-16958.1771;-17020.3373;-30213.0282;-42956.6503;N;0.0;0
1733235806.064;2097604;-34635.5438;-32562.6209;-26203.6845;-33899.6798;-20741.947;-36584.5263;-31931.1395;-30933.3578;-14236.4725;-17914.4964;-11472.9255;-17555.4827;-16918.9721;-17014.5705;-30201.9864;-42947.3743;N;0.0;0
1733235806.068;2097608;-34624.9938;-32550.104;-26184.0597;-33885.397;-20734.1686;-36576.1444;-31925.1269;-30927.591;-14237.0537;-17914.3846;-11476.703;-17561.0706;-16963.0945;-17026.8193;-30189.693;-42940.2441;N;0.0;0
1733235806.072;2097612;-34613.5944;-32528.5792;-26185.9149;-33908.4864;-20727.776;-36570.4;-31920.5448;-30913.9565;-14255.7397;-17912.9541;-11474.3561;-17568.9608;-17009.2508;-17026.1934;-30178.6289;-42924.6426;N;0.0;0
1733235806.077;2097616;-34610.6887;-32530.1439;-26201.9858;-33932.8945;-20728.2677;-36571.0706;-31920.7907;-30909.1061;-14270.8495;-17912.0377;-11468.0305;-17570.2795;-16994.901;-17017.8786;-30179.5229;-42921.8709;N;0.0;0
1733235806.081;2097620;-34605.9725;-32522.8795;-26189.8041;-33901.535;-20710.1628;-36557.7713;-31907.8714;-30898.1538;-14244.4521;-17894.0669;-11446.3493;-17546.989;-16924.873;-16993.1799;-30172.1469;-42914.4278;N;0.0;0
1733235806.085;2097624;-34604.6537;-32521.6278;-26167.9888;-33858.1726;-20703.1444;-36549.2553;-31897.4108;-30897.6844;-14210.4775;-17886.1767;-11443.533;-17535.612;-16900.9119;-16989.0448;-30169.6882;-42915.836;N;0.0;0
1733235806.089;2097628;-34615.2708;-32529.7192;-26168.8381;-33864.2523;-20719.7741;-36554.2173;-31901.5011;-30906.7369;-14214.7243;-17895.8103;-11459.6263;-17547.6596;-16948.1859;-17008.692;-30173.8232;-42924.8884;N;0.0;0
1733235806.091;2097632;-34605.1008;-32524.3324;-26176.9518;-33896.8188;-20723.0598;-36551.6692;-31902.7975;-30899.4725;-14232.8739;-17897.9784;-11461.6826;-17556.0638;-16996.1527;-17013.6765;-30164.0108;-42919.3005;N;0.0;0
1733235806.095;2097636;-34598.1494;-32527.037;-26192.0169;-33919.8634;-20719.64;-36553.748;-31909.3466;-30898.9584;-14247.2014;-17896.2797;-11457.324;-17559.1484;-16977.8243;-17004.7358;-30159.4064;-42917.7135;N;0.0;0
1733235806.099;2097640;-34603.8491;-32533.8319;-26192.0169;-33905.223;-20715.2367;-36556.989;-31908.7431;-30904.7252;-14236.0926;-17891.3847;-11454.1948;-17548.2631;-16925.2306;-16992.9564;-30163.8097;-42922.4297;N;0.0;0
1733235806.103;2097644;-34604.4749;-32537.1847;-26168.9946;-33865.571;-20706.4748;-36554.7538;-31902.5069;-30905.2393;-14211.7962;-17887.9425;-11454.7759;-17541.9599;-16906.1646;-16998.0302;-30166.7377;-42923.5026;N;0.0;0
1733235806.106;2097648;-34609.0123;-32530.0768;-26159.5622;-33862.6876;-20713.0685;-36554.642;-31900.54;-30904.7922;-14215.1713;-17895.5197;-11465.6836;-17548.7772;-16956.7913;-17021.4996;-30168.4141;-42926.1625;N;0.0;0
1733235806.11;2097652;-34611.4039;-32527.3499;-26170.5145;-33896.6176;-20722.7916;-36549.0541;-31900.1153;-30901.6407;-14235.5114;-17897.3973;-11471.6291;-17559.7295;-17000.5113;-17025.6123;-30165.039;-42922.8544;N;0.0;0
1733235806.114;2097656;-34605.5031;-32532.6249;-26188.0606;-33926.3007;-20724.8926;-36552.3398;-31905.9268;-30905.3957;-14253.4822;-17898.2913;-11463.5378;-17566.2562;-16983.0769;-17016.0457;-30164.3908;-42926.9671;N;0.0;0
1733235806.118;2097660;-34600.0046;-32524.5783;-26178.5164;-33901.602;-20714.3426;-36545.9248;-31893.6333;-30897.4385;-14231.734;-17887.0261;-11447.6457;-17547.1902;-16926.4376;-17004.1546;-30157.7747;-42920.7534;N;0.0;0
1733235806.121;2097664;-34598.7976;-32517.9175;-26154.7565;-33855.3116;-20700.0375;-36538.9735;-31881.6081;-30888.319;-14199.7486;-17876.9678;-11439.5544;-17535.8579;-16897.1345;-16993.6717;-30154.1537;-42911.3656;N;0.0;0
1733235806.125;2097668;-34597.5682;-32513.2012;-26146.3746;-33845.7227;-20698.8305;-36533.2738;-31879.1494;-30883.2228;-14195.8147;-17876.4984;-11438.4368;-17534.9861;-16923.1966;-16989.5813;-30151.6727;-42905.2189;N;0.0;0
1733235806.129;2097672;-34611.5381;-32534.9048;-26186.1607;-33904.9324;-20729.43;-36557.6372;-31910.1065;-30904.457;-14242.1499;-17903.1417;-11461.8838;-17563.6634;-16987.7261;-17008.8261;-30179.7464;-42923.3238;N;0.0;0
1733235806.133;2097676;-34632.9957;-32555.446;-26230.6854;-33957.1014;-20754.7098;-36589.8907;-31944.0141;-30930.0274;-14286.451;-17930.9472;-11484.5932;-17593.056;-17005.4063;-17026.2158;-30207.0156;-42942.2781;N;0.0;0
1733235806.137;2097680;-34632.1464;-32552.4285;-26222.6164;-33931.531;-20745.2327;-36589.7343;-31941.9354;-30929.0439;-14273.0847;-17928.0192;-11477.8206;-17585.5905;-16956.3442;-17017.7668;-30208.1779;-42944.4462;N;0.0;0
1733235806.141;2097684;-34629.9335;-32551.6462;-26191.9722;-33881.2843;-20730.8829;-36579.4078;-31925.1493;-30920.5502;-14241.7252;-17917.2456;-11472.1656;-17570.6372;-16924.426;-17015.107;-30203.2828;-42941.8534;N;0.0;0
1733235806.145;2097688;-34624.1221;-32551.1992;-26183.0762;-33875.7634;-20735.9344;-36582.1347;-31923.4058;-30924.6853;-14249.8165;-17925.2252;-11486.0907;-17587.5351;-16979.4783;-17036.7211;-30201.2041;-42944.7144;N;0.0;0
1733235806.149;2097692;-34606.0619;-32532.7367;-26184.395;-33902.809;-20729.7653;-36573.0375;-31918.6673;-30913.6212;-14269.9108;-17923.75;-11484.9508;-17595.8499;-17030.0379;-17041.9067;-30186.832;-42930.1634;N;0.0;0
1733235806.151;2097696;-34603.2232;-32521.9184;-26193.0898;-33923.4844;-20720.3105;-36563.1133;-31909.9501;-30903.6076;-14269.1731;-17908.7073;-11468.7234;-17580.5837;-16994.2975;-17024.4724;-30175.6784;-42923.5026;N;0.0;0
1733235806.155;2097700;-34599.9599;-32524.1759;-26186.6525;-33906.05;-20717.4942;-36556.6313;-31903.5128;-30902.7582;-14246.9779;-17895.9668;-11456.4076;-17564.2893;-16935.9595;-17011.6201;-30171.074;-42928.2412;N;0.0;0
1733235806.159;2097704;-34592.1367;-32518.1857;-26161.1938;-33859.6478;-20706.5865;-36548.3835;-31892.6051;-30900.8807;-14218.7029;-17888.5683;-11452.1608;-17549.2242;-16909.2268;-17006.8592;-30168.0118;-42924.2626;N;0.0;0
1733235806.163;2097708;-34593.9249;-32516.174;-26155.0248;-33849.8801;-20709.4923;-36547.4895;-31891.9569;-30899.9196;-14219.3735;-17893.1952;-11459.9392;-17552.5546;-16954.5114;-17018.1915;-30169.4646;-42922.385;N;0.0;0
1733235806.166;2097712;-34605.0337;-32523.2148;-26177.0636;-33890.8285;-20719.8411;-36554.8432;-31902.3505;-30900.7466;-14243.0216;-17899.9901;-11466.2647;-17565.6974;-17001.2265;-17024.2712;-30174.6055;-42922.9885;N;0.0;0
1733235806.17;2097716;-34605.436;-32515.9058;-26194.3415;-33916.0413;-20714.7896;-36557.6819;-31906.7314;-30895.1363;-14254.0857;-17892.5022;-11456.4076;-17562.4117;-16981.0429;-17005.384;-30174.2703;-42916.3724;N;0.0;0
1733235806.174;2097720;-34609.6158;-32526.1205;-26194.0286;-33901.0209;-20709.157;-36560.9005;-31906.575;-30897.7738;-14235.802;-17887.3613;-11446.9305;-17549.8948;-16914.0771;-16987.4802;-30179.7912;-42916.0595;N;0.0;0
1733235806.178;2097724;-34600.094;-32527.7075;-26166.0665;-33857.5915;-20700.1045;-36551.9822;-31897.0308;-30897.215;-14207.6835;-17881.7511;-11444.2259;-17537.9366;-16887.5903;-16986.3626;-30176.2596;-42916.8865;N;0.0;0
1733235806.196;2097728;-34601.1221;-32526.3441;-26159.9645;-33857.435;-20710.7216;-36552.3398;-31900.5623;-30905.0381;-14219.5523;-17893.8434;-11455.223;-17546.8996;-16934.7972;-17006.4569;-30178.2936;-42925.7825;N;0.0;0
1733235806.2;2097732;-34601.5915;-32529.0039;-26183.4785;-33898.0034;-20728.6254;-36563.8286;-31916.1415;-30912.4589;-14251.2694;-17904.6616;-11467.8741;-17561.8976;-16994.9234;-17025.6793;-30181.7581;-42929.6717;N;0.0;0
1733235806.204;2097736;-34596.1154;-32527.3275;-26201.5164;-33924.5796;-20728.3795;-36565.6614;-31921.4612;-30912.1683;-14265.0828;-17903.097;-11463.9178;-17561.4059;-16989.0672;-17023.6677;-30173.1974;-42926.0731;N;0.0;0
1733235806.208;2097740;-34595.8471;-32519.1021;-26193.3133;-33899.3222;-20707.9723;-36559.8723;-31913.6158;-30906.8933;-14243.0887;-17889.8424;-11448.0928;-17547.9054;-16920.9614;-17003.8193;-30165.3519;-42918.2947;N;0.0;0
1733235806.201;2097744;-34582.4137;-32502.8524;-26162.5797;-33844.6721;-20686.6935;-36544.1814;-31894.8179;-30893.1246;-14201.5368;-17873.0339;-11433.4971;-17523.1621;-16875.7886;-16981.4005;-30153.6173;-42904.8166;N;0.0;0
1733235806.205;2097748;-34573.9648;-32498.1809;-26151.3367;-33836.1114;-20686.6935;-36536.6265;-31888.6042;-30886.665;-14193.6243;-17869.3682;-11435.397;-17515.3166;-16912.1101;-16985.7144;-30142.3967;-42897.1723;N;0.0;0
1733235806.209;2097752;-34589.3428;-32512.5977;-26182.0704;-33891.1191;-20710.2746;-36556.4078;-31912.5652;-30903.6747;-14236.2937;-17892.6364;-11454.7312;-17547.5925;-16975.2762;-17009.072;-30160.0322;-42909.421;N;0.0;0
1733235806.213;2097756;-34613.7062;-32537.0729;-26221.8118;-33949.1889;-20739.3095;-36588.1473;-31945.4446;-30929.8709;-14280.6172;-17918.6985;-11478.4241;-17577.4321;-16990.8106;-17025.21;-30188.8436;-42933.4939;N;0.0;0
1733235806.224;2097760;-34625.0832;-32543.9572;-26223.7787;-33932.2016;-20735.3085;-36593.3329;-31944.8188;-30931.9943;-14272.1236;-17919.1008;-11475.3172;-17571.2854;-16949.2587;-17017.0739;-30194.7445;-42939.283;N;0.0;0
1733235806.228;2097764;-34627.8548;-32546.6394;-26206.1879;-33890.4932;-20728.156;-36591.2318;-31939.6332;-30932.2178;-14248.1625;-17915.8375;-11474.289;-17568.6702;-16926.147;-17018.1021;-30191.3247;-42941.8087;N;0.0;0
1733235806.232;2097768;-34618.7577;-32542.5044;-26197.046;-33884.9276;-20726.6137;-36586.9179;-31934.5593;-30928.0604;-14244.4074;-17919.7937;-11480.011;-17569.7207;-16968.5259;-17027.3781;-30186.452;-42939.6182;N;0.0;0
1733235806.236;2097772;-34616.7907;-32542.9067;-26213.7651;-33928.8041;-20738.4154;-36592.707;-31940.9966;-30932.1731;-14275.6552;-17930.0979;-11488.4824;-17584.3164;-17023.2877;-17045.0136;-30189.1789;-42940.1323;N;0.0;0
1733235806.23;2097776;-34614.0862;-32537.3635;-26225.9021;-33948.5407;-20735.5097;-36589.8237;-31938.605;-30927.0322;-14286.004;-17927.2369;-11475.2948;-17586.9986;-17003.4394;-17036.6764;-30187.0778;-42932.8009;N;0.0;0
1733235806.234;2097780;-34609.9064;-32529.8533;-26209.2724;-33916.3542;-20714.3649;-36574.5574;-31921.6624;-30914.2023;-14260.903;-17906.1368;-11455.6924;-17566.1668;-16933.2325;-17005.1605;-30181.6911;-42925.1119;N;0.0;0
1733235806.238;2097784;-34595.8471;-32520.6667;-26172.5709;-33861.3689;-20693.2425;-36557.7489;-31898.9754;-30901.0595;-14222.7262;-17886.7579;-11437.2745;-17539.1212;-16888.6408;-16984.3957;-30167.3636;-42909.3763;N;0.0;0
1733235806.242;2097788;-34572.266;-32506.1828;-26144.4747;-33836.7596;-20682.6031;-36537.3641;-31879.0153;-30884.4745;-14206.9235;-17875.9843;-11431.329;-17525.5984;-16917.2734;-16983.0546;-30143.3355;-42897.3064;N;0.0;0
1733235806.241;2097792;-34575.0824;-32502.1371;-26159.0481;-33873.7071;-20693.1755;-36540.6498;-31889.4759;-30889.6154;-14233.7009;-17887.1378;-11443.8012;-17545.6032;-16976.6396;-16999.0137;-30145.1012;-42898.9604;N;0.0;0
1733235806.245;2097796;-34613.7062;-32537.5199;-26209.1607;-33935.2861;-20728.7595;-36581.1735;-31928.9267;-30926.0488;-14284.1488;-17926.0746;-11477.3735;-17587.9821;-17004.7805;-17027.1546;-30184.7756;-42928.6659;N;0.0;0
1733235806.249;2097800;-34631.0511;-32558.8658;-26224.7622;-33934.7273;-20738.4825;-36597.8703;-31940.3484;-30942.2314;-14286.831;-17938.301;-11486.873;-17597.6604;-16967.386;-17038.7551;-30200.9359;-42946.5696;N;0.0;0
1733235806.253;2097804;-34614.1532;-32537.4529;-26187.3454;-33874.3776;-20712.4203;-36575.8762;-31917.1473;-30922.0925;-14248.8331;-17918.2515;-11469.7292;-17577.4097;-16929.3657;-17019.6667;-30187.5025;-42932.421;N;0.0;0
1733235806.272;2097808;-34614.265;-32536.5588;-26182.5845;-33868.5215;-20717.5836;-36571.9423;-31915.2027;-30920.8632;-14246.9108;-17917.2456;-11472.0762;-17579.0414;-16967.8107;-17025.5229;-30194.9903;-42931.4822;N;0.0;0
1733235806.276;2097812;-34612.3204;-32532.7143;-26198.6107;-33908.2405;-20724.0433;-36574.9374;-31919.3155;-30920.9973;-14267.3403;-17920.7548;-11472.635;-17581.5672;-17011.3966;-17032.1167;-30189.5142;-42929.4705;N;0.0;0
1733235806.28;2097816;-34599.4011;-32520.622;-26202.5893;-33928.3571;-20717.7401;-36567.986;-31916.1192;-30912.2577;-14271.9224;-17909.9143;-11455.7371;-17566.7256;-16988.419;-17012.6259;-30178.8971;-42917.2665;N;0.0;0
1733235806.284;2097820;-34605.7042;-32526.0758;-26204.668;-33914.7672;-20719.0141;-36573.6857;-31920.9695;-30919.2091;-14260.5007;-17906.6509;-11453.7254;-17562.5682;-16931.7573;-17005.1828;-30183.7921;-42920.4181;N;0.0;0
1733235806.284;2097824;-34607.6712;-32528.0204;-26183.8138;-33872.2765;-20710.7663;-36569.126;-31915.6274;-30921.5561;-14234.0809;-17900.9512;-11455.7371;-17556.0862;-16908.4221;-17011.6201;-30180.5958;-42925.3355;N;0.0;0
1733235806.288;2097828;-34610.5769;-32527.7299;-26174.9178;-33864.7217;-20717.1366;-36565.4826;-31914.6886;-30922.7183;-14236.9196;-17907.925;-11465.7953;-17564.2669;-16955.0925;-17026.0146;-30185.1332;-42929.6941;N;0.0;0
1733235806.292;2097832;-34609.2358;-32529.518;-26189.5806;-33902.3173;-20727.5078;-36567.919;-31925.8422;-30924.6182;-14264.5016;-17915.234;-11471.9421;-17575.3087;-17007.5968;-17031.4014;-30188.0389;-42930.8787;N;0.0;0
1733235806.296;2097836;-34598.6411;-32517.8728;-26198.7895;-33923.1491;-20721.9422;-36562.3534;-31922.4223;-30915.1858;-14265.1498;-17903.2087;-11459.1569;-17561.2271;-16985.3568;-17013.5424;-30174.8514;-42922.4744;N;0.0;0
1733235806.3;2097840;-34593.3884;-32516.7328;-26190.8546;-33898.0705;-20707.3241;-36557.2795;-31913.5487;-30907.0274;-14242.4405;-17890.8035;-11447.2434;-17540.7305;-16916.1335;-16991.1906;-30168.3694;-42919.7475;N;0.0;0
1733235806.304;2097844;-34588.1134;-32514.4753;-26169.017;-33850.0813;-20696.6847;-36547.8918;-31901.2776;-30905.4628;-14217.8088;-17883.4945;-11442.8401;-17530.404;-16886.3833;-16988.039;-30163.4744;-42919.7475;N;0.0;0
1733235806.308;2097848;-34584.8948;-32511.3684;-26161.4174;-33842.6158;-20698.5399;-36546.953;-31899.2436;-30903.0935;-14220.5358;-17888.3225;-11454.463;-17538.9424;-16929.4775;-17001.5842;-30163.1168;-42916.0595;N;0.0;0
1733235806.312;2097852;-34583.4866;-32506.6522;-26170.2463;-33877.6857;-20704.1726;-36546.6624;-31901.5905;-30899.9196;-14243.9604;-17895.4974;-11461.7273;-17553.024;-16986.7426;-17013.0953;-30158.177;-42912.5503;N;0.0;0
1733235806.317;2097856;-34595.8024;-32514.4976;-26191.8604;-33915.773;-20714.9461;-36557.5477;-31916.0521;-30910.5143;-14269.2178;-17910.4507;-11468.4105;-17572.47;-16995.5939;-17022.3266;-30162.4462;-42919.904;N;0.0;0
1733235806.321;2097860;-34602.195;-32516.6881;-26190.3182;-33898.2046;-20710.0511;-36560.6546;-31916.0521;-30911.0507;-14254.4657;-17899.5654;-11458.084;-17554.231;-16932.3385;-17012.2683;-30164.3685;-42922.1392;N;0.0;0
1733235806.325;2097864;-34595.4895;-32513.693;-26164.7031;-33849.4107;-20697.9811;-36549.9705;-31899.4448;-30899.5396;-14217.0712;-17877.8619;-11439.6214;-17531.3205;-16885.5563;-16991.7941;-30161.7309;-42914.5396;N;0.0;0
1733235806.329;2097868;-34589.5886;-32510.9437;-26157.9305;-33843.711;-20701.2892;-36546.6624;-31896.6508;-30898.8243;-14218.6359;-17882.5334;-11442.9072;-17541.8034;-16927.5552;-16995.8621;-30159.7863;-42913.9584;N;0.0;0
1733235806.331;2097872;-34591.9803;-32511.1225;-26179.8576;-33884.5924;-20708.1512;-36554.9996;-31907.3796;-30903.7641;-14250.5318;-17897.1514;-11453.0772;-17559.7519;-16985.6027;-17012.6706;-30165.2625;-42914.2267;N;0.0;0
1733235806.335;2097876;-34602.8656;-32516.0623;-26201.2705;-33914.6778;-20710.0734;-36563.4486;-31915.8286;-30907.2956;-14269.8213;-17901.9794;-11454.0383;-17565.3622;-16974.2927;-17009.5637;-30171.7445;-42915.6125;N;0.0;0
1733235806.339;2097880;-34586.0571;-32501.1313;-26183.0539;-33879.295;-20687.6323;-36549.2553;-31899.3777;-30894.8234;-14242.7981;-17886.8473;-11435.2405;-17543.301;-16913.0266;-16988.2625;-30160.9486;-42904.8389;N;0.0;0
1733235806.343;2097884;-34583.9337;-32500.796;-26161.2833;-33835.8432;-20680.1891;-36539.8005;-31885.8549;-30892.5435;-14215.1713;-17881.4158;-11432.3795;-17534.1144;-16895.1005;-16990.4307;-30159.4734;-42905.9565;N;0.0;0
1733235806.345;2097888;-34592.3826;-32513.0895;-26162.0656;-33845.5662;-20696.2824;-36546.8413;-31892.8286;-30902.7806;-14221.4745;-17892.7034;-11447.5563;-17545.0221;-16939.0664;-17010.5025;-30169.4199;-42916.0595;N;0.0;0
1733235806.349;2097892;-34597.1435;-32522.8348;-26186.876;-33889.6886;-20713.0015;-36554.4185;-31906.4185;-30911.9895;-14252.7446;-17906.6062;-11460.4309;-17564.4904;-17000.1313;-17024.3829;-30177.2654;-42921.3569;N;0.0;0
1733235806.353;2097896;-34596.3389;-32523.5501;-26203.9304;-33917.0918;-20717.0472;-36560.8335;-31912.8335;-30914.627;-14270.8719;-17914.094;-11462.7779;-17575.264;-16997.0468;-17022.3936;-30175.7231;-42920.0158;N;0.0;0
1733235806.357;2097900;-34606.5313;-32524.6677;-26204.6903;-33903.4796;-20712.4874;-36568.6566;-31920.2989;-30918.3598;-14261.4618;-17914.6752;-11459.3804;-17568.1114;-16935.7806;-17007.8874;-30183.4792;-42926.3636;N;0.0;0
1733235806.361;2097904;-34623.1163;-32534.6366;-26195.1014;-33869.7061;-20718.2094;-36576.6138;-31922.6906;-30927.2781;-14248.7213;-17915.7257;-11466.5329;-17565.161;-16919.3968;-17016.4928;-30197.9631;-42934.0303;N;0.0;0
1733235806.365;2097908;-34616.7907;-32533.7872;-26185.9819;-33862.1959;-20720.1988;-36575.8538;-31917.572;-30924.4841;-14247.4473;-17917.8268;-11473.1714;-17572.85;-16957.7301;-17029.3227;-30194.4762;-42934.2091;N;0.0;0
1733235806.369;2097912;-34612.6109;-32530.9485;-26193.1568;-33894.3824;-20723.8421;-36572.3446;-31914.8004;-30914.4929;-14260.7912;-17913.3564;-11470.0422;-17572.85;-16997.4491;-17019.5773;-30187.8378;-42928.8447;N;0.0;0
1733235806.373;2097916;-34614.8908;-32529.2274;-26206.7243;-33922.255;-20724.3338;-36570.1988;-31915.9627;-30911.8107;-14269.2402;-17908.2379;-11459.4027;-17567.9103;-16977.9584;-17003.797;-30181.4228;-42926.0954;N;0.0;0
1733235806.377;2097920;-34610.1522;-32530.4568;-26203.2598;-33902.0267;-20714.7449;-36566.3096;-31911.6712;-30914.0906;-14254.2198;-17904.4828;-11451.1102;-17559.2378;-16925.3647;-16993.8505;-30183.8815;-42927.2354;N;0.0;0
1733235806.381;2097924;-34604.3408;-32532.4908;-26182.428;-33857.3456;-20707.2347;-36561.4593;-31903.7586;-30911.7213;-14227.0848;-17898.269;-11450.6632;-17548.3748;-16903.1918;-16996.2645;-30179.0312;-42929.6717;N;0.0;0
1733235806.385;2097928;-34607.783;-32537.1847;-26179.7458;-33856.4962;-20716.9577;-36561.3028;-31903.8704;-30914.9846;-14233.1198;-17902.6499;-11461.392;-17553.2922;-16948.6329;-17012.1342;-30182.5851;-42934.3879;N;0.0;0
1733235806.389;2097932;-34607.9618;-32536.1565;-26193.3357;-33891.9461;-20723.775;-36560.7888;-31908.9442;-30913.7106;-14253.4152;-17909.2884;-11466.6;-17562.5905;-16996.2868;-17018.8621;-30181.2887;-42928.0847;N;0.0;0
1733235806.392;2097936;-34615.3826;-32534.2119;-26208.7137;-33920.981;-20723.775;-36563.3592;-31913.9063;-30911.5648;-14264.7475;-17907.8132;-11460.1403;-17564.6245;-16980.8865;-17010.2566;-30175.9467;-42925.4249;N;0.0;0
1733235806.396;2097940;-34613.7285;-32530.7474;-26214.1675;-33908.464;-20717.8518;-36572.0987;-31917.1473;-30917.7339;-14262.4453;-17910.6295;-11459.5816;-17566.815;-16935.2889;-17006.9709;-30187.7484;-42925.7154;N;0.0;0
1733235806.4;2097944;-34598.3952;-32516.4422;-26187.2336;-33861.7042;-20707.3241;-36564.9238;-31907.5137;-30915.5658;-14237.3219;-17906.4274;-11459.9392;-17560.0201;-16912.2219;-17006.5016;-30181.7134;-42921.9157;N;0.0;0
1733235806.404;2097948;-34596.2271;-32526.277;-26171.9227;-33848.5613;-20706.9665;-36551.8704;-31896.6955;-30904.4123;-14226.459;-17899.2525;-11454.4183;-17548.7548;-16945.7719;-17008.4909;-30167.7883;-42921.4016;N;0.0;0
1733235806.406;2097952;-34592.9414;-32518.9903;-26175.3201;-33877.3951;-20706.0054;-36545.746;-31895.0415;-30893.8399;-14241.3229;-17897.4196;-11450.1491;-17550.1183;-16989.5142;-17007.5744;-30153.0808;-42912.0585;N;0.0;0
1733235806.41;2097956;-34607.3359;-32536.9388;-26207.2831;-33926.4572;-20724.915;-36568.3883;-31918.712;-30914.8729;-14275.4316;-17918.4079;-11463.6272;-17573.9899;-16995.728;-17017.521;-30170.5822;-42929.3141;N;0.0;0
1733235806.414;2097960;-34610.8228;-32542.6832;-26211.0382;-33915.1025;-20725.3397;-36574.1998;-31921.5506;-30922.0478;-14266.4909;-17918.1844;-11462.2638;-17564.9822;-16939.4016;-17013.5647;-30178.45;-42937.3831;N;0.0;0
1733235806.418;2097964;-34600.5186;-32528.1546;-26180.774;-33863.2464;-20709.4923;-36561.5711;-31903.0657;-30913.4424;-14229.0518;-17901.7782;-11448.3163;-17548.7548;-16907.841;-17009.3626;-30168.6823;-42925.7825;N;0.0;0
1733235806.422;2097968;-34589.678;-32527.2381;-26168.1676;-33854.5516;-20704.5749;-36551.2669;-31896.0249;-30905.3063;-14222.2792;-17898.4031;-11445.6564;-17548.2184;-16944.3414;-17009.8096;-30160.1663;-42917.3782;N;0.0;0
1733235806.426;2097972;-34593.8802;-32527.9087;-26183.2103;-33893.7789;-20717.1142;-36555.8714;-31905.815;-30906.0216;-14251.6047;-17901.2641;-11448.9421;-17555.505;-16984.0157;-17008.5579;-30159.1158;-42918.9876;N;0.0;0
1733235806.43;2097976;-34612.7227;-32538.6822;-26214.9274;-33936.0237;-20731.6652;-36574.3116;-31924.9704;-30918.7397;-14280.5502;-17919.1008;-11455.29;-17572.7829;-16982.3393;-17014.3247;-30170.247;-42933.0245;N;0.0;0
1733235806.434;2097980;-34601.2786;-32530.5462;-26205.048;-33905.6253;-20715.2367;-36569.3271;-31910.9336;-30909.3967;-14257.8855;-17907.5673;-11442.6389;-17557.2038;-16928.5163;-16997.5385;-30165.1955;-42925.7154;N;0.0;0
1733235806.436;2097984;-34594.3943;-32529.1827;-26181.4669;-33860.4301;-20703.9267;-36558.9336;-31899.8471;-30905.2616;-14227.9789;-17896.5256;-11440.2026;-17546.8102;-16905.6952;-17003.6182;-30166.8942;-42921.8039;N;0.0;0
1733235806.44;2097988;-34593.5449;-32532.5355;-26171.5204;-33853.2329;-20709.0229;-36557.436;-31902.1717;-30907.4298;-14231.5105;-17904.1699;-11454.4854;-17557.3379;-16953.6173;-17030.105;-30169.1741;-42923.9944;N;0.0;0
1733235806.444;2097992;-34588.4264;-32531.3061;-26182.5174;-33888.9733;-20720.0646;-36561.437;-31907.9161;-30907.6756;-14254.2645;-17909.6907;-11460.945;-17571.1289;-17005.9875;-17033.4578;-30166.0448;-42922.9662;N;0.0;0
1733235806.448;2097996;-34584.0901;-32514.6317;-26192.8663;-33907.9052;-20710.9004;-36558.7547;-31904.7421;-30898.5338;-14263.0264;-17898.6043;-11445.6117;-17564.3787;-16981.8029;-17007.2615;-30160.1887;-42912.8185;N;0.0;0
1733235806.457;2098000;-34588.3369;-32514.4753;-26195.2803;-33891.0073;-20704.1726;-36559.6488;-31904.9656;-30902.0206;-14250.1965;-17894.6927;-11440.4038;-17558.0978;-16921.8779;-16992.5541;-30165.5307;-42916.4842;N;0.0;0
1733235806.461;2098004;-34582.6373;-32508.6638;-26168.5029;-33839.9559;-20691.6109;-36547.8918;-31893.8792;-30895.5163;-14218.3006;-17883.718;-11431.329;-17542.2505;-16892.9994;-16990.3859;-30160.3004;-42912.3044;N;0.0;0
1733235806.465;2098008;-34586.2806;-32517.6939;-26160.8139;-33840.3806;-20699.6799;-36549.7693;-31897.3437;-30900.8583;-14225.7884;-17893.0834;-11440.3367;-17550.7218;-16935.1995;-17010.7931;-30160.6357;-42916.4395;N;0.0;0
1733235806.469;2098012;-34583.0843;-32521.1808;-26179.7905;-33885.5088;-20714.5885;-36562.0181;-31914.3534;-30909.8884;-14258.3102;-17912.06;-11456.4076;-17570.2572;-16989.6036;-17027.7357;-30166.2907;-42922.2509;N;0.0;0
1733235806.471;2098016;-34575.887;-32514.4976;-26195.4814;-33909.604;-20716.3543;-36562.1522;-31917.3038;-30905.8428;-14274.9175;-17912.4624;-11454.6865;-17572.9617;-16990.3636;-17024.1371;-30164.3685;-42919.6134;N;0.0;0
1733235806.475;2098020;-34587.4652;-32519.6609;-26198.9459;-33897.6681;-20712.0851;-36567.4719;-31919.8966;-30914.7164;-14268.7261;-17917.3574;-11457.6593;-17577.0074;-16947.0683;-17031.2673;-30169.1964;-42928.0177;N;0.0;0
1733235806.479;2098024;-34577.0493;-32516.2858;-26174.0908;-33852.5176;-20698.5399;-36558.3301;-31907.0891;-30907.5862;-14236.5843;-17907.1426;-11449.255;-17562.0094;-16918.9051;-17024.3829;-30163.1615;-42923.4356;N;0.0;0
1733235806.483;2098028;-34591.0639;-32526.9029;-26180.0364;-33861.8159;-20715.9072;-36570.2435;-31916.9238;-30918.9856;-14252.6776;-17920.7548;-11464.633;-17577.8791;-16969.9565;-17038.5987;-30179.9923;-42932.5998;N;0.0;0
1733235806.481;2098032;-34598.4399;-32531.6191;-26205.0033;-33908.0393;-20734.1462;-36583.4534;-31933.9558;-30930.9214;-14290.1614;-17939.2621;-11482.5815;-17601.0132;-17032.0719;-17056.6365;-30187.0555;-42940.9146;N;0.0;0
1733235806.485;2098036;-34592.1144;-32521.1808;-26214.9274;-33931.464;-20726.8149;-36579.4525;-31934.1794;-30924.1042;-14295.6823;-17934.7247;-11473.0373;-17595.4923;-17010.2343;-17032.5637;-30176.9078;-42932.1751;N;0.0;0
1733235806.489;2098040;-34584.716;-32512.5307;-26200.0859;-33899.5904;-20709.4252;-36566.9802;-31917.6391;-30912.4142;-14271.2072;-17915.681;-11453.0995;-17577.0745;-16945.4366;-17008.4909;-30165.8884;-42920.4404;N;0.0;0
1733235806.493;2098044;-34576.0435;-32500.5949;-26164.9713;-33842.2358;-20689.5992;-36549.6576;-31895.1309;-30895.9633;-14234.0362;-17896.0338;-11436.8275;-17556.1532;-16909.3385;-16999.0137;-30161.9098;-42911.1198;N;0.0;0
1733235806.51;2098048;-34567.7957;-32498.1138;-26151.1803;-33835.1503;-20690.2027;-36542.885;-31889.1406;-30891.8059;-14227.0625;-17893.9775;-11439.6662;-17552.5099;-16945.4589;-17009.6084;-30154.6454;-42910.6727;N;0.0;0
1733235806.514;2098052;-34573.9424;-32510.6308;-26174.359;-33882.8266;-20708.6653;-36555.3796;-31905.0103;-30902.0653;-14255.8962;-17907.7014;-11458.5981;-17571.0618;-17004.8028;-17032.0496;-30158.9146;-42919.7252;N;0.0;0
1733235806.518;2098056;-34585.6994;-32518.1633;-26199.7059;-33919.014;-20720.8693;-36565.2591;-31917.8849;-30911.6989;-14280.3937;-17914.4964;-11462.3532;-17585.6352;-16995.4374;-17026.3723;-30168.3471;-42923.7708;N;0.0;0
1733235806.522;2098060;-34596.1824;-32531.9543;-26202.0081;-33906.6312;-20721.4504;-36570.6459;-31919.539;-30917.9574;-14279.1644;-17913.5129;-11458.9557;-17585.7693;-16943.6708;-17018.3703;-30182.5851;-42934.522;N;0.0;0
1733235806.514;2098064;-34606.4642;-32539.5092;-26195.3026;-33876.121;-20723.2386;-36577.9996;-31924.2328;-30926.5852;-14260.0983;-17919.5479;-11468.4552;-17583.4;-16923.9789;-17028.0039;-30191.5482;-42943.8651;N;0.0;0
1733235806.518;2098068;-34594.9307;-32527.2381;-26178.7176;-33861.0336;-20717.1813;-36570.02;-31914.1299;-30917.7339;-14247.939;-17912.6859;-11469.9975;-17569.8996;-16954.7126;-17031.8931;-30178.45;-42933.5162;N;0.0;0
1733235806.522;2098072;-34582.3243;-32513.4918;-26181.3328;-33889.2862;-20715.9072;-36557.2348;-31906.4856;-30906.1334;-14256.7456;-17904.304;-11455.8265;-17558.0755;-16984.5745;-17018.8397;-30166.0448;-42918.8311;N;0.0;0
1733235806.526;2098076;-34587.0182;-32518.7445;-26201.6505;-33921.1375;-20723.7303;-36562.0628;-31911.4476;-30909.1285;-14275.4316;-17906.5838;-11447.5787;-17563.4846;-16972.1246;-17008.1332;-30172.9068;-42922.0274;N;0.0;0
1733235806.539;2098080;-34606.6207;-32538.3469;-26211.2394;-33916.1754;-20731.5534;-36576.5467;-31921.2824;-30923.6571;-14275.2528;-17912.9988;-11456.7205;-17569.5866;-16930.9974;-17006.6133;-30183.9709;-42940.1547;N;0.0;0
1733235806.543;2098084;-34604.6761;-32535.5753;-26194.2521;-33877.4174;-20728.7148;-36574.6245;-31917.2367;-30926.0041;-14250.3977;-17908.2155;-11456.8099;-17558.679;-16909.6291;-17009.9214;-30183.3674;-42941.5852;N;0.0;0
1733235806.547;2098088;-34608.9229;-32535.4189;-26192.5757;-33878.5127;-20734.5039;-36579.8324;-31924.2328;-30930.5415;-14256.4103;-17917.8938;-11466.5553;-17569.9443;-16956.9924;-17031.8931;-30187.3907;-42939.1935;N;0.0;0
1733235806.551;2098092;-34592.8073;-32514.5647;-26197.4931;-33909.8051;-20730.8158;-36577.1055;-31920.7013;-30920.8855;-14276.1469;-17918.2515;-11466.8012;-17580.159;-17005.5628;-17034.3518;-30178.1371;-42921.9827;N;0.0;0
1733235806.557;2098096;-34586.1241;-32518.9009;-26197.7389;-33923.3503;-20723.3727;-36565.3038;-31910.263;-30910.179;-14279.9914;-17905.6898;-11451.0432;-17570.2348;-16979.4336;-17015.0623;-30171.3645;-42921.3569;N;0.0;0
1733235806.561;2098100;-34598.06;-32536.7153;-26199.1695;-33909.1569;-20720.8693;-36565.8402;-31909.1007;-30914.2917;-14268.8155;-17904.7287;-11445.9246;-17562.9035;-16922.2578;-17006.6804;-30176.7513;-42936.4666;N;0.0;0
1733235806.565;2098104;-34585.7888;-32522.1419;-26170.1569;-33860.743;-20706.363;-36554.3738;-31894.8403;-30906.7369;-14232.7622;-17895.788;-11442.3707;-17548.0396;-16894.2064;-17000.4889;-30166.4919;-42930.1634;N;0.0;0
1733235806.569;2098108;-34568.8909;-32510.072;-26154.6671;-33848.8072;-20708.0618;-36548.0706;-31892.7839;-30907.7874;-14230.6834;-17901.5771;-11455.0442;-17553.404;-16947.8953;-17024.7853;-30158.6017;-42925.3131;N;0.0;0
1733235806.571;2098112;-34564.9794;-32510.2732;-26171.0286;-33887.3416;-20721.7857;-36554.1279;-31905.2562;-30912.973;-14258.7125;-17910.3613;-11468.2987;-17569.4302;-17003.1264;-17036.9223;-30161.0157;-42934.0526;N;0.0;0
1733235806.575;2098116;-34551.8589;-32494.2917;-26179.1423;-33909.7828;-20715.5049;-36551.021;-31905.8821;-30908.0333;-14269.2849;-17900.7724;-11455.3124;-17565.988;-16983.0546;-17017.2527;-30153.2149;-42931.5269;N;0.0;0
1733235806.579;2098120;-34543.5888;-32492.1682;-26165.5524;-33882.3572;-20699.9928;-36541.8792;-31891.7111;-30899.7408;-14243.491;-17887.9648;-11435.1511;-17545.782;-16911.7749;-16992.6435;-30142.3743;-42930.7893;N;0.0;0
1733235806.583;2098124;-34526.6908;-32478.5784;-26131.6895;-33826.3884;-20678.7586;-36525.2048;-31873.2709;-30888.1849;-14210.4104;-17876.0514;-11427.395;-17530.5158;-16876.3027;-16986.5415;-30129.7456;-42922.7427;N;0.0;0
1733235806.586;2098128;-34528.9037;-32472.2528;-26126.4592;-33821.4934;-20681.8208;-36525.9424;-31872.4886;-30888.1849;-14216.9148;-17879.5829;-11436.4922;-17544.6868;-16933.322;-17009.3849;-30136.25;-42920.1499;N;0.0;0
1733235806.59;2098132;-34532.6588;-32485.0604;-26150.6662;-33869.2144;-20701.4009;-36537.677;-31889.2747;-30895.8516;-14248.5201;-17897.1291;-11450.1491;-17567.3291;-16994.3869;-17025.6346;-30140.3627;-42930.7446;N;0.0;0
1733235806.594;2098136;-34522.824;-32482.0206;-26167.2288;-33899.9704;-20699.814;-36542.1474;-31897.5449;-30896.4327;-14266.4462;-17902.5605;-11447.3552;-17573.0959;-16985.5133;-17018.9068;-30141.905;-42932.9127;N;0.0;0
1733235806.598;2098140;-34525.9085;-32487.0273;-26164.0772;-33881.8654;-20693.3767;-36542.5944;-31889.99;-30895.0692;-14247.6931;-17889.3507;-11436.0005;-17547.6149;-16920.6932;-16996.9574;-30151.7844;-42938.59;N;0.0;0
1733235806.601;2098144;-34524.6792;-32483.5852;-26148.6545;-33840.7159;-20690.918;-36542.818;-31886.2349;-30899.0031;-14221.4298;-17886.8026;-11442.326;-17542.5187;-16900.6884;-16996.3986;-30153.9302;-42942.8145;N;0.0;0
1733235806.605;2098148;-34516.9455;-32467.0225;-26133.2542;-33822.0298;-20687.0735;-36533.4526;-31878.6353;-30893.7281;-14216.0207;-17884.4333;-11442.1248;-17544.7762;-16939.1781;-17008.4462;-30144.6989;-42935.0585;N;0.0;0
1733235806.609;2098152;-34501.1875;-32460.1606;-26138.5739;-33847.6226;-20691.4097;-36528.8258;-31878.5459;-30889.0566;-14233.4551;-17883.9639;-11440.8284;-17549.6936;-16985.1109;-17013.6988;-30135.7135;-42930.454;N;0.0;0
1733235806.613;2098156;-34484.0884;-32458.3724;-26147.9169;-33867.2698;-20686.0676;-36524.0648;-31874.8578;-30880.3841;-14242.9993;-17878.063;-11432.7818;-17544.1951;-16975.6338;-17002.5453;-30126.3705;-42928.3306;N;0.0;0
1733235806.617;2098160;-34477.6735;-32446.9507;-26143.983;-33845.7674;-20670.2203;-36522.5002;-31872.0862;-30875.8914;-14230.8176;-17870.0611;-11423.6623;-17540.44;-16926.7729;-16994.4987;-30126.2811;-42926.0507;N;0.0;0
1733235806.621;2098164;-34478.3887;-32448.0012;-26123.1288;-33798.9852;-20658.0833;-36516.0182;-31864.6207;-30876.8526;-14207.2141;-17868.7871;-11424.0199;-17536.2602;-16907.0363;-17005.5181;-30120.8049;-42925.6707;N;0.0;0
1733235806.625;2098168;-34473.9407;-32439.5075;-26109.919;-33788.7704;-20662.1289;-36513.0678;-31864.8666;-30876.6067;-14209.5834;-17876.0067;-11433.81;-17539.2106;-16942.0391;-17016.1799;-30120.8049;-42926.4307;N;0.0;0
1733235806.629;2098172;-34461.6249;-32424.9566;-26112.7129;-33818.9229;-20666.8451;-36508.9104;-31863.4138;-30867.4648;-14224.5814;-17875.7384;-11427.9538;-17538.0036;-16967.1848;-16999.7513;-30116.7145;-42917.3782;N;0.0;0
1733235806.631;2098176;-34453.0642;-32427.7952;-26121.7207;-33842.6605;-20664.1406;-36508.2398;-31860.5304;-30863.5533;-14235.3326;-17872.7433;-11418.2755;-17533.7791;-16950.4881;-16982.7864;-30107.595;-42914.1819;N;0.0;0
1733235806.635;2098180;-34456.5287;-32435.4395;-26124.8499;-33832.6693;-20659.022;-36511.7043;-31862.0726;-30868.3589;-14223.7991;-17867.7365;-11410.4077;-17525.5537;-16895.8381;-16971.7446;-30111.0148;-42916.8865;N;0.0;0
1733235806.639;2098184;-34479.9757;-32450.7281;-26124.537;-33814.7432;-20672.6566;-36527.1941;-31875.8413;-30887.3802;-14213.0256;-17881.9522;-11426.7021;-17535.165;-16887.4562;-16990.8106;-30130.3491;-42934.5891;N;0.0;0
1733235806.643;2098188;-34501.2993;-32467.9613;-26136.8304;-33823.9968;-20697.02;-36544.4049;-31892.6722;-30907.4521;-14233.7903;-17905.6004;-11452.8537;-17560.5342;-16951.1363;-17024.3606;-30149.1693;-42948.9613;N;0.0;0
1733235806.647;2098192;-34499.1535;-32461.457;-26151.0238;-33857.055;-20701.1327;-36545.1202;-31898.5954;-30904.3229;-14261.3277;-17911.2777;-11460.2074;-17576.0016;-17009.3626;-17034.5977;-30146.5318;-42942.6357;N;0.0;0
1733235806.651;2098196;-34489.3411;-32451.801;-26158.087;-33878.3786;-20688.4146;-36541.9909;-31897.0978;-30896.3209;-14269.1061;-17905.958;-11450.9538;-17575.331;-17004.4452;-17025.1206;-30133.8136;-42934.9914;N;0.0;0
1733235806.655;2098200;-34478.8581;-32443.3073;-26142.7313;-33851.4224;-20672.8578;-36530.3457;-31883.128;-30884.5192;-14241.3229;-17885.7744;-11433.5865;-17550.543;-16931.4891;-17003.5288;-30124.3588;-42927.2801;N;0.0;0
1733235806.659;2098204;-34468.5987;-32437.3618;-26107.4603;-33799.3205;-20655.2222;-36513.3807;-31863.3243;-30870.907;-14201.6262;-17866.5295;-11418.1414;-17524.0785;-16882.6953;-16985.4462;-30113.5182;-42918.4288;N;0.0;0
1733235806.661;2098208;-34446.2469;-32428.1752;-26086.6508;-33778.3769;-20646.9968;-36496.6393;-31846.3594;-30859.4853;-14189.7351;-17860.0252;-11414.9004;-17518.0435;-16913.8759;-16986.5191;-30101.2471;-42910.3822;N;0.0;0
1733235806.665;2098212;-34468.1069;-32438.1664;-26117.8762;-33827.7742;-20674.0424;-36512.8219;-31864.5313;-30873.9468;-14230.1917;-17882.5557;-11435.4417;-17543.3457;-16976.9526;-17005.6745;-30116.8934;-42920.664;N;0.0;0
1733235806.669;2098216;-34488.9164;-32450.9069;-26150.2191;-33874.1094;-20692.6167;-36530.2563;-31880.334;-30887.0226;-14257.5279;-17893.7092;-11442.1025;-17554.7674;-16979.4783;-17005.5628;-30128.561;-42934.3209;N;0.0;0
1733235806.673;2098220;-34486.6142;-32451.5328;-26149.0345;-33862.3747;-20686.8947;-36530.2563;-31879.887;-30888.0284;-14246.9332;-17888.5236;-11432.6477;-17547.4584;-16927.8011;-16990.4307;-30124.0459;-42938.0536;N;0.0;0
1733235806.677;2098224;-34465.2236;-32436.8924;-26114.6799;-33807.2777;-20663.7606;-36513.8948;-31860.9998;-30876.562;-14202.2297;-17869.5247;-11417.8285;-17525.8666;-16884.3716;-16981.4005;-30105.1363;-42926.1401;N;0.0;0
1733235806.681;2098228;-34463.4801;-32437.5406;-26108.2202;-33802.0697;-20668.2086;-36512.4866;-31862.9444;-30878.7078;-14202.7214;-17877.236;-11427.9091;-17531.7004;-16930.0362;-16998.7902;-30109.0702;-42924.3743;N;0.0;0
1733235806.685;2098232;-34460.1721;-32433.8749;-26121.4077;-33836.6702;-20672.8578;-36514.9006;-31867.7053;-30875.4668;-14224.2014;-17880.9911;-11431.3513;-17544.4409;-16979.97;-17005.1828;-30113.6971;-42921.5357;N;0.0;0
1733235806.689;2098236;-34476.8241;-32448.4929;-26149.6156;-33878.5127;-20686.3582;-36534.5255;-31885.5196;-30890.8224;-14255.3598;-17895.0503;-11443.1307;-17566.3233;-16987.1002;-17017.0069;-30129.6785;-42934.7232;N;0.0;0
1733235806.694;2098240;-34481.6521;-32448.6718;-26146.7099;-33860.8548;-20677.0599;-36536.9171;-31884.0668;-30890.1519;-14246.0167;-17889.6636;-11436.6263;-17559.9977;-16932.3832;-17002.0983;-30133.5901;-42932.6445;N;0.0;0
1733235806.698;2098244;-34477.45;-32442.7709;-26118.122;-33812.0833;-20663.9841;-36523.439;-31867.1465;-30878.216;-14216.0207;-17877.2584;-11421.4048;-17541.8481;-16895.8157;-16988.3743;-30124.4482;-42927.3695;N;0.0;0
1733235806.702;2098248;-34469.0904;-32436.7583;-26103.4146;-33804.1261;-20665.7946;-36515.8394;-31862.6761;-30875.735;-14209.3152;-17877.4148;-11427.6633;-17535.0308;-16926.9741;-16993.0682;-30117.9886;-42926.3413;N;0.0;0
1733235806.706;2098252;-34476.8688;-32439.1276;-26126.4816;-33845.6556;-20680.4797;-36525.3389;-31878.2553;-30888.0061;-14241.904;-17892.3681;-11444.2259;-17552.3981;-16979.4783;-17010.2566;-30122.9507;-42929.3588;N;0.0;0
1733235806.711;2098256;-34477.0253;-32440.9381;-26143.4242;-33879.1385;-20684.9277;-36528.9375;-31884.8938;-30890.7107;-14263.8087;-17894.8492;-11440.4932;-17562.5682;-16972.4375;-17004.4675;-30122.4366;-42929.3811;N;0.0;0
1733235806.715;2098260;-34480.1992;-32450.7728;-26145.8606;-33866.1969;-20685.1065;-36535.1066;-31889.0959;-30894.354;-14253.3481;-17893.7092;-11436.9839;-17558.7013;-16924.7612;-16993.1129;-30129.8797;-42933.9632;N;0.0;0
1733235806.719;2098264;-34487.6423;-32459.7135;-26130.4826;-33828.713;-20687.4758;-36534.6819;-31887.0395;-30898.1091;-14230.1023;-17890.3788;-11441.4319;-17553.404;-16905.5164;-16999.6619;-30133.2995;-42939.5065;N;0.0;0
1733235806.723;2098268;-34479.5734;-32449.4094;-26111.0589;-33815.7713;-20684.883;-36525.5848;-31876.6683;-30889.7048;-14219.8876;-17882.8686;-11444.6059;-17549.6936;-16941.905;-17010.3014;-30125.7893;-42932.5774;N;0.0;0
1733235806.725;2098272;-34475.0807;-32445.9225;-26118.7032;-33845.8344;-20687.8111;-36523.7072;-31879.1047;-30885.1451;-14240.9652;-17886.8026;-11445.5894;-17558.7684;-16991.3024;-17013.5424;-30122.3695;-42930.0517;N;0.0;0
1733235806.729;2098276;-34471.5044;-32439.0158;-26131.4437;-33870.1531;-20682.8713;-36522.0755;-31878.7694;-30881.2559;-14249.526;-17882.4663;-11434.19;-17554.1639;-16971.0293;-16992.2188;-30118.7038;-42927.1013;N;0.0;0
1733235806.733;2098280;-34467.3023;-32431.7068;-26120.7819;-33841.1406;-20664.3641;-36511.5032;-31868.9793;-30872.6057;-14227.5989;-17864.3838;-11417.0238;-17531.8345;-16904.5106;-16973.3986;-30110.6349;-42919.144;N;0.0;0
1733235806.737;2098284;-34468.4422;-32428.3317;-26099.8607;-33795.5207;-20655.2893;-36502.8754;-31858.9658;-30870.2588;-14196.9547;-17853.2526;-11411.503;-17513.8414;-16869.1054;-16976.7067;-30105.0246;-42915.4113;N;0.0;0
1733235806.75;2098288;-34467.8164;-32423.459;-26100.263;-33797.6441;-20665.7052;-36509.5809;-31867.3477;-30877.389;-14203.6825;-17865.2331;-11426.0763;-17529.4429;-16922.4143;-16996.108;-30106.8127;-42918.2723;N;0.0;0
1733235806.754;2098292;-34440.4131;-32406.6952;-26105.1357;-33829.0036;-20672.1649;-36509.3797;-31870.991;-30875.8914;-14227.0848;-17869.9717;-11427.8868;-17536.0367;-16963.9885;-16989.246;-30097.6261;-42915.1207;N;0.0;0
1733235806.758;2098296;-34466.9223;-32445.5202;-26129.5214;-33868.1862;-20683.9442;-36517.8511;-31875.8637;-30876.6291;-14238.5513;-17869.0329;-11420.4884;-17531.6781;-16943.1344;-16974.3821;-30104.5328;-42925.9837;N;0.0;0
1733235806.762;2098300;-34506.8872;-32482.7135;-26144.363;-33867.0015;-20694.1366;-36528.0434;-31882.5468;-30887.2014;-14229.4541;-17869.4576;-11419.192;-17528.6382;-16892.1947;-16973.6668;-30121.8554;-42938.59;N;0.0;0
1733235806.764;2098304;-34507.9824;-32479.3607;-26124.6487;-33825.919;-20689.6216;-36525.4059;-31877.5624;-30891.4036;-14208.9799;-17870.6869;-11422.8353;-17526.9172;-16874.3581;-16981.1994;-30116.7145;-42940.1323;N;0.0;0
1733235806.768;2098308;-34522.5558;-32503.1653;-26121.5866;-33822.5663;-20698.0929;-36529.2728;-31876.4672;-30896.835;-14211.8409;-17876.9454;-11435.0393;-17531.4769;-16919.5086;-17000.3772;-30121.3413;-42945.9438;N;0.0;0
1733235806.772;2098312;-34519.9406;-32506.831;-26129.5885;-33853.5905;-20699.6575;-36525.4506;-31875.3719;-30889.9954;-14230.8623;-17879.203;-11435.9781;-17538.1154;-16967.8777;-17000.3325;-30115.8875;-42938.4783;N;0.0;0
1733235806.776;2098316;-34505.7249;-32501.7571;-26132.8071;-33869.1249;-20694.7178;-36513.7383;-31869.8063;-30879.6465;-14236.4725;-17868.3177;-11425.4728;-17531.3875;-16956.3442;-16984.4851;-30102.7223;-42931.6387;N;0.0;0
1733235806.779;2098320;-34532.1447;-32526.9029;-26140.5632;-33859.4913;-20697.78;-36522.612;-31877.8753;-30891.2024;-14231.6446;-17870.5975;-11426.121;-17527.923;-16897.8497;-16978.5842;-30109.4502;-42943.7533;N;0.0;0
1733235806.783;2098324;-34535.3857;-32528.5345;-26120.0443;-33822.9239;-20690.7392;-36518.6557;-31872.9132;-30893.4376;-14202.0062;-17866.5966;-11423.5282;-17517.8424;-16868.0102;-16978.4725;-30108.1315;-42944.2227;N;0.0;0
1733235806.787;2098328;-34551.3001;-32549.4781;-26103.504;-33813.5138;-20689.0181;-36501.1767;-31856.1271;-30880.0712;-14180.2579;-17853.9231;-11412.33;-17503.1126;-16898.8109;-16977.5784;-30090.3842;-42934.4326;N;0.0;0
1733235806.791;2098332;-34534.4469;-32525.6735;-26122.0559;-33857.882;-20702.0044;-36512.9784;-31869.8063;-30886.4415;-14218.0994;-17876.1855;-11433.9665;-17529.7111;-16968.5259;-17005.3393;-30085.4892;-42935.4832;N;0.0;0
1733235806.796;2098336;-34569.4274;-32558.3741;-26156.5447;-33901.4903;-20720.8022;-36530.4351;-31885.8102;-30898.2655;-14245.2568;-17890.8035;-11442.1919;-17546.3855;-16979.3442;-17012.313;-30114.837;-42952.9846;N;0.0;0
1733235806.8;2098340;-34579.7539;-32577.7307;-26163.4737;-33887.2522;-20717.9859;-36536.9171;-31885.542;-30903.0935;-14237.7689;-17888.4789;-11436.6487;-17542.2728;-16925.2753;-16998.3208;-30131.1985;-42957.6784;N;0.0;0
1733235806.804;2098344;-34564.0406;-32561.1234;-26134.1706;-33843.0628;-20703.6808;-36528.2446;-31876.4001;-30900.5454;-14213.9643;-17879.9182;-11432.3348;-17529.8452;-16892.7982;-16995.5045;-30129.1645;-42954.5939;N;0.0;0
1733235806.808;2098348;-34541.6889;-32540.9174;-26106.6556;-33815.5478;-20690.091;-36511.8831;-31857.9152;-30881.0994;-14200.0839;-17866.6189;-11424.8917;-17521.441;-16918.6145;-16988.799;-30111.6854;-42938.0313;N;0.0;0
1733235806.811;2098352;-34533.6422;-32537.0282;-26118.882;-33846.5497;-20698.1376;-36515.303;-31866.3642;-30878.7078;-14225.2073;-17874.7326;-11433.9218;-17536.9754;-16974.8515;-16996.0186;-30110.6125;-42938.076;N;0.0;0
1733235806.815;2098356;-34541.5771;-32536.9388;-26142.7537;-33884.0112;-20704.0831;-36524.7354;-31876.9142;-30885.0333;-14250.8894;-17881.0805;-11436.9616;-17548.8442;-16970.7388;-16994.3422;-30115.8205;-42937.2936;N;0.0;0
1733235806.819;2098360;-34545.6451;-32536.1788;-26144.5194;-33866.8898;-20695.1424;-36528.5352;-31873.7179;-30885.6815;-14238.1042;-17877.1913;-11427.5962;-17540.6858;-16922.4367;-16984.6639;-30114.8817;-42934.5891;N;0.0;0
1733235806.823;2098364;-34545.0193;-32537.587;-26129.432;-33827.9307;-20691.4321;-36523.5731;-31871.3933;-30890.353;-14211.2598;-17875.2691;-11426.6351;-17530.8511;-16887.4562;-16988.6425;-30115.3287;-42940.1994;N;0.0;0
1733235806.826;2098368;-34535.4974;-32526.277;-26116.1327;-33816.5984;-20694.159;-36514.4089;-31865.6936;-30886.9109;-14203.5708;-17870.6869;-11425.6516;-17526.1348;-16914.0548;-16990.9224;-30106.7457;-42934.3209;N;0.0;0
1733235806.83;2098372;-34528.1884;-32521.4714;-26121.676;-33851.2212;-20700.7527;-36512.7996;-31869.0017;-30885.1004;-14225.5872;-17877.9736;-11428.2444;-17538.1154;-16965.5532;-16993.627;-30101.2024;-42932.041;N;0.0;0
1733235806.834;2098376;-34523.8522;-32518.4092;-26131.8684;-33880.1444;-20703.3679;-36512.9113;-31873.1815;-30883.9157;-14238.5513;-17873.615;-11422.7906;-17534.0697;-16949.7952;-16984.4851;-30096.5533;-42926.7213;N;0.0;0
1733235806.838;2098380;-34507.4907;-32508.5744;-26117.295;-33849.6342;-20686.2465;-36502.9871;-31859.0328;-30873.8798;-14214.0538;-17855.9795;-11405.7362;-17512.6344;-16883.4329;-16964.3238;-30089.0431;-42922.0721;N;0.0;0
1733235806.843;2098384;-34512.7881;-32512.7766;-26103.8169;-33812.8656;-20685.2183;-36507.8598;-31861.7821;-30881.77;-14193.736;-17862.0368;-11415.3028;-17513.5732;-16873.1511;-16983.0546;-30095.7039;-42933.0915;N;0.0;0
1733235806.847;2098388;-34522.5558;-32521.3149;-26104.5098;-33815.6596;-20692.2591;-36513.5148;-31865.9842;-30886.6873;-14199.9051;-17871.2457;-11424.1317;-17526.4925;-16909.3162;-16988.6202;-30100.0401;-42935.8408;N;0.0;0
1733235806.851;2098392;-34534.8269;-32526.0535;-26135.3105;-33866.9345;-20709.4699;-36535.4642;-31888.1795;-30900.1654;-14247.0226;-17895.408;-11439.9344;-17560.8248;-16974.0692;-17002.0759;-30117.8992;-42944.0439;N;0.0;0
1733235806.855;2098396;-34537.9561;-32525.003;-26155.9635;-33897.1317;-20716.8683;-36542.505;-31895.7344;-30900.8807;-14267.8097;-17902.784;-11442.259;-17565.2057;-16976.7514;-17005.2946;-30119.4862;-42946.6814;N;0.0;0
1733235806.858;2098400;-34534.134;-32523.8407;-26151.1803;-33876.0093;-20708.1512;-36536.0677;-31889.0959;-30896.0974;-14245.9944;-17892.8152;-11430.0549;-17547.1902;-16917.2287;-16990.7883;-30119.8214;-42945.6532;N;0.0;0
1733235806.862;2098404;-34539.5654;-32530.9709;-26136.9869;-33838.883;-20707.19;-36536.3806;-31884.0221;-30901.1489;-14221.4522;-17889.0154;-11430.4349;-17546.8773;-16895.0558;-16993.0458;-30128.181;-42951.3976;N;0.0;0
1733235806.866;2098408;-34521.4382;-32524.7571;-26109.7625;-33819.8841;-20701.1774;-36519.7062;-31870.5663;-30891.56;-14213.1373;-17884.9474;-11431.9995;-17541.6246;-16929.1198;-17001.0254;-30107.3045;-42943.2839;N;0.0;0
1733235806.87;2098412;-34514.8668;-32516.4646;-26114.7022;-33850.1483;-20706.8995;-36512.889;-31872.5109;-30889.0343;-14232.3598;-17886.6908;-11431.9324;-17547.2796;-16973.7786;-17001.6736;-30098.5202;-42937.0478;N;0.0;0
1733235806.872;2098416;-34514.4868;-32510.0943;-26131.3543;-33877.8868;-20707.3241;-36515.1688;-31876.5119;-30887.7826;-14246.2403;-17882.8686;-11427.4621;-17545.4468;-16962.6921;-16992.3529;-30099.1237;-42936.0867;N;0.0;0
1733235806.876;2098420;-34519.7842;-32512.486;-26130.6837;-33862.4194;-20699.1211;-36516.8005;-31873.8967;-30887.9167;-14230.147;-17878.4654;-11420.8683;-17534.5838;-16907.5727;-16982.6299;-30101.6271;-42940.3558;N;0.0;0
1733235806.88;2098424;-34532.4799;-32522.4996;-26123.7547;-33833.1386;-20700.9986;-36524.3778;-31877.4059;-30896.7903;-14210.768;-17882.7122;-11427.2162;-17534.2262;-16890.116;-16996.2645;-30112.5124;-42948.9836;N;0.0;0
1733235806.884;2098428;-34530.6247;-32520.0409;-26115.7081;-33828.5565;-20700.7527;-36523.2155;-31876.6683;-30895.0692;-14206.8118;-17880.924;-11432.0219;-17535.8579;-16919.5309;-17001.5618;-30112.6912;-42944.4909;N;0.0;0
1733235806.886;2098432;-34534.7375;-32518.5433;-26135.1988;-33871.2931;-20716.3543;-36534.5702;-31891.7334;-30904.2335;-14240.5406;-17896.0785;-11446.6175;-17557.7626;-16978.0254;-17016.6939;-30115.0605;-42949.006;N;0.0;0
1733235806.89;2098436;-34526.9814;-32518.3421;-26148.2075;-33899.6127;-20715.8178;-36534.4137;-31896.6061;-30904.5687;-14261.0148;-17897.7996;-11446.4387;-17568.0444;-16982.4734;-17019.1079;-30110.7466;-42949.8106;N;0.0;0
1733235806.894;2098440;-34525.0592;-32523.1254;-26143.916;-33878.9374;-20709.604;-36531.2845;-31890.437;-30904.8817;-14247.4473;-17890.4459;-11440.0238;-17561.6518;-16927.734;-17004.4675;-30114.5688;-42951.9787;N;0.0;0
1733235806.898;2098444;-34524.5674;-32523.9301;-26119.1502;-33831.4176;-20700.0375;-36524.1095;-31877.4953;-30898.5785;-14216.9818;-17879.3818;-11431.5301;-17543.9268;-16886.6739;-16994.0069;-30113.5182;-42950.4141;N;0.0;0
1733235806.9;2098448;-34519.583;-32509.2003;-26102.23;-33817.5818;-20693.5331;-36512.889;-31866.6548;-30886.5309;-14205.9401;-17870.7987;-11427.4397;-17534.472;-16914.4347;-16994.1634;-30105.8292;-42941.0487;N;0.0;0
1733235806.904;2098452;-34502.5286;-32498.1585;-26110.1648;-33849.6119;-20693.6225;-36510.7208;-31862.8103;-30882.664;-14223.0168;-17873.8832;-11427.9538;-17535.8132;-16969.2189;-16999.7066;-30098.632;-42933.2256;N;0.0;0
1733235806.908;2098456;-34502.0816;-32502.6959;-26125.8557;-33879.295;-20694.2707;-36512.7102;-31867.9512;-30881.9041;-14235.5785;-17873.7715;-11427.6409;-17534.2932;-16958.7806;-16997.6503;-30095.1004;-42934.902;N;0.0;0
1733235806.912;2098460;-34502.998;-32503.21;-26120.0443;-33855.8927;-20681.4185;-36509.0221;-31864.2184;-30876.6291;-14216.6689;-17862.9309;-11414.3863;-17520.7481;-16888.842;-16975.6114;-30093.3123;-42929.2917;N;0.0;0
1733235806.916;2098464;-34513.0116;-32510.2508;-26111.1036;-33821.1805;-20682.1337;-36515.3924;-31869.0687;-30884.9886;-14201.9391;-17869.1223;-11422.9694;-17522.8938;-16868.9489;-16979.4783;-30107.0362;-42936.042;N;0.0;0
1733235806.92;2098468;-34521.617;-32516.0623;-26109.3825;-33819.6382;-20692.9296;-36517.5158;-31872.9356;-30889.7942;-14209.2034;-17880.3876;-11437.8557;-17537.8472;-16925.0071;-17005.451;-30109.7631;-42943.8204;N;0.0;0
1733235806.924;2098472;-34505.9261;-32504.3052;-26113.7411;-33849.7683;-20693.7343;-36513.1572;-31873.405;-30882.1723;-14233.6562;-17884.4333;-11439.9791;-17547.8607;-16976.7961;-17010.5472;-30097.7156;-42932.9351;N;0.0;0
1733235806.928;2098476;-34501.8581;-32497.9797;-26126.9286;-33875.7858;-20694.7401;-36515.4594;-31876.1989;-30880.8759;-14249.6601;-17884.4556;-11436.291;-17553.4263;-16969.5988;-17001.5395;-30095.8604;-42926.9895;N;0.0;0
1733235806.933;2098480;-34523.7404;-32511.5249;-26137.6351;-33867.3592;-20700.9763;-36527.0376;-31884.3797;-30894.1528;-14241.7923;-17888.7472;-11438.6603;-17555.3709;-16917.8545;-16993.1799;-30110.9701;-42943.3733;N;0.0;0
1733235806.937;2098484;-34523.2934;-32513.4918;-26116.0433;-33822.0298;-20693.9131;-36521.5391;-31873.9638;-30893.0799;-14216.5348;-17881.9969;-11431.2842;-17542.161;-16888.6855;-16989.3578;-30110.1655;-42947.3519;N;0.0;0
1733235806.941;2098488;-34507.7589;-32504.0817;-26103.1017;-33811.6586;-20692.9296;-36514.4983;-31866.543;-30883.8934;-14211.6174;-17877.7948;-11429.5408;-17533.3768;-16922.2355;-16987.6143;-30104.8681;-42933.8738;N;0.0;0
1733235806.945;2098492;-34503.1321;-32502.9194;-26114.881;-33850.3942;-20702.0491;-36516.51;-31872.7568;-30884.0051;-14232.7398;-17882.3099;-11432.2677;-17537.8695;-16959.1382;-16980.5512;-30099.4366;-42927.66;N;0.0;0
1733235806.948;2098496;-34511.6258;-32509.3344;-26132.4272;-33883.0277;-20706.2289;-36525.3836;-31883.6197;-30887.7602;-14256.902;-17892.0329;-11435.8664;-17550.6994;-16957.7301;-16982.7864;-30105.2257;-42931.5269;N;0.0;0
1733235806.952;2098500;-34512.3857;-32505.7581;-26132.3377;-33863.6935;-20697.6682;-36528.9375;-31886.9278;-30892.9235;-14250.7777;-17892.6364;-11435.8664;-17547.2572;-16913.8312;-16984.6863;-30111.7972;-42936.869;N;0.0;0
1733235806.956;2098504;-34504.8755;-32501.9807;-26109.7178;-33819.7276;-20688.1687;-36524.9366;-31877.6742;-30894.8904;-14221.631;-17892.6364;-11437.4533;-17541.9152;-16895.1005;-16994.8563;-30111.3501;-42938.5006;N;0.0;0
1733235806.96;2098508;-34522.6228;-32518.9233;-26110.6342;-33822.7227;-20698.5399;-36526.9482;-31878.7694;-30898.422;-14221.0275;-17898.8948;-11448.0481;-17550.7218;-16936.4065;-17012.246;-30114.7252;-42947.2178;N;0.0;0
1733235806.963;2098512;-34527.4508;-32523.2595;-26125.2075;-33858.7314;-20706.0277;-36527.6858;-31882.9939;-30895.5163;-14240.2723;-17899.6101;-11451.4008;-17555.2815;-16980.9759;-17012.7153;-30112.1771;-42952.1352;N;0.0;0
1733235806.967;2098516;-34513.481;-32525.2265;-26137.5457;-33884.0336;-20704.9549;-36525.6742;-31882.2116;-30895.9186;-14254.2422;-17897.6208;-11451.1326;-17554.7004;-16972.214;-17008.4685;-30106.9692;-42953.4987;N;0.0;0
1733235806.971;2098520;-34505.8143;-32518.7892;-26131.8237;-33863.7605;-20692.9967;-36522.9473;-31878.7694;-30895.0692;-14240.5406;-17891.9211;-11441.7672;-17540.7305;-16913.7642;-17000.2654;-30102.6106;-42954.9515;N;0.0;0
1733235806.975;2098524;-34501.2099;-32515.2352;-26108.4437;-33817.5595;-20685.9559;-36518.5216;-31869.8063;-30891.7165;-14212.288;-17886.892;-11436.0228;-17526.4031;-16887.1209;-17002.3441;-30094.6981;-42949.8553;N;0.0;0
1733235806.989;2098528;-34494.0349;-32509.692;-26098.5866;-33807.9259;-20689.8674;-36516.7335;-31868.4652;-30890.7554;-14208.1305;-17889.0824;-11440.4485;-17529.6664;-16932.5843;-17015.0846;-30088.2608;-42946.212;N;0.0;0
1733235806.993;2098532;-34493.4762;-32508.6191;-26106.9238;-33844.538;-20694.8072;-36515.5935;-31867.2359;-30885.9721;-14228.3812;-17886.5567;-11439.6438;-17531.611;-16970.2023;-17014.6823;-30079.0966;-42945.3403;N;0.0;0
1733235806.997;2098536;-34490.7716;-32505.0429;-26120.2231;-33872.1871;-20692.7732;-36514.163;-31868.4652;-30883.4463;-14243.111;-17883.0475;-11433.1171;-17533.3098;-16955.8078;-16999.5725;-30069.9547;-42943.5298;N;0.0;0
1733235807.001;2098540;-34489.1623;-32509.0662;-26116.2668;-33853.1211;-20688.2134;-36512.3302;-31865.1348;-30885.1451;-14230.4599;-17878.6889;-11428.3115;-17528.6606;-16907.8186;-16983.8592;-30070.2006;-42946.3908;N;0.0;0
1733235807.005;2098544;-34490.4587;-32514.3859;-26098.296;-33814.0726;-20680.0327;-36511.6596;-31864.7996;-30889.4366;-14207.7059;-17876.8784;-11430.9937;-17525.3525;-16881.3094;-16985.6474;-30082.7399;-42952.0458;N;0.0;0
1733235807.009;2098548;-34473.6949;-32496.1692;-26075.0279;-33795.8783;-20667.6051;-36496.7957;-31851.5673;-30875.7573;-14195.4571;-17868.6753;-11427.7974;-17517.7529;-16910.2103;-16989.3801;-30067.1607;-42937.0478;N;0.0;0
1733235807.013;2098552;-34456.6852;-32475.9185;-26073.7538;-33818.5877;-20664.9899;-36485.061;-31843.0066;-30861.4746;-14206.1412;-17856.6501;-11418.0967;-17512.3438;-16941.458;-16975.075;-30049.9275;-42923.3685;N;0.0;0
1733235807.017;2098556;-34458.4733;-32480.2548;-26097.3796;-33853.2776;-20673.6624;-36493.6665;-31857.5352;-30868.1577;-14231.3987;-17865.0767;-11418.7449;-17521.3963;-16939.8263;-16974.7174;-30058.8235;-42929.1353;N;0.0;0
1733235807.019;2098560;-34470.2303;-32490.4472;-26102.4982;-33843.8675;-20674.6459;-36504.3506;-31862.475;-30880.1159;-14225.7437;-17871.3799;-11421.7624;-17524.1455;-16899.5932;-16978.4054;-30071.8993;-42938.0536;N;0.0;0
1733235807.023;2098564;-34493.0515;-32507.6133;-26104.1299;-33821.0464;-20685.1289;-36521.472;-31874.5896;-30900.836;-14220.2005;-17887.0708;-11443.4436;-17539.5012;-16897.0004;-17009.1391;-30091.4347;-42956.7173;N;0.0;0
1733235807.027;2098568;-34501.9028;-32514.2071;-26106.1415;-33820.6217;-20697.7576;-36530.9268;-31884.8491;-30912.0119;-14233.0751;-17903.3875;-11469.0587;-17558.3437;-16958.5124;-17047.0476;-30102.6329;-42964.451;N;0.0;0
1733235807.031;2098572;-34495.1972;-32510.9661;-26116.6692;-33856.5856;-20705.0443;-36530.6363;-31888.2242;-30906.4686;-14253.4375;-17903.2758;-11467.6505;-17565.4292;-17007.9768;-17050.8474;-30098.3191;-42957.1643;N;0.0;0
1733235807.037;2098576;-34494.4596;-32512.2625;-26134.5059;-33885.6205;-20705.9383;-36534.9725;-31887.643;-30901.7524;-14265.6639;-17896.6373;-11451.3785;-17561.2494;-16977.2208;-17021.6337;-30104.2199;-42958.5949;N;0.0;0
1733235807.041;2098580;-34502.1486;-32519.035;-26137.7692;-33871.0248;-20701.6692;-36541.8121;-31891.1076;-30907.4745;-14262.0653;-17900.1018;-11446.4387;-17560.9589;-16927.0411;-17010.4578;-30112.1548;-42966.7085;N;0.0;0
1733235807.045;2098584;-34507.6025;-32522.5443;-26114.9257;-33830.2553;-20691.8344;-36533.8549;-31885.3408;-30906.871;-14235.8691;-17894.1786;-11448.6739;-17552.644;-16908.8691;-17016.6492;-30111.6854;-42967.8261;N;0.0;0
1733235807.049;2098588;-34495.5549;-32514.6988;-26098.6984;-33819.3923;-20689.7557;-36522.8131;-31877.0483;-30901.7524;-14233.5445;-17890.7812;-11455.6253;-17554.3204;-16953.6173;-17032.7201;-30105.4269;-42960.7406;N;0.0;0
1733235807.051;2098592;-34484.9601;-32498.0691;-26102.6099;-33848.7178;-20687.8111;-36515.5041;-31877.0707;-30893.5046;-14249.4366;-17895.2292;-11457.7264;-17562.1435;-16998.7008;-17033.0778;-30092.1053;-42949.7659;N;0.0;0
1733235807.055;2098596;-34491.8892;-32500.6172;-26125.9675;-33876.7692;-20692.192;-36523.4166;-31887.0842;-30898.4444;-14265.5075;-17897.889;-11456.2511;-17566.5021;-16987.1897;-17025.2323;-30097.3356;-42949.0283;N;0.0;0
1733235807.059;2098600;-34488.2458;-32499.589;-26117.6974;-33850.6848;-20682.4914;-36518.6557;-31878.2553;-30892.5882;-14242.5299;-17880.9687;-11440.4932;-17544.6197;-16914.5241;-17006.5686;-30091.2112;-42948.0895;N;0.0;0
1733235807.063;2098604;-34478.1429;-32490.7154;-26091.2776;-33802.6285;-20666.2193;-36508.7092;-31864.2408;-30884.251;-14211.6621;-17867.8706;-11432.156;-17529.0182;-16885.1316;-17001.0477;-30080.4377;-42944.558;N;0.0;0
1733235807.066;2098608;-34482.4567;-32492.3471;-26084.2144;-33802.6956;-20670.9579;-36508.888;-31862.7656;-30884.3181;-14210.8575;-17870.8434;-11440.4708;-17536.7072;-16929.4775;-17015.6211;-30077.9119;-42940.6911;N;0.0;0
1733235807.07;2098612;-34473.1584;-32489.8884;-26095.7032;-33838.5478;-20680.5468;-36509.3797;-31865.6266;-30885.078;-14237.2549;-17877.2807;-11445.6788;-17548.4866;-16980.8865;-17021.8572;-30075.9673;-42935.1032;N;0.0;0
1733235807.074;2098616;-34468.2634;-32485.7533;-26107.2367;-33863.1347;-20681.3291;-36508.9774;-31869.3817;-30883.6028;-14252.2752;-17875.9396;-11439.4873;-17549.1795;-16971.3199;-17008.5356;-30081.3988;-42935.2149;N;0.0;0
1733235807.078;2098620;-34479.104;-32495.6551;-26116.2221;-33849.3884;-20682.1561;-36517.9628;-31878.5235;-30894.0634;-14245.2568;-17884.5003;-11444.6282;-17555.4156;-16930.908;-17012.8718;-30089.4901;-42945.4967;N;0.0;0
1733235807.081;2098624;-34486.9718;-32503.657;-26103.3475;-33812.7315;-20684.2124;-36518.1416;-31877.1377;-30901.5736;-14220.2228;-17880.3205;-11442.3037;-17542.4963;-16899.7273;-17007.9991;-30093.0887;-42952.5375;N;0.0;0
1733235807.085;2098628;-34489.5422;-32506.3616;-26093.781;-33811.3233;-20686.5594;-36512.4196;-31870.8122;-30897.595;-14214.0314;-17875.5149;-11441.879;-17533.7568;-16927.8458;-17004.5123;-30088.3278;-42953.9233;N;0.0;0
1733235807.089;2098632;-34486.1001;-32499.3655;-26103.5264;-33848.4719;-20692.0356;-36513.5148;-31874.5673;-30892.387;-14237.6795;-17879.6276;-11443.8906;-17539.8588;-16972.5716;-17008.0438;-30081.8682;-42948.7154;N;0.0;0
1733235807.093;2098636;-34464.4189;-32486.3344;-26106.365;-33862.5982;-20675.8976;-36504.3953;-31866.7889;-30878.216;-14239.4006;-17863.6909;-11425.5846;-17530.9405;-16959.1382;-16991.8388;-30065.3726;-42931.661;N;0.0;0
1733235807.097;2098640;-34468.4869;-32489.2849;-26104.0628;-33842.8617;-20671.0473;-36502.0931;-31863.6373;-30877.2549;-14223.7768;-17856.7171;-11415.8392;-17521.6645;-16905.9634;-16978.2266;-30063.808;-42932.6445;N;0.0;0
1733235807.101;2098644;-34468.1516;-32483.4511;-26084.6168;-33798.8511;-20664.9005;-36493.8229;-31854.1825;-30873.4104;-14188.7292;-17845.7648;-11406.4291;-17501.0115;-16866.8255;-16966.3578;-30063.7856;-42932.1304;N;0.0;0
1733235807.105;2098648;-34471.5267;-32489.419;-26082.3816;-33796.7277;-20679.7421;-36498.0921;-31860.5974;-30879.2889;-14194.2948;-17856.1807;-11420.1307;-17509.5946;-16914.0771;-16985.4462;-30068.8148;-42936.8913;N;0.0;0
1733235807.109;2098652;-34477.8076;-32493.8446;-26100.2854;-33837.162;-20692.2591;-36506.2952;-31870.5887;-30883.7146;-14225.2743;-17869.927;-11429.4961;-17527.5877;-16965.9778;-16998.4996;-30073.3298;-42940.3335;N;0.0;0
1733235807.112;2098656;-34492.5821;-32509.0662;-26132.226;-33884.95;-20706.1619;-36524.9589;-31891.3758;-30899.5843;-14258.1984;-17887.8754;-11439.3309;-17546.5867;-16966.0002;-17004.9593;-30092.0606;-42955.4209;N;0.0;0
1733235807.116;2098660;-34500.6734;-32518.0292;-26139.0433;-33875.8305;-20708.0394;-36533.4079;-31897.8801;-30908.9273;-14256.4774;-17891.9658;-11446.4834;-17548.5983;-16920.425;-17007.0156;-30101.9624;-42966.4627;N;0.0;0
1733235807.12;2098664;-34495.1525;-32513.8494;-26113.8976;-33827.5507;-20697.0647;-36522.0085;-31881.8763;-30904.3452;-14222.7709;-17879.2477;-11443.4659;-17536.3272;-16890.9654;-17004.0652;-30096.5309;-42962.8193;N;0.0;0
1733235807.124;2098668;-34492.8503;-32516.3528;-26103.3475;-33820.197;-20700.8868;-36517.0687;-31877.0483;-30901.7748;-14222.7039;-17878.9124;-11448.2492;-17543.2786;-16934.8866;-17011.9554;-30097.4026;-42958.5278;N;0.0;0
1733235807.126;2098672;-34494.4596;-32514.14;-26121.4077;-33861.0113;-20714.4096;-36527.4176;-31889.1183;-30903.8758;-14255.1139;-17891.1388;-11456.6535;-17560.2436;-16991.5259;-17021.9243;-30099.1237;-42960.0477;N;0.0;0
1733235807.13;2098676;-34494.862;-32503.7241;-26133.6789;-33884.2794;-20706.4971;-36526.4788;-31890.7052;-30897.9303;-14262.2665;-17887.4061;-11449.7691;-17552.2417;-16974.695;-17008.1109;-30094.2957;-42950.8612;N;0.0;0
1733235807.134;2098680;-34498.5276;-32501.176;-26126.9286;-33861.5254;-20692.0356;-36518.5887;-31883.128;-30893.5717;-14241.0323;-17877.2137;-11432.8936;-17540.1941;-16913.0042;-16988.3296;-30091.1218;-42945.7203;N;0.0;0
1733235807.138;2098684;-34491.5539;-32500.7513;-26101.9394;-33811.5916;-20679.5633;-36508.9774;-31866.0289;-30887.4026;-14209.3599;-17869.5694;-11423.9082;-17521.8657;-16879.4543;-16979.5007;-30085.2433;-42941.2723;N;0.0;0
1733235807.142;2098688;-34485.586;-32505.2217;-26099.436;-33808.1047;-20685.8441;-36508.061;-31862.2291;-30889.6154;-14213.5173;-17874.4867;-11436.0228;-17529.6217;-16927.4434;-16996.3315;-30082.7622;-42946.0779;N;0.0;0
1733235807.146;2098692;-34482.345;-32503.6123;-26122.4583;-33855.9151;-20705.6031;-36521.3379;-31879.127;-30899.6737;-14249.7718;-17893.3963;-11457.1452;-17555.6168;-16988.2625;-17019.7114;-30082.1811;-42955.7115;N;0.0;0
1733235807.15;2098696;-34459.7474;-32485.9321;-26129.7226;-33880.2561;-20700.5292;-36525.7636;-31885.9443;-30899.2937;-14270.246;-17895.2739;-11455.7147;-17562.367;-16977.9584;-17012.9612;-30082.3376;-42948.3578;N;0.0;0
1733235807.154;2098700;-34474.8572;-32491.073;-26125.6099;-33856.1162;-20684.1677;-36520.8238;-31873.8967;-30889.4813;-14246.1509;-17876.7443;-11434.4582;-17541.4234;-16913.0489;-16983.7922;-30088.1714;-42941.5405;N;0.0;0
1733235807.156;2098704;-34494.862;-32507.4121;-26110.0531;-33815.6819;-20682.7372;-36516.9793;-31870.8345;-30888.699;-14212.8915;-17868.8094;-11427.7303;-17526.9619;-16882.9411;-16983.4346;-30092.3958;-42947.0167;N;0.0;0
1733235807.16;2098708;-34497.5218;-32503.5453;-26105.5827;-33813.3797;-20690.6945;-36516.3982;-31876.713;-30893.0352;-14216.9818;-17880.5441;-11441.0967;-17536.5955;-16928.6057;-17007.6415;-30094.1616;-42944.2674;N;0.0;0
1733235807.164;2098712;-34484.379;-32481.9088;-26108.7343;-33842.7722;-20689.0628;-36510.4973;-31870.2757;-30883.7146;-14236.6514;-17879.9629;-11444.6282;-17546.6314;-16978.9642;-17011.3742;-30088.3949;-42928.5541;N;0.0;0
1733235807.168;2098716;-34484.4237;-32481.9759;-26125.9675;-33873.3047;-20691.2309;-36515.1912;-31873.1815;-30885.2345;-14254.9574;-17877.2807;-11437.3863;-17550.5653;-16963.8321;-16991.9729;-30094.6534;-42927.1683;N;0.0;0
1733235807.173;2098720;-34492.7609;-32489.9554;-26129.9014;-33860.6983;-20687.1629;-36520.7568;-31875.9084;-30888.9002;-14248.8778;-17876.2749;-11429.0714;-17541.1329;-16908.2209;-16977.6231;-30101.4036;-42930.1187;N;0.0;0
1733235807.177;2098724;-34501.7686;-32493.0176;-26122.1007;-33825.8073;-20686.2465;-36524.0201;-31878.2553;-30893.1023;-14232.2034;-17879.7618;-11435.2182;-17542.7422;-16886.6515;-16989.8495;-30110.1208;-42937.4725;N;0.0;0
1733235807.181;2098728;-34491.4198;-32484.4792;-26107.7508;-33813.2009;-20684.8383;-36515.7276;-31869.9181;-30886.665;-14228.0683;-17876.6772;-11436.4028;-17543.1445;-16922.3025;-16994.2752;-30107.7068;-42931.9739;N;0.0;0
1733235807.185;2098732;-34486.4354;-32479.0031;-26115.7751;-33847.4661;-20694.8742;-36516.8676;-31874.9472;-30888.6766;-14248.766;-17883.8074;-11441.7672;-17554.9015;-16978.2043;-17006.8592;-30097.7603;-42930.2305;N;0.0;0
1733235807.189;2098736;-34488.1117;-32480.8583;-26130.8178;-33873.26;-20696.4612;-36520.3321;-31877.3612;-30887.1344;-14262.4453;-17883.1145;-11436.7828;-17557.0473;-16969.9341;-16995.4598;-30093.4911;-42928.6435;N;0.0;0
1733235807.193;2098740;-34488.2011;-32477.0138;-26129.1191;-33853.7693;-20690.1357;-36520.8238;-31878.8588;-30891.5377;-14247.112;-17877.4595;-11431.6195;-17547.0114;-16910.9926;-16986.1838;-30096.7097;-42930.3646;N;0.0;0
1733235807.197;2098744;-34480.4674;-32475.7621;-26098.676;-33803.2991;-20676.7917;-36508.1057;-31867.9512;-30884.7651;-14208.5776;-17863.3779;-11421.673;-17522.7374;-16870.223;-16981.3111;-30089.2219;-42929.5599;N;0.0;0
1733235807.201;2098748;-34478.8805;-32474.8904;-26089.0871;-33793.129;-20677.7081;-36503.0989;-31863.8384;-30880.4736;-14205.6271;-17862.7074;-11428.2668;-17521.5304;-16908.8021;-16987.212;-30088.7302;-42922.3627;N;0.0;0
1733235807.203;2098752;-34465.9835;-32461.1217;-26090.5847;-33822.1416;-20675.8305;-36495.4323;-31856.9094;-30872.3152;-14222.458;-17859.3099;-11424.8469;-17516.1883;-16943.8496;-16982.2499;-30074.4027;-42907.6329;N;0.0;0
1733235807.207;2098756;-34474.0301;-32469.8165;-26119.8208;-33861.3465;-20684.5477;-36508.1728;-31871.371;-30883.1558;-14248.7884;-17869.4353;-11430.9713;-17529.3982;-16946.1295;-16982.2723;-30078.6272;-42916.5959;N;0.0;0
1733235807.211;2098760;-34490.9504;-32482.4899;-26134.9753;-33855.8927;-20690.918;-36524.7801;-31883.508;-30896.4327;-14251.8952;-17878.5771;-11435.9781;-17542.6304;-16915.0159;-16989.1566;-30098.7884;-42933.4939;N;0.0;0
1733235807.215;2098764;-34513.7939;-32499.209;-26129.6779;-33829.987;-20697.1541;-36535.0842;-31888.3806;-30907.8544;-14237.7242;-17889.2836;-11448.8304;-17548.1737;-16905.047;-17008.7814;-30119.6873;-42952.4928;N;0.0;0
1733235807.23;2098768;-34512.7657;-32511.3237;-26124.4252;-33829.3836;-20707.1453;-36540.3146;-31890.9511;-30913.7329;-14238.6407;-17897.3973;-11462.4649;-17557.6061;-16946.286;-17027.3557;-30128.8962;-42957.7008;N;0.0;0
1733235807.234;2098772;-34513.3692;-32511.1896;-26139.4903;-33865.8839;-20717.4495;-36545.1872;-31898.1037;-30917.1975;-14267.5191;-17908.5508;-11473.2385;-17573.7664;-16999.9972;-17039.2692;-30125.6999;-42956.9632;N;0.0;0
1733235807.238;2098776;-34508.72;-32501.8018;-26152.3649;-33888.9733;-20712.3756;-36536.9171;-31895.5779;-30907.4521;-14276.4598;-17904.2816;-11459.7157;-17571.4642;-16989.0895;-17023.3995;-30119.6873;-42951.3752;N;0.0;0
1733235807.242;2098780;-34497.8794;-32484.0993;-26136.0928;-33854.574;-20692.2814;-36523.3496;-31879.6635;-30894.2869;-14252.9011;-17883.9415;-11441.3872;-17551.9511;-16924.7165;-16999.1031;-30109.7855;-42937.5172;N;0.0;0
1733235807.244;2098784;-34501.7239;-32490.7601;-26117.7197;-33818.9229;-20692.2144;-36524.2213;-31879.8646;-30902.5124;-14232.8963;-17883.6063;-11448.3163;-17552.6217;-16908.2433;-17009.5861;-30113.25;-42945.4967;N;0.0;0
1733235807.248;2098788;-34505.5908;-32497.2868;-26115.7528;-33822.3651;-20702.8762;-36529.4293;-31887.6877;-30907.7427;-14237.4113;-17896.302;-11461.6603;-17563.0376;-16961.9545;-17034.5083;-30113.8759;-42948.7824;N;0.0;0
1733235807.252;2098792;-34480.7133;-32475.9409;-26112.1765;-33842.9287;-20693.8237;-36517.8511;-31880.1552;-30890.9342;-14241.457;-17883.338;-11450.3279;-17555.505;-16990.3189;-17020.9184;-30091.4794;-42929.9399;N;0.0;0
1733235807.256;2098796;-34472.8902;-32466.0614;-26124.537;-33864.297;-20687.677;-36514.0736;-31874.3885;-30881.2112;-14248.8107;-17872.1622;-11429.2055;-17544.6868;-16962.6027;-16987.7037;-30081.5776;-42919.6134;N;0.0;0
1733235807.26;2098800;-34486.9271;-32477.2373;-26130.572;-33851.02;-20689.1522;-36521.2709;-31878.4788;-30890.5989;-14246.5532;-17875.0679;-11429.0714;-17543.1445;-16911.6184;-16985.8709;-30093.5134;-42931.3928;N;0.0;0
1733235807.264;2098804;-34496.2031;-32485.4851;-26118.2785;-33813.7373;-20687.3417;-36522.612;-31879.5964;-30898.422;-14233.835;-17879.9629;-11437.5427;-17546.095;-16898.2074;-16997.2703;-30106.0081;-42939.3947;N;0.0;0
1733235807.268;2098808;-34501.0534;-32489.799;-26115.0151;-33813.3797;-20693.779;-36523.819;-31879.7082;-30900.7019;-14235.7126;-17887.2496;-11450.0374;-17556.2203;-16943.045;-17014.4141;-30111.7077;-42940.9146;N;0.0;0
1733235807.272;2098812;-34495.5549;-32481.1712;-26126.7722;-33846.885;-20695.2319;-36525.026;-31877.8083;-30896.8574;-14256.2315;-17891.0717;-11452.6972;-17564.2446;-16995.0351;-17023.7795;-30108.5785;-42933.8515;N;0.0;0
1733235807.276;2098816;-34486.4801;-32481.5735;-26143.7595;-33874.0647;-20696.5953;-36529.4293;-31886.1008;-30898.7349;-14277.2868;-17893.3293;-11456.3629;-17573.0959;-16988.3966;-17024.83;-30108.8244;-42935.282;N;0.0;0
1733235807.28;2098820;-34480.9368;-32474.6445;-26133.2318;-33846.3709;-20681.5302;-36521.1144;-31877.4059;-30889.1013;-14253.5269;-17879.27;-11438.1462;-17556.9355;-16922.8837;-16994.2081;-30101.6271;-42931.3257;N;0.0;0
1733235807.284;2098824;-34486.8153;-32468.453;-26105.7392;-33798.8287;-20670.9132;-36509.8268;-31864.3525;-30881.2112;-14220.3793;-17866.7754;-11429.6526;-17540.1047;-16889.9596;-16992.5317;-30095.8604;-42926.9001;N;0.0;0
1733235807.288;2098828;-34486.3907;-32464.6086;-26094.4068;-33798.9852;-20675.4953;-36503.8812;-31859.6363;-30880.7418;-14213.0703;-17864.652;-11436.0899;-17538.5848;-16924.6718;-17006.9709;-30090.7642;-42924.3073;N;0.0;0
1733235807.291;2098832;-34469.6492;-32464.9885;-26102.8111;-33830.4117;-20680.2562;-36497.8239;-31860.5974;-30875.6009;-14229.7;-17865.6802;-11436.6487;-17538.1601;-16969.1071;-17003.4617;-30080.8623;-42914.2267;N;0.0;0
1733235807.295;2098836;-34467.0787;-32465.5697;-26117.3621;-33854.6187;-20678.4233;-36503.3895;-31863.1008;-30872.4269;-14246.0391;-17861.7015;-11424.5787;-17534.8297;-16951.5386;-16980.7076;-30079.2754;-42916.283;N;0.0;0
1733235807.299;2098840;-34462.2955;-32463.6921;-26109.8966;-33838.3913;-20670.9355;-36505.3341;-31858.027;-30873.8351;-14233.2092;-17855.5995;-11415.5039;-17529.577;-16896.1957;-16964.6144;-30077.3084;-42916.4395;N;0.0;0
1733235807.303;2098844;-34473.3372;-32470.3753;-26099.0784;-33804.0367;-20673.2154;-36507.0105;-31859.9269;-30882.284;-14211.7739;-17861.2992;-11423.2823;-17525.6878;-16879.8119;-16976.6173;-30082.3599;-42921.7368;N;0.0;0
1733235807.307;2098848;-34481.6074;-32469.2354;-26094.1163;-33803.5896;-20678.5798;-36508.8657;-31861.648;-30882.9769;-14208.3541;-17866.3954;-11433.3406;-17527.476;-16922.8613;-16991.1906;-30087.2549;-42922.0721;N;0.0;0
1733235807.311;2098852;-34493.9679;-32473.9963;-26123.9335;-33852.4282;-20694.7401;-36524.4225;-31876.9813;-30895.3375;-14246.7991;-17885.2379;-11451.8926;-17553.6945;-16986.0497;-17010.2343;-30102.9235;-42931.5716;N;0.0;0
1733235807.315;2098856;-34474.1195;-32462.7757;-26127.2416;-33865.571;-20682.3125;-36514.3418;-31865.4701;-30879.8701;-14250.8;-17872.3186;-11439.8673;-17545.1338;-16973.5551;-16990.4307;-30091.6135;-42918.9652;N;0.0;0
1733235807.319;2098860;-34497.2536;-32485.9992;-26145.7264;-33867.6497;-20695.5001;-36533.609;-31879.1717;-30895.8963;-14253.3481;-17883.4945;-11444.2706;-17550.0065;-16926.8623;-16994.2752;-30116.9604;-42937.0478;N;0.0;0
1733235807.321;2098864;-34510.307;-32492.5482;-26133.1871;-33833.4069;-20696.3941;-36533.4526;-31879.6635;-30903.25;-14233.6339;-17882.5557;-11442.3707;-17548.7772;-16895.8381;-16996.2645;-30124.2694;-42942.9933;N;0.0;0
1733235807.325;2098868;-34491.7104;-32473.3257;-26103.6381;-33807.2777;-20683.9442;-36509.8491;-31858.7199;-30885.1004;-14207.7729;-17863.1097;-11425.4504;-17528.7724;-16911.5737;-16985.3792;-30100.6213;-42924.8437;N;0.0;0
1733235807.329;2098872;-34488.6929;-32487.2285;-26125.2299;-33852.5847;-20702.7644;-36521.1591;-31875.9978;-30894.3093;-14237.7242;-17880.2088;-11444.1141;-17544.128;-16973.3763;-17006.6357;-30101.5154;-42934.2538;N;0.0;0
1733235807.333;2098876;-34513.6151;-32512.0389;-26173.532;-33911.4144;-20730.1229;-36555.9608;-31914.6439;-30924.5735;-14288.9097;-17913.2223;-11473.7302;-17580.6507;-17000.1537;-17034.7318;-30128.1586;-42959.8689;N;0.0;0
1733235807.337;2098880;-34515.5597;-32500.1255;-26161.6185;-33886.2687;-20715.259;-36549.0988;-31906.642;-30918.5609;-14271.6318;-17903.4323;-11458.8216;-17571.3748;-16949.594;-17019.7114;-30128.6951;-42953.3422;N;0.0;0
1733235807.341;2098884;-34500.7628;-32489.0837;-26125.1852;-33827.3272;-20693.5555;-36527.127;-31880.1999;-30900.5231;-14226.1013;-17879.9406;-11437.3639;-17539.0542;-16899.5708;-16996.4209;-30113.0489;-42940.7582;N;0.0;0
1733235807.345;2098888;-34505.2555;-32491.5871;-26121.5642;-33823.9074;-20704.1055;-36529.3846;-31882.0551;-30901.8642;-14225.0732;-17886.1097;-11450.7079;-17536.9978;-16937.457;-17004.8252;-30116.2675;-42943.5968;N;0.0;0
1733235807.349;2098892;-34497.1418;-32483.1158;-26129.9908;-33856.675;-20710.3193;-36527.1047;-31881.2281;-30898.1314;-14249.3024;-17889.1942;-11455.7818;-17547.3243;-16983.6134;-17012.0001;-30108.1538;-42937.7407;N;0.0;0
1733235807.351;2098896;-34488.0;-32482.6017;-26141.9266;-33883.9442;-20707.5253;-36525.9647;-31882.2116;-30895.3151;-14263.2499;-17886.4002;-11445.8799;-17552.8452;-16977.8019;-17006.3898;-30105.5387;-42931.3034;N;0.0;0
1733235807.355;2098900;-34499.3994;-32490.7601;-26149.8839;-33872.366;-20707.6818;-36532.4914;-31885.609;-30903.2053;-14255.1363;-17882.2652;-11441.2084;-17547.369;-16923.0625;-16993.5599;-30118.2568;-42939.73;N;0.0;0
1733235807.359;2098904;-34506.1496;-32495.0069;-26132.9189;-33836.0891;-20703.7926;-36530.7257;-31878.9929;-30905.2616;-14226.906;-17874.0621;-11439.2191;-17539.5459;-16886.6515;-16989.0225;-30121.9225;-42945.3179;N;0.0;0
1733235807.363;2098908;-34502.6404;-32492.66;-26123.7323;-33828.6683;-20706.5642;-36527.8199;-31877.8306;-30904.7252;-14220.2675;-17877.3925;-11446.0811;-17544.5974;-16931.0197;-17001.5171;-30115.1723;-42941.1829;N;0.0;0
1733235807.365;2098912;-34499.5111;-32489.5531;-26134.6847;-33861.1454;-20715.7061;-36530.6363;-31885.7208;-30903.0935;-14241.9487;-17884.098;-11449.6127;-17550.4312;-16986.7873;-17008.0438;-30109.0702;-42935.9302;N;0.0;0
1733235807.369;2098916;-34510.754;-32499.5667;-26158.6905;-33899.7915;-20723.7974;-36543.1085;-31900.3388;-30910.2014;-14266.8039;-17893.9328;-11453.4572;-17560.4448;-16981.8476;-17006.3451;-30117.8768;-42942.3898;N;0.0;0
1733235807.373;2098920;-34512.7434;-32509.6026;-26161.7303;-33893.8907;-20721.4952;-36550.3728;-31909.4807;-30921.4219;-14263.0041;-17899.7219;-11455.4688;-17561.4059;-16930.081;-17004.3111;-30130.6397;-42954.3257;N;0.0;0
1733235807.377;2098924;-34505.5461;-32510.0943;-26135.8246;-33850.0142;-20711.4369;-36541.7004;-31898.9307;-30915.9458;-14232.7845;-17891.1388;-11453.6136;-17547.749;-16903.46;-17009.8767;-30127.8234;-42950.2577;N;0.0;0
1733235807.382;2098928;-34502.9086;-32504.2382;-26123.1065;-33840.6041;-20713.7838;-36534.3243;-31892.6275;-30911.2072;-14228.2024;-17889.5742;-11456.5641;-17543.7257;-16938.217;-17015.8222;-30123.5318;-42951.1517;N;0.0;0
1733235807.386;2098932;-34495.7784;-32494.761;-26132.8965;-33867.6721;-20713.7391;-36531.3068;-31889.0736;-30902.5571;-14249.2801;-17889.3507;-11449.6127;-17549.783;-16984.3957;-17007.418;-30116.3122;-42943.038;N;0.0;0
1733235807.39;2098936;-34491.6657;-32489.1731;-26147.6934;-33892.4602;-20710.2299;-36530.8598;-31887.576;-30899.3161;-14263.2276;-17885.8638;-11446.9752;-17552.8005;-16983.8592;-17007.1051;-30110.9925;-42937.6289;N;0.0;0
1733235807.394;2098940;-34482.7473;-32477.662;-26131.1084;-33857.4573;-20689.711;-36514.2971;-31870.0522;-30886.1062;-14230.6164;-17863.9367;-11424.2435;-17523.4526;-16906.1199;-16977.936;-30096.9779;-42928.3306;N;0.0;0
1733235807.397;2098944;-34471.4373;-32463.2004;-26093.7363;-33802.5168;-20672.2766;-36493.1747;-31846.9405;-30869.6777;-14184.6612;-17839.618;-11407.5243;-17495.96;-16856.8343;-16953.3938;-30078.5378;-42915.9924;N;0.0;0
1733235807.401;2098948;-34438.0438;-32442.7262;-26065.9754;-33779.0921;-20657.2786;-36471.6053;-31827.6957;-30851.6398;-14166.601;-17825.38;-11398.2037;-17481.4537;-16878.2696;-16949.9069;-30053.4815;-42896.4794;N;0.0;0
1733235807.405;2098952;-34439.1614;-32449.0964;-26078.1348;-33817.9395;-20665.6158;-36473.5499;-31833.0377;-30851.841;-14191.6573;-17831.7055;-11404.1045;-17493.1213;-16924.8506;-16953.1256;-30053.6379;-42897.5075;N;0.0;0
1733235807.409;2098956;-34489.0282;-32482.937;-26136.7187;-33881.9101;-20705.5584;-36519.0804;-31875.4166;-30888.1849;-14249.1683;-17871.1787;-11437.2745;-17538.2048;-16959.317;-16985.558;-30096.3074;-42932.5104;N;0.0;0
1733235807.417;2098960;-34538.4032;-32524.69;-26182.9644;-33905.8936;-20742.4611;-36567.8743;-31919.4943;-30934.9671;-14282.8971;-17914.2728;-11476.8595;-17578.5497;-16960.9934;-17020.3149;-30148.5211;-42975.0681;N;0.0;0
1733235807.421;2098964;-34558.095;-32543.7337;-26180.7963;-33876.4563;-20749.9042;-36577.2396;-31929.329;-30951.6191;-14270.4248;-17926.4992;-11491.1646;-17581.2989;-16945.6154;-17036.6317;-30164.8378;-42990.7143;N;0.0;0
1733235807.425;2098968;-34528.0096;-32520.3985;-26143.0666;-33846.6614;-20724.5573;-36550.1717;-31899.2659;-30925.6911;-14244.698;-17902.4264;-11472.2773;-17556.265;-16961.4851;-17025.6793;-30134.3501;-42967.9826;N;0.0;0
1733235807.429;2098972;-34496.0019;-32489.9107;-26132.226;-33866.2416;-20709.984;-36533.0279;-31886.7043;-30904.4346;-14249.3919;-17888.1884;-11461.0121;-17547.3914;-16991.9506;-17011.3966;-30114.0323;-42943.7757;N;0.0;0
1733235807.43;2098976;-34485.1837;-32477.6173;-26140.2503;-33887.6098;-20701.3562;-36526.4341;-31882.2339;-30894.7787;-14255.4268;-17880.7452;-11447.1987;-17542.921;-16976.5279;-16992.7105;-30100.6436;-42939.4171;N;0.0;0
1733235807.434;2098980;-34490.1234;-32486.9603;-26131.3096;-33863.1347;-20690.4933;-36514.1854;-31865.5819;-30887.8496;-14229.5435;-17861.6345;-11426.2328;-17523.6985;-16913.0936;-16969.6659;-30092.3511;-42939.9535;N;0.0;0
1733235807.438;2098984;-34493.9232;-32485.2839;-26105.7392;-33820.2193;-20684.9948;-36510.1174;-31858.094;-30886.3297;-14204.7331;-17857.8123;-11425.7187;-17515.5848;-16889.1996;-16974.7174;-30093.2229;-42934.835;N;0.0;0
1733235807.442;2098988;-34483.1944;-32478.0419;-26099.0113;-33819.5711;-20690.7839;-36511.3914;-31863.7937;-30888.9225;-14211.3939;-17867.1777;-11441.9907;-17530.0464;-16936.0712;-16995.9292;-30096.4415;-42937.0478;N;0.0;0
1733235807.442;2098992;-34477.7182;-32473.4151;-26107.4156;-33846.1027;-20692.2367;-36506.9434;-31862.8997;-30882.5523;-14227.1742;-17866.4401;-11440.0461;-17534.6732;-16983.0546;-16996.6891;-30089.7583;-42932.8009;N;0.0;0
1733235807.446;2098996;-34481.1603;-32476.8797;-26127.9568;-33877.2386;-20694.0696;-36511.5926;-31872.3768;-30887.0673;-14247.8496;-17873.0339;-11437.1181;-17539.2106;-16976.3267;-16989.6483;-30094.8545;-42934.9914;N;0.0;0
1733235807.45;2099000;-34489.6093;-32487.9214;-26135.3776;-33864.2076;-20691.1415;-36516.6888;-31875.1708;-30891.8282;-14244.0051;-17875.4032;-11434.1453;-17536.7519;-16922.012;-16980.9312;-30103.6164;-42940.11;N;0.0;0
1733235807.454;2099004;-34485.8989;-32475.5386;-26109.2037;-33812.575;-20675.8305;-36505.8929;-31856.44;-30881.2335;-14207.013;-17859.5334;-11422.3659;-17513.0367;-16879.566;-16970.6494;-30095.5474;-42932.7562;N;0.0;0
1733235807.469;2099008;-34474.3431;-32462.2616;-26088.6624;-33796.0795;-20672.0084;-36496.6169;-31844.4148;-30872.3152;-14195.2336;-17858.2817;-11423.9529;-17508.3429;-16903.9965;-16977.5337;-30086.4503;-42923.6367;N;0.0;0
1733235807.473;2099012;-34465.2459;-32453.4997;-26093.8257;-33828.4448;-20674.8918;-36494.9629;-31843.7889;-30867.8895;-14214.0985;-17858.237;-11429.5855;-17518.5576;-16955.6513;-16979.7465;-30082.6952;-42915.8807;N;0.0;0
1733235807.477;2099016;-34469.9845;-32466.4414;-26120.0666;-33870.3543;-20686.917;-36505.3117;-31861.0668;-30876.3832;-14240.1606;-17866.1719;-11432.4465;-17534.0027;-16957.3501;-16983.1216;-30091.5241;-42925.4919;N;0.0;0
1733235807.481;2099020;-34475.8853;-32473.3034;-26119.8878;-33854.5963;-20681.8208;-36507.3681;-31859.301;-30876.2938;-14227.1519;-17861.2769;-11423.1706;-17521.441;-16899.3697;-16970.8729;-30091.1888;-42928.1294;N;0.0;0
1733235807.485;2099024;-34486.3459;-32480.59;-26104.8228;-33813.6926;-20680.5468;-36506.3623;-31854.1825;-30879.6465;-14202.7214;-17856.7842;-11425.2269;-17509.0581;-16865.9762;-16971.9458;-30095.0333;-42938.1877;N;0.0;0
1733235807.489;2099028;-34477.2488;-32466.6202;-26084.6391;-33790.2009;-20670.6896;-36490.0902;-31836.7481;-30863.4415;-14189.3327;-17844.8707;-11416.9791;-17501.8609;-16899.1238;-16965.2179;-30085.1986;-42924.3073;N;0.0;0
1733235807.493;2099032;-34480.2216;-32467.4249;-26101.3359;-33831.7305;-20681.3067;-36498.3156;-31853.0649;-30869.0742;-14222.7262;-17863.1321;-11430.9937;-17529.5994;-16962.6474;-16986.1838;-30090.9206;-42924.7096;N;0.0;0
1733235807.497;2099036;-34499.6229;-32487.9885;-26139.915;-33886.5146;-20703.5467;-36527.7529;-31882.7704;-30894.2646;-14264.904;-17891.9658;-11454.1724;-17555.0357;-16979.6571;-17009.1614;-30108.6232;-42946.212;N;0.0;0
1733235807.506;2099040;-34521.237;-32507.6133;-26150.7332;-33882.4913;-20710.5875;-36542.2815;-31895.5556;-30910.1567;-14267.4744;-17896.7491;-11458.4193;-17555.3709;-16935.3336;-17008.7144;-30123.9789;-42960.6959;N;0.0;0
1733235807.51;2099044;-34513.2574;-32511.8825;-26127.4651;-33837.1396;-20705.983;-36534.3913;-31886.0784;-30909.9779;-14236.5843;-17886.6237;-11453.189;-17541.2223;-16898.7662;-17000.2654;-30117.0051;-42960.1595;N;0.0;0
1733235807.514;2099048;-34499.9805;-32499.3655;-26109.7848;-33820.5099;-20703.122;-36521.2485;-31875.4613;-30902.9371;-14224.0226;-17880.477;-11449.8362;-17535.5226;-16928.6057;-17002.9029;-30107.1256;-42949.9447;N;0.0;0
1733235807.518;2099052;-34490.2128;-32482.0876;-26112.4;-33844.9851;-20700.8198;-36513.6713;-31870.8122;-30895.181;-14240.4959;-17877.1913;-11446.9975;-17543.2339;-16975.902;-17004.3558;-30098.0955;-42935.729;N;0.0;0
1733235807.518;2099056;-34502.7745;-32497.1527;-26140.1162;-33885.777;-20713.4709;-36532.1115;-31886.8607;-30905.0605;-14271.7883;-17892.6364;-11456.1394;-17571.1066;-16987.9049;-17011.2848;-30106.5445;-42944.7591;N;0.0;0
1733235807.522;2099060;-34513.101;-32511.8601;-26146.5535;-33875.1152;-20715.639;-36539.1299;-31892.1581;-30909.0167;-14262.5794;-17889.3059;-11449.3668;-17565.7198;-16929.4104;-16995.0351;-30115.0158;-42954.9292;N;0.0;0
1733235807.526;2099064;-34515.0009;-32506.2945;-26124.09;-33831.0152;-20709.224;-36531.8879;-31880.8928;-30905.9098;-14229.6106;-17876.4537;-11444.6953;-17539.9929;-16885.7127;-16988.3743;-30113.9653;-42952.7834;N;0.0;0
1733235807.53;2099068;-34514.3303;-32506.004;-26115.9092;-33823.1698;-20711.4816;-36529.5634;-31877.2718;-30906.3345;-14226.4813;-17879.8512;-11456.8099;-17543.9268;-16927.5552;-17006.8368;-30114.2111;-42951.107;N;0.0;0
1733235807.532;2099072;-34517.1019;-32500.9748;-26133.4553;-33858.3291;-20716.5778;-36535.2407;-31884.1562;-30907.0274;-14251.6717;-17891.3847;-11467.8741;-17563.3058;-16994.2752;-17026.417;-30111.6183;-42951.934;N;0.0;0
1733235807.536;2099076;-34512.3187;-32505.7358;-26154.153;-33893.3319;-20722.0539;-36542.7285;-31894.6838;-30909.8214;-14275.0517;-17895.0503;-11464.9907;-17568.402;-16993.7834;-17026.7299;-30113.5406;-42953.2304;N;0.0;0
1733235807.54;2099080;-34490.7939;-32486.2227;-26127.7109;-33851.3777;-20689.6663;-36519.5721;-31870.3428;-30885.3462;-14235.8467;-17863.1991;-11428.8703;-17532.3486;-16904.8235;-16977.1314;-30097.2462;-42932.7562;N;0.0;0
1733235807.544;2099084;-34488.6035;-32479.6736;-26102.8111;-33803.7014;-20677.4846;-36508.3069;-31859.2787;-30880.63;-14201.2015;-17854.549;-11420.4884;-17518.2;-16869.396;-16972.3928;-30092.7758;-42930.7669;N;0.0;0
1733235807.546;2099088;-34484.2002;-32481.0594;-26095.2115;-33798.2476;-20683.3407;-36504.6188;-31855.9706;-30879.7807;-14195.9488;-17856.0466;-11420.7119;-17514.5343;-16895.6146;-16974.4045;-30087.6126;-42925.7378;N;0.0;0
1733235807.55;2099092;-34478.8358;-32472.2975;-26107.0803;-33835.6867;-20688.2358;-36507.0328;-31858.0493;-30877.1655;-14215.0372;-17855.823;-11425.7187;-17517.5518;-16936.9206;-16972.214;-30084.0363;-42919.1664;N;0.0;0
1733235807.554;2099096;-34492.135;-32478.9584;-26132.1813;-33876.2105;-20698.8528;-36519.8627;-31872.9132;-30885.6815;-14243.7369;-17866.7977;-11433.1618;-17531.6781;-16937.3453;-16979.0536;-30092.3064;-42928.3753;N;0.0;0
1733235807.558;2099100;-34492.8056;-32476.1197;-26125.8334;-33855.8927;-20689.4204;-36517.7616;-31869.2923;-30882.8652;-14232.2257;-17861.0757;-11425.6516;-17525.4419;-16891.1442;-16969.8671;-30090.7865;-42928.4424;N;0.0;0
1733235807.562;2099104;-34495.7337;-32487.0497;-26116.5127;-33822.7004;-20692.9296;-36524.0648;-31870.7228;-30896.1421;-14218.4347;-17866.9989;-11437.9898;-17528.5488;-16879.6331;-16984.351;-30102.2083;-42939.3724;N;0.0;0
1733235807.566;2099108;-34497.9018;-32489.866;-26112.4894;-33819.6382;-20699.9257;-36525.1377;-31873.5167;-30898.422;-14219.0382;-17869.7482;-11448.9198;-17534.9191;-16922.079;-16998.902;-30099.5484;-42940.3558;N;0.0;0
1733235807.57;2099112;-34500.8522;-32494.5375;-26127.7109;-33856.0045;-20711.3698;-36529.8763;-31877.6071;-30896.7456;-14239.9818;-17876.4984;-11452.5631;-17545.9832;-16968.8165;-16999.9748;-30105.2704;-42939.5065;N;0.0;0
1733235807.574;2099116;-34497.6559;-32487.4744;-26141.2784;-33878.2445;-20707.4136;-36529.2057;-31880.1999;-30892.387;-14257.9749;-17877.1019;-11444.5165;-17549.5371;-16964.2568;-16995.3257;-30111.8419;-42937.9418;N;0.0;0
1733235807.577;2099120;-34490.7939;-32476.6114;-26130.9519;-33848.4496;-20692.4155;-36521.6732;-31873.0026;-30885.838;-14241.9487;-17866.9095;-11433.0053;-17538.1154;-16905.4493;-16979.143;-30108.6009;-42932.4433;N;0.0;0
1733235807.581;2099124;-34484.5131;-32469.973;-26099.883;-33796.7053;-20676.6799;-36502.0931;-31853.0649;-30872.8516;-14201.3133;-17850.481;-11419.9966;-17518.4235;-16862.8469;-16961.3063;-30097.1121;-42925.6037;N;0.0;0
1733235807.585;2099128;-34479.484;-32468.386;-26086.6955;-33787.407;-20676.1658;-36495.7228;-31844.2136;-30868.7389;-14195.0771;-17850.3692;-11420.5554;-17521.3963;-16902.5883;-16969.6659;-30091.5241;-42920.7981;N;0.0;0
1733235807.589;2099132;-34484.4237;-32473.1022;-26108.0861;-33835.7762;-20695.1872;-36508.061;-31859.234;-30878.8419;-14234.7515;-17867.4683;-11433.4077;-17540.5294;-16967.2966;-16989.2013;-30098.7884;-42924.2626;N;0.0;0
1733235807.592;2099136;-34502.9756;-32491.6542;-26148.9451;-33885.8441;-20714.3873;-36532.7373;-31882.368;-30898.3102;-14270.8719;-17885.1709;-11442.773;-17561.5624;-16979.5454;-16993.9399;-30119.2626;-42940.1323;N;0.0;0
1733235807.596;2099140;-34514.3974;-32505.4005;-26156.7906;-33877.2386;-20712.2415;-36541.231;-31885.4749;-30903.8311;-14267.9885;-17885.8861;-11443.8459;-17564.5798;-16931.5785;-16989.4025;-30127.6669;-42946.4802;N;0.0;0
1733235807.6;2099144;-34506.0825;-32497.0633;-26127.6439;-33826.3214;-20694.4719;-36530.6363;-31869.1358;-30894.2646;-14231.8234;-17872.6092;-11438.1909;-17543.9045;-16896.7545;-16986.2732;-30118.2345;-42944.2003;N;0.0;0
1733235807.604;2099148;-34499.1982;-32482.937;-26112.847;-33809.2223;-20690.5603;-36522.9473;-31858.4293;-30885.3909;-14219.3064;-17867.133;-11438.2133;-17534.8744;-16927.8011;-16988.0167;-30107.7515;-42936.042;N;0.0;0
1733235807.609;2099152;-34482.5462;-32477.1255;-26116.4904;-33839.4642;-20696.3047;-36515.1465;-31859.2563;-30881.4123;-14232.5386;-17865.4119;-11435.3076;-17531.6334;-16959.4288;-16986.1391;-30095.2792;-42927.9953;N;0.0;0
1733235807.613;2099156;-34483.0602;-32477.6173;-26130.6614;-33867.8509;-20695.1872;-36515.9065;-31863.8831;-30880.9206;-14246.5979;-17864.719;-11432.2677;-17528.7053;-16944.2073;-16979.6124;-30091.5465;-42927.5706;N;0.0;0
1733235807.617;2099160;-34492.0009;-32479.1819;-26134.707;-33852.0035;-20692.2814;-36521.4497;-31870.164;-30887.7826;-14242.7757;-17869.927;-11430.6584;-17532.0804;-16906.2987;-16981.9593;-30099.3472;-42930.8116;N;0.0;0
1733235807.621;2099164;-34494.9514;-32481.6853;-26115.7528;-33810.5634;-20687.6546;-36515.5488;-31858.7422;-30888.5202;-14217.7641;-17862.7744;-11428.3562;-17525.9113;-16879.2754;-16980.0818;-30101.8953;-42933.2256;N;0.0;0
1733235807.623;2099168;-34502.7968;-32494.2023;-26116.5127;-33813.6926;-20699.1211;-36518.9463;-31861.6703;-30892.9458;-14220.8263;-17862.1709;-11437.431;-17527.6548;-16911.3055;-16982.4511;-30115.8652;-42940.937;N;0.0;0
1733235807.627;2099172;-34509.6588;-32496.4374;-26135.4223;-33855.6245;-20714.1638;-36526.7918;-31873.1368;-30896.1868;-14243.6922;-17867.5801;-11442.9295;-17538.8977;-16964.8826;-16988.4413;-30116.2675;-42940.1994;N;0.0;0
1733235807.631;2099176;-34508.7871;-32493.0847;-26148.4757;-33881.7537;-20712.6439;-36528.9152;-31875.3496;-30893.6164;-14254.4657;-17865.8143;-11433.0277;-17542.7198;-16955.6066;-16979.8583;-30109.0702;-42936.5784;N;0.0;0
1733235807.635;2099180;-34515.4256;-32497.5774;-26152.0073;-33867.5603;-20706.5865;-36533.6761;-31880.4681;-30897.2597;-14248.6989;-17870.3517;-11429.9878;-17542.7422;-16903.2142;-16975.1197;-30112.3112;-42938.2101;N;0.0;0
1733235807.638;2099184;-34521.0582;-32499.1196;-26133.4106;-33826.0755;-20702.1609;-36534.5702;-31873.8297;-30897.8409;-14224.8943;-17868.5635;-11430.4349;-17531.8792;-16875.4756;-16977.6678;-30114.2558;-42939.9088;N;0.0;0
1733235807.642;2099188;-34486.1895;-32477.5502;-26095.9044;-33793.8666;-20680.4797;-36506.2952;-31845.8229;-30871.4882;-14198.3405;-17845.5859;-11409.4242;-17509.5052;-16894.944;-16964.9944;-30092.3958;-42915.2101;N;0.0;0
1733235807.646;2099192;-34466.3188;-32458.3277;-26097.9384;-33819.0347;-20678.1998;-36496.0581;-31844.1242;-30861.8546;-14212.0421;-17844.2448;-11405.8703;-17513.4167;-16947.1577;-16968.4142;-30080.2141;-42907.387;N;0.0;0
1733235807.65;2099196;-34478.5452;-32467.9837;-26128.0462;-33859.849;-20690.4709;-36511.6149;-31860.7092;-30874.148;-14239.49;-17862.1039;-11419.9296;-17529.5547;-16955.0702;-16978.8077;-30091.5912;-42921.5357;N;0.0;0
1733235807.655;2099200;-34502.4168;-32489.1284;-26143.3795;-33858.4632;-20698.3164;-36529.3846;-31877.0036;-30893.2588;-14244.4745;-17873.6821;-11430.8819;-17540.1494;-16906.2093;-16978.4278;-30110.5455;-42939.35;N;0.0;0
1733235807.659;2099204;-34510.1729;-32489.1508;-26128.7838;-33820.9122;-20694.1143;-36524.9589;-31872.265;-30895.941;-14216.0878;-17867.4012;-11429.7196;-17525.2631;-16871.2288;-16974.248;-30111.8866;-42941.9652;N;0.0;0
1733235807.663;2099208;-34500.5617;-32486.9603;-26111.1036;-33809.7811;-20693.9578;-36512.7996;-31859.4798;-30883.9604;-14203.2355;-17863.0427;-11428.6244;-17514.6908;-16901.0013;-16971.2082;-30103.0576;-42933.2256;N;0.0;0
1733235807.667;2099212;-34504.0262;-32496.9515;-26133.0307;-33857.9044;-20711.8168;-36524.8695;-31878.2106;-30894.1305;-14242.1722;-17884.165;-11448.2045;-17544.6421;-16972.4151;-16992.8223;-30111.3501;-42942.6581;N;0.0;0
1733235807.669;2099216;-34512.6092;-32496.1692;-26157.7293;-33894.2483;-20716.086;-36538.5935;-31891.0629;-30906.111;-14270.179;-17893.4187;-11457.3687;-17559.7295;-16989.4025;-17008.7367;-30115.3511;-42947.0614;N;0.0;0
1733235807.673;2099220;-34512.8104;-32499.0973;-26160.3668;-33878.6021;-20711.8392;-36545.3884;-31895.9355;-30912.1013;-14266.3792;-17895.475;-11455.8488;-17559.2154;-16941.458;-17005.071;-30124.4706;-42946.4579;N;0.0;0
1733235807.677;2099224;-34507.9377;-32494.0905;-26130.1696;-33825.2932;-20693.2202;-36532.8491;-31878.9482;-30901.8195;-14232.0693;-17876.8113;-11439.2191;-17538.7859;-16898.6768;-16982.1605;-30112.7359;-42942.0099;N;0.0;0
1733235807.681;2099228;-34505.8143;-32489.9554;-26114.5234;-33810.4293;-20690.8509;-36524.3331;-31867.9735;-30896.6339;-14225.3414;-17875.0232;-11440.8284;-17534.3603;-16925.2753;-16984.7757;-30104.3764;-42937.1148;N;0.0;0
1733235807.683;2099232;-34497.0077;-32478.3325;-26117.7644;-33839.5089;-20693.9578;-36520.0192;-31870.5887;-30892.0294;-14243.558;-17876.9678;-11445.7905;-17542.3622;-16968.7495;-16990.8777;-30101.8953;-42932.3539;N;0.0;0
1733235807.687;2099236;-34485.586;-32474.5551;-26130.3708;-33869.1697;-20691.7003;-36520.4886;-31875.6402;-30888.8331;-14258.6455;-17877.3925;-11440.0461;-17547.3914;-16966.5813;-16986.9661;-30098.2296;-42929.8058;N;0.0;0
1733235807.691;2099240;-34498.93;-32486.4239;-26141.8596;-33864.2523;-20695.6342;-36534.6819;-31881.5634;-30901.7524;-14257.7514;-17884.3662;-11442.9295;-17551.1241;-16923.6884;-16991.213;-30108.9361;-42941.9205;N;0.0;0
1733235807.695;2099244;-34506.0825;-32494.4481;-26128.605;-33828.5118;-20696.0812;-36535.7101;-31878.7247;-30905.3287;-14234.975;-17880.03;-11443.7342;-17541.8928;-16886.6515;-16986.6085;-30113.7641;-42948.3354;N;0.0;0
1733235807.709;2099248;-34506.3508;-32488.0108;-26115.9763;-33818.3865;-20693.0414;-36526.0094;-31872.0415;-30896.9021;-14223.0392;-17875.4702;-11441.2755;-17531.9687;-16917.1393;-16987.592;-30110.7466;-42942.0322;N;0.0;0
1733235807.713;2099252;-34493.0068;-32480.7465;-26119.2173;-33844.8733;-20696.7741;-36522.5002;-31870.544;-30889.973;-14242.6863;-17874.442;-11441.6555;-17539.1436;-16976.1926;-16991.6153;-30103.08;-42933.4939;N;0.0;0
1733235807.717;2099256;-34498.55;-32481.2382;-26139.0209;-33874.7799;-20701.5574;-36527.4847;-31879.7752;-30893.0576;-14256.4997;-17874.1068;-11440.672;-17543.8821;-16970.8729;-16982.7864;-30106.321;-42933.0692;N;0.0;0
1733235807.721;2099260;-34493.4091;-32483.5628;-26134.9753;-33857.0327;-20695.7459;-36526.9482;-31879.2611;-30892.5658;-14237.6348;-17864.1826;-11428.2891;-17526.1348;-16904.4212;-16966.7825;-30104.6446;-42934.7008;N;0.0;0
1733235807.724;2099264;-34478.7687;-32473.7728;-26101.09;-33806.9871;-20677.6634;-36510.0503;-31861.0668;-30880.8982;-14202.3414;-17849.4304;-11416.3086;-17507.5158;-16866.222;-16958.4677;-30091.2112;-42925.3802;N;0.0;0
1733235807.728;2099268;-34471.4373;-32455.7573;-26083.0745;-33792.6149;-20673.126;-36497.0863;-31851.0309;-30874.2374;-14195.9712;-17852.0232;-11419.4378;-17509.684;-16906.8351;-16967.6319;-30077.0625;-42914.4949;N;0.0;0
1733235807.732;2099272;-34469.3139;-32454.7738;-26091.3447;-33822.8121;-20674.8471;-36487.6762;-31841.509;-30865.5426;-14207.3929;-17847.1729;-11416.398;-17504.2301;-16941.1004;-16963.8991;-30064.5679;-42909.3316;N;0.0;0
1733235807.736;2099276;-34480.5568;-32472.2305;-26118.0997;-33865.3922;-20691.2532;-36502.3389;-31858.474;-30876.182;-14233.6115;-17859.9134;-11421.0024;-17519.2282;-16940.0722;-16963.8097;-30077.3084;-42924.2179;N;0.0;0
1733235807.739;2099280;-34487.1059;-32482.7358;-26125.5652;-33858.9996;-20696.7741;-36517.024;-31873.852;-30893.147;-14242.1499;-17872.6986;-11432.1783;-17536.3719;-16908.735;-16979.2995;-30089.5125;-42937.9418;N;0.0;0
1733235807.743;2099284;-34488.0223;-32482.4899;-26107.3709;-33817.0901;-20692.4826;-36514.6324;-31869.1358;-30896.4327;-14222.7262;-17872.3186;-11433.4524;-17534.0921;-16891.4571;-16989.246;-30092.977;-42941.0264;N;0.0;0
1733235807.747;2099288;-34480.0651;-32471.4929;-26090.7859;-33795.4089;-20686.4029;-36504.5741;-31855.0766;-30885.3462;-14211.4833;-17865.2778;-11431.5301;-17522.8491;-16911.909;-16979.0983;-30082.0246;-42933.5386;N;0.0;0
1733235807.751;2099292;-34461.1108;-32449.387;-26085.5556;-33814.3632;-20675.2047;-36489.3973;-31841.062;-30867.6213;-14215.9984;-17855.2195;-11423.327;-17515.6072;-16943.7155;-16961.8875;-30062.6904;-42914.9866;N;0.0;0
1733235807.757;2099296;-34457.9145;-32452.3598;-26105.8062;-33848.5613;-20679.161;-36496.2593;-31851.545;-30872.874;-14235.1091;-17863.065;-11421.1589;-17522.1339;-16937.4123;-16960.904;-30069.2618;-42918.1382;N;0.0;0
1733235807.761;2099300;-34465.3353;-32466.5755;-26119.8655;-33844.4486;-20684.056;-36510.855;-31866.1854;-30884.9886;-14233.7903;-17869.3458;-11422.9023;-17522.5139;-16894.2511;-16963.1392;-30086.5844;-42931.9069;N;0.0;0
1733235807.765;2099304;-34488.6929;-32485.2616;-26116.3563;-33819.1018;-20689.6886;-36521.1815;-31871.8404;-30895.0692;-14221.4298;-17875.2691;-11438.7721;-17526.2019;-16885.8021;-16977.2878;-30104.0858;-42944.6027;N;0.0;0
1733235807.769;2099308;-34507.2225;-32498.0691;-26127.9792;-33831.3952;-20711.9957;-36536.4701;-31886.9948;-30914.8952;-14237.8584;-17894.3127;-11466.4212;-17551.3253;-16943.939;-17013.7435;-30120.492;-42958.6843;N;0.0;0
1733235807.775;2099312;-34515.4703;-32505.2664;-26149.0569;-33874.1541;-20728.4018;-36543.5556;-31900.6294;-30921.936;-14264.8816;-17903.3428;-11476.1665;-17568.2008;-16993.8281;-17026.7969;-30122.5707;-42963.4228;N;0.0;0
1733235807.779;2099316;-34507.6025;-32500.796;-26158.8916;-33896.1706;-20723.5515;-36538.7499;-31898.9307;-30915.2752;-14273.2412;-17893.3293;-11464.6778;-17563.3058;-16979.6124;-17008.8038;-30110.2996;-42956.0244;N;0.0;0
1733235807.783;2099320;-34501.5675;-32500.9078;-26149.6156;-33873.5506;-20709.8722;-36533.7431;-31890.5041;-30909.8214;-14257.8185;-17883.0922;-11450.5738;-17546.8549;-16918.2345;-16989.9836;-30104.0858;-42951.7105;N;0.0;0
1733235807.787;2099324;-34492.4033;-32488.3461;-26122.8159;-33823.1251;-20694.2037;-36522.2767;-31877.1154;-30902.3336;-14223.5532;-17872.4974;-11443.6671;-17527.096;-16876.7273;-16979.97;-30100.5319;-42943.7533;N;0.0;0
1733235807.787;2099328;-34487.6423;-32485.5968;-26114.6575;-33814.5196;-20694.0696;-36519.371;-31872.3768;-30899.9196;-14217.6524;-17874.1068;-11450.7973;-17527.096;-16910.0314;-16992.7329;-30100.8001;-42944.2227;N;0.0;0
1733235807.791;2099332;-34491.688;-32488.2343;-26127.9792;-33852.8305;-20703.4126;-36521.8967;-31875.6178;-30898.0867;-14242.2616;-17879.4265;-11456.2064;-17537.6683;-16962.0439;-17000.9136;-30100.3307;-42944.8709;N;0.0;0
1733235807.795;2099336;-34490.2575;-32483.9428;-26141.8596;-33878.1103;-20704.9102;-36525.1824;-31878.8365;-30895.1139;-14259.6066;-17879.4041;-11445.9693;-17541.9822;-16949.2587;-16988.2849;-30106.5221;-42940.3782;N;0.0;0
1733235807.799;2099340;-34478.3887;-32473.7281;-26123.1959;-33843.9792;-20681.7538;-36511.6373;-31860.3516;-30880.5183;-14236.0479;-17862.1486;-11428.1327;-17526.783;-16893.1335;-16966.2461;-30098.1849;-42931.7504;N;0.0;0
1733235807.802;2099344;-34481.7415;-32473.4598;-26101.4029;-33794.6489;-20669.0133;-36502.1825;-31845.1077;-30875.2656;-14206.6106;-17850.3469;-11422.7682;-17515.2719;-16863.1598;-16961.664;-30093.9605;-42929.6717;N;0.0;0
1733235807.806;2099348;-34477.3158;-32474.3092;-26094.2504;-33792.0338;-20673.7742;-36504.373;-31848.7063;-30878.216;-14208.0411;-17860.1816;-11434.3464;-17526.5372;-16899.9955;-16982.1605;-30096.0392;-42930.6999;N;0.0;0
1733235807.81;2099352;-34465.9612;-32466.799;-26102.744;-33825.025;-20677.5293;-36502.1601;-31850.2709;-30873.3433;-14224.7602;-17862.3497;-11438.258;-17531.1863;-16952.6562;-16993.1129;-30086.9197;-42923.8603;N;0.0;0
1733235807.814;2099356;-34468.1963;-32473.1022;-26120.1113;-33856.8985;-20680.3009;-36504.6188;-31856.06;-30871.0635;-14241.3899;-17858.6841;-11435.5758;-17532.5945;-16945.9507;-16983.2334;-30086.942;-42924.0167;N;0.0;0
1733235807.818;2099360;-34481.8756;-32476.455;-26122.1677;-33843.9792;-20673.1483;-36509.0668;-31858.3176;-30877.5455;-14240.317;-17859.2205;-11432.0219;-17534.7403;-16905.7846;-16978.4501;-30096.285;-42932.7786;N;0.0;0
1733235807.822;2099364;-34479.5287;-32475.8291;-26103.1687;-33801.958;-20664.5653;-36506.5187;-31854.6072;-30881.3229;-14219.9323;-17862.0368;-11435.0393;-17536.0367;-16889.7137;-16988.0837;-30098.2744;-42938.0089;N;0.0;0
1733235807.826;2099368;-34469.5374;-32468.5425;-26085.4214;-33790.1562;-20663.2242;-36497.7568;-31847.3428;-30874.908;-14206.0742;-17857.3877;-11432.8265;-17522.6256;-16910.322;-16989.246;-30090.4065;-42928.5541;N;0.0;0
1733235807.83;2099372;-34468.2634;-32466.9778;-26098.4749;-33826.9249;-20673.0589;-36501.9813;-31851.612;-30875.0644;-14228.2695;-17861.3216;-11441.7225;-17530.5605;-16958.6465;-16991.7718;-30089.0878;-42924.5532;N;0.0;0
1733235807.832;2099376;-34465.6259;-32462.1275;-26111.953;-33853.7693;-20671.3378;-36500.5061;-31852.8414;-30873.8574;-14238.1489;-17853.1632;-11431.2842;-17528.6159;-16945.1907;-16975.3656;-30078.8954;-42921.8486;N;0.0;0
1733235807.836;2099380;-34466.207;-32461.7922;-26107.7508;-33839.2854;-20663.4477;-36496.751;-31849.7792;-30875.2209;-14223.7097;-17851.1292;-11422.053;-17518.267;-16890.6525;-16968.7495;-30073.0169;-42923.4132;N;0.0;0
1733235807.84;2099384;-34464.4636;-32456.3608;-26082.9628;-33788.5022;-20654.4846;-36491.6325;-31837.7987;-30872.0246;-14193.1549;-17842.792;-11419.7284;-17507.5382;-16864.948;-16971.1858;-30073.0392;-42921.5357;N;0.0;0
1733235807.844;2099388;-34452.8407;-32452.2033;-26068.6353;-33774.3089;-20657.3009;-36486.7821;-31830.1767;-30864.4921;-14188.3492;-17837.8522;-11419.8178;-17507.9629;-16897.8497;-16971.4317;-30065.0597;-42915.0984;N;0.0;0
1733235807.847;2099392;-34442.0001;-32446.9954;-26075.3408;-33807.8365;-20660.5196;-36478.512;-31826.511;-30854.5008;-14205.5377;-17835.3712;-11409.4913;-17502.3302;-16933.5678;-16958.6465;-30057.2366;-42903.5872;N;0.0;0
1733235807.851;2099396;-34436.658;-32435.4172;-26076.9948;-33828.5342;-20648.472;-36467.8726;-31816.4974;-30841.3133;-14210.8798;-17826.1176;-11391.1405;-17492.0708;-16916.2676;-16941.5921;-30045.4795;-42893.4395;N;0.0;0
1733235807.855;2099400;-34461.2896;-32457.8583;-26095.9715;-33829.2718;-20658.3291;-36486.1786;-31834.2;-30860.424;-14216.9148;-17842.0097;-11401.8694;-17509.371;-16885.8021;-16950.1528;-30069.15;-42914.0925;N;0.0;0
1733235807.859;2099404;-34490.2351;-32495.4763;-26113.2941;-33814.3185;-20684.0113;-36516.3982;-31860.7762;-30893.907;-14225.3637;-17870.6199;-11431.9995;-17534.2932;-16886.4504;-16979.4783;-30103.6388;-42944.3121;N;0.0;0
1733235807.861;2099408;-34498.103;-32500.0137;-26113.5399;-33810.0046;-20692.3261;-36522.2991;-31865.2466;-30900.7913;-14232.6728;-17879.3594;-11445.0082;-17543.5245;-16929.1869;-16999.8184;-30114.0547;-42948.626;N;0.0;0
1733235807.865;2099412;-34501.5898;-32502.6512;-26127.2639;-33848.2037;-20702.5632;-36525.4283;-31868.7111;-30900.4784;-14253.8846;-17885.7967;-11450.8867;-17553.1358;-16981.557;-17008.4238;-30118.5921;-42950.9506;N;0.0;0
1733235807.869;2099416;-34501.2993;-32503.8135;-26143.2007;-33877.1045;-20702.1162;-36525.0707;-31873.0474;-30896.6562;-14265.0828;-17883.8298;-11445.8576;-17552.0182;-16975.2762;-17001.7853;-30115.1052;-42947.4637;N;0.0;0
1733235807.873;2099420;-34492.0009;-32490.9613;-26129.7673;-33851.9141;-20684.5924;-36516.2864;-31865.5819;-30888.2967;-14242.7757;-17868.4071;-11432.603;-17537.7131;-16913.6524;-16982.7417;-30107.148;-42939.0818;N;0.0;0
1733235807.877;2099424;-34495.5996;-32491.8106;-26111.7965;-33808.9988;-20679.3174;-36513.8277;-31858.0046;-30886.4638;-14215.3949;-17860.4051;-11430.7702;-17524.1455;-16880.393;-16984.0157;-30106.1645;-42941.0487;N;0.0;0
1733235807.881;2099428;-34495.9795;-32491.9;-26099.6148;-33797.7782;-20682.9831;-36510.475;-31855.0095;-30881.9711;-14207.3482;-17860.2263;-11434.5476;-17520.9939;-16914.703;-16992.0623;-30096.1733;-42942.3228;N;0.0;0
1733235807.885;2099432;-34492.1798;-32481.7747;-26114.0764;-33834.2562;-20688.6828;-36509.7374;-31858.9881;-30880.6524;-14226.8166;-17862.5286;-11435.4193;-17532.3933;-16962.1557;-16991.7271;-30092.3511;-42936.8466;N;0.0;0
1733235807.889;2099436;-34492.068;-32483.0934;-26133.2542;-33873.5953;-20696.4612;-36516.2641;-31866.6995;-30887.1791;-14249.3695;-17869.6811;-11434.4805;-17541.8258;-16958.7582;-16986.832;-30101.7165;-42940.8923;N;0.0;0
1733235807.894;2099440;-34495.5772;-32488.279;-26132.4495;-33855.6021;-20692.7508;-36520.8238;-31868.13;-30890.7777;-14241.7699;-17867.9824;-11431.0607;-17534.8073;-16910.1432;-16981.7135;-30103.7058;-42938.7912;N;0.0;0
1733235807.898;2099444;-34485.0495;-32482.0876;-26106.2756;-33800.2369;-20679.7197;-36510.4079;-31851.8132;-30882.597;-14209.6058;-17862.1933;-11428.1997;-17524.8161;-16882.2259;-16986.4297;-30092.2617;-42931.1469;N;0.0;0
1733235807.902;2099448;-34477.6958;-32482.8699;-26093.7363;-33789.9327;-20682.3125;-36503.5683;-31846.5158;-30879.0654;-14203.5037;-17862.2603;-11433.2065;-17526.4701;-16917.3181;-16996.6221;-30090.2724;-42932.5998;N;0.0;0
1733235807.906;2099452;-34470.9456;-32472.3646;-26099.503;-33824.0191;-20682.6478;-36493.2641;-31843.2078;-30872.2034;-14213.115;-17855.0631;-11427.2162;-17519.094;-16950.5775;-16989.1119;-30078.9848;-42925.4472;N;0.0;0
1733235807.908;2099456;-34465.6482;-32458.3277;-26112.8694;-33846.1027;-20673.4836;-36491.0513;-31839.9221;-30864.1568;-14225.4531;-17851.755;-11417.3368;-17516.5907;-16947.2024;-16980.3053;-30072.4134;-42913.6455;N;0.0;0
1733235807.912;2099460;-34470.0515;-32468.1848;-26117.6303;-33835.7538;-20670.779;-36499.5673;-31844.8395;-30873.0528;-14225.8108;-17857.5665;-11421.1142;-17525.0173;-16909.2491;-16982.9875;-30084.5504;-42920.9545;N;0.0;0
1733235807.916;2099464;-34466.2517;-32464.4744;-26094.4515;-33791.0727;-20657.1668;-36493.6888;-31838.9386;-30870.7729;-14198.2958;-17851.1962;-11413.2911;-17514.132;-16874.7604;-16973.8233;-30081.5105;-42919.3228;N;0.0;0
1733235807.92;2099468;-34469.7163;-32465.8602;-26087.7684;-33783.2049;-20667.3145;-36496.8628;-31844.683;-30874.148;-14195.6359;-17856.4712;-11424.8917;-17519.3176;-16916.0888;-16996.2421;-30079.8342;-42921.4686;N;0.0;0
1733235807.924;2099472;-34478.8581;-32471.4705;-26108.9131;-33827.2154;-20684.3242;-36505.1106;-31860.888;-30883.2005;-14227.6436;-17866.7977;-11443.1307;-17533.2651;-16968.9953;-17010.4355;-30088.7302;-42926.833;N;0.0;0
1733235807.928;2099476;-34480.7133;-32473.0352;-26130.3261;-33859.8713;-20683.3184;-36509.6033;-31865.1795;-30881.0994;-14245.8603;-17867.4683;-11435.9334;-17535.2544;-16954.4891;-16985.3345;-30095.1898;-42926.7213;N;0.0;0
1733235807.932;2099480;-34482.1662;-32473.4822;-26130.1249;-33836.7149;-20669.2591;-36506.5187;-31854.9424;-30875.288;-14226.4366;-17858.8629;-11425.2046;-17520.0775;-16901.806;-16972.0128;-30093.2676;-42924.5308;N;0.0;0
1733235807.936;2099484;-34492.3809;-32485.0604;-26117.7644;-33799.0299;-20665.6605;-36509.6703;-31853.6237;-30880.4736;-14204.5766;-17856.583;-11427.1939;-17518.3117;-16882.7176;-16980.9982;-30103.5941;-42929.2023;N;0.0;0
1733235807.95;2099488;-34490.3246;-32484.9933;-26112.5788;-33795.6548;-20673.3719;-36509.4468;-31855.8589;-30881.1218;-14207.3259;-17859.2429;-11434.3017;-17522.3798;-16921.4755;-16996.1303;-30105.6728;-42931.0128;N;0.0;0
1733235807.954;2099492;-34487.6647;-32475.0021;-26119.9102;-33827.5507;-20678.2892;-36506.0046;-31856.2388;-30873.4328;-14223.5085;-17860.5169;-11437.6321;-17528.2136;-16965.6202;-16999.0584;-30096.7097;-42925.7154;N;0.0;0
1733235807.958;2099496;-34487.173;-32476.2091;-26137.2551;-33858.7314;-20682.6478;-36507.9492;-31860.9551;-30874.5503;-14241.3229;-17864.1602;-11434.9723;-17534.2262;-16959.8088;-16993.0011;-30092.7535;-42924.6202;N;0.0;0
1733235807.962;2099500;-34492.8503;-32486.0439;-26139.1327;-33848.2261;-20681.9996;-36513.2019;-31862.9891;-30879.5348;-14230.9964;-17860.8075;-11431.329;-17526.8501;-16905.494;-16985.7144;-30100.6213;-42933.315;N;0.0;0
1733235807.965;2099504;-34491.621;-32483.5852;-26112.9141;-33803.2544;-20675.1376;-36507.9269;-31856.4624;-30880.4736;-14200.1733;-17855.1525;-11429.8761;-17510.3992;-16874.0675;-16989.1343;-30091.1665;-42934.0079;N;0.0;0
1733235807.969;2099508;-34486.0554;-32478.1314;-26096.0162;-33789.508;-20674.1095;-36499.7461;-31849.578;-30874.8856;-14186.4717;-17849.0952;-11425.0034;-17504.0066;-16901.3143;-16987.7708;-30081.5552;-42929.0235;N;0.0;0
1733235807.973;2099512;-34473.3372;-32464.2286;-26093.1104;-33811.7927;-20665.9734;-36483.4741;-31840.1232;-30859.0606;-14196.6864;-17838.8581;-11414.9675;-17503.0679;-16939.9828;-16976.4385;-30069.9994;-42910.6504;N;0.0;0
1733235807.977;2099516;-34480.1322;-32469.213;-26120.0219;-33846.952;-20670.0414;-36491.4313;-31847.7452;-30864.872;-14225.5872;-17848.3129;-11421.3824;-17514.6684;-16944.9002;-16975.8126;-30081.6223;-42912.1256;N;0.0;0
1733235807.98;2099520;-34488.5588;-32473.0352;-26128.7615;-33836.4244;-20667.7392;-36501.1543;-31849.9804;-30874.8186;-14220.6699;-17853.8561;-11423.1482;-17512.9697;-16897.8274;-16968.2354;-30091.0994;-42924.7543;N;0.0;0
1733235807.984;2099524;-34500.964;-32484.591;-26122.7936;-33804.9531;-20677.0822;-36515.4147;-31855.3448;-30887.492;-14204.5766;-17861.6345;-11429.742;-17516.4342;-16879.0743;-16974.0245;-30106.1198;-42936.1314;N;0.0;0
1733235807.988;2099528;-34506.1049;-32495.3198;-26122.9053;-33808.6188;-20694.0696;-36527.0153;-31865.8054;-30897.0809;-14219.2617;-17877.3478;-11444.1812;-17535.2767;-16933.009;-16998.2091;-30117.8768;-42942.0546;N;0.0;0
1733235807.992;2099532;-34500.1146;-32492.8388;-26135.7352;-33850.2377;-20707.2124;-36530.7704;-31875.439;-30901.4842;-14249.8836;-17884.6344;-11452.8313;-17549.403;-16983.524;-17009.832;-30113.3618;-42939.0147;N;0.0;0
1733235807.996;2099536;-34499.8911;-32494.8952;-26150.3533;-33881.6866;-20709.1793;-36525.5177;-31875.9084;-30900.1431;-14257.1479;-17877.8619;-11442.1695;-17537.7131;-16964.9497;-16992.6658;-30104.2423;-42938.8583;N;0.0;0
1733235808;2099540;-34500.4499;-32495.074;-26143.2678;-33862.2406;-20700.5516;-36523.2378;-31871.3039;-30898.5338;-14240.7417;-17872.6539;-11433.81;-17527.2748;-16914.39;-16980.5288;-30099.0567;-42939.5735;N;0.0;0
1733235808.004;2099544;-34499.1758;-32497.555;-26124.2017;-33816.0619;-20693.332;-36522.7908;-31867.2583;-30899.0255;-14215.3949;-17871.8045;-11435.9558;-17519.8987;-16887.8138;-16984.1722;-30096.7321;-42943.0827;N;0.0;0
1733235808.008;2099548;-34499.1535;-32492.3024;-26113.2941;-33803.679;-20693.1755;-36515.9512;-31862.4973;-30896.3656;-14205.8954;-17869.2341;-11443.2201;-17517.5294;-16921.9673;-16994.3199;-30089.736;-42937.763;N;0.0;0
1733235808.012;2099552;-34484.0884;-32482.8476;-26117.5856;-33837.5643;-20697.6905;-36512.576;-31862.7208;-30890.7554;-14225.8555;-17868.34;-11441.119;-17520.8151;-16966.0449;-16997.6056;-30081.5105;-42930.6328;N;0.0;0
1733235808.016;2099556;-34485.4742;-32481.1041;-26134.6623;-33867.0686;-20697.1988;-36511.6149;-31863.749;-30887.4026;-14238.9983;-17863.5791;-11429.4738;-17521.7986;-16947.4259;-16981.1994;-30082.5164;-42926.2295;N;0.0;0
1733235808.02;2099560;-34490.5704;-32483.7416;-26132.0248;-33846.3932;-20689.8004;-36508.0386;-31861.648;-30884.0051;-14227.7554;-17856.0689;-11418.2532;-17518.6917;-16892.15;-16964.9497;-30082.3376;-42926.3636;N;0.0;0
1733235808.024;2099564;-34490.2351;-32485.4404;-26111.9753;-33803.3661;-20684.9054;-36502.8754;-31854.5178;-30883.1558;-14203.6378;-17851.7327;-11417.2697;-17511.1368;-16868.3901;-16968.6377;-30081.0412;-42927.3024;N;0.0;0
1733235808.026;2099568;-34485.5189;-32486.7815;-26097.0443;-33794.1349;-20687.297;-36497.578;-31849.4886;-30879.5795;-14195.4571;-17845.9883;-11419.8178;-17505.3701;-16897.6486;-16969.4424;-30074.9838;-42923.0109;N;0.0;0
1733235808.03;2099572;-34474.7007;-32476.2315;-26097.9831;-33818.0289;-20682.2902;-36489.0844;-31848.1922;-30868.2695;-14206.8341;-17844.7589;-11415.8839;-17505.7054;-16937.6135;-16966.6931;-30057.1024;-42908.9069;N;0.0;0
1733235808.034;2099576;-34489.1176;-32485.5968;-26126.5486;-33857.5467;-20687.1182;-36500.3049;-31860.128;-30875.0421;-14233.4327;-17851.7327;-11421.6283;-17517.1494;-16942.0168;-16979.4783;-30064.4115;-42916.283;N;0.0;0
1733235808.038;2099580;-34531.5635;-32530.5015;-26167.3629;-33881.1949;-20719.4164;-36539.3981;-31893.7898;-30912.7271;-14259.9866;-17885.5509;-11452.1831;-17550.543;-16923.3307;-17003.9535;-30108.9585;-42951.7552;N;0.0;0
1733235808.04;2099584;-34547.7685;-32550.7522;-26166.0442;-33856.0045;-20732.2463;-36552.3398;-31906.1279;-30930.3403;-14247.4249;-17896.235;-11463.8954;-17551.2582;-16901.6495;-17006.0769;-30129.5668;-42967.2226;N;0.0;0
1733235808.044;2099588;-34544.4158;-32538.7046;-26149.9509;-33841.9005;-20727.7983;-36545.9025;-31902.6187;-30922.7407;-14241.9487;-17893.1057;-11463.9625;-17545.3797;-16935.2889;-17012.6259;-30128.1139;-42956.5385;N;0.0;0
1733235808.048;2099592;-34545.0863;-32534.9271;-26159.1822;-33878.5797;-20734.8838;-36544.472;-31905.2562;-30920.1926;-14264.2111;-17896.8385;-11470.1092;-17556.7567;-16992.2858;-17022.7736;-30117.8768;-42951.7999;N;0.0;0
1733235808.052;2099596;-34524.8133;-32527.9981;-26166.2453;-33904.1278;-20731.1288;-36542.2145;-31908.9442;-30916.9292;-14277.9574;-17897.7549;-11468.8799;-17559.126;-16993.627;-17020.3149;-30104.5105;-42945.9438;N;0.0;0
1733235808.057;2099600;-34532.5917;-32535.2401;-26171.9674;-33888.638;-20725.6302;-36542.1921;-31906.3738;-30915.1858;-14263.697;-17891.027;-11458.4416;-17549.4477;-16933.5008;-17008.0885;-30116.8934;-42947.4413;N;0.0;0
1733235808.061;2099604;-34552.9094;-32543.5549;-26151.4038;-33839.6877;-20712.8227;-36530.2116;-31883.1056;-30900.3443;-14222.5474;-17868.7423;-11437.811;-17528.5041;-16887.702;-16983.8145;-30118.838;-42943.351;N;0.0;0
1733235808.065;2099608;-34558.0727;-32549.9922;-26145.2124;-33837.989;-20721.0034;-36536.3136;-31887.2854;-30908.5697;-14227.0401;-17880.5217;-11454.463;-17544.1727;-16933.7019;-17001.0477;-30124.8282;-42949.5201;N;0.0;0
1733235808.069;2099612;-34556.441;-32544.6948;-26160.6127;-33878.1774;-20730.5476;-36546.1707;-31902.3505;-30916.0799;-14260.456;-17899.096;-11472.6797;-17567.1503;-16996.7338;-17023.9583;-30131.7796;-42951.5094;N;0.0;0
1733235808.071;2099616;-34577.3399;-32558.5529;-26181.8022;-33912.9567;-20733.7439;-36548.1824;-31905.3903;-30916.9963;-14279.902;-17898.5819;-11467.6952;-17569.8772;-16993.1576;-17017.521;-30137.2111;-42957.7455;N;0.0;0
1733235808.075;2099620;-34578.6363;-32555.8931;-26175.0966;-33889.1074;-20717.673;-36540.8063;-31889.8112;-30912.7718;-14261.1712;-17885.9085;-11451.1549;-17555.5497;-16924.6048;-16994.0293;-30130.0585;-42952.1352;N;0.0;0
1733235808.079;2099624;-34568.5109;-32545.9465;-26142.9548;-33832.4681;-20699.9928;-36527.887;-31872.0862;-30901.9759;-14225.5649;-17874.0397;-11439.5991;-17535.4332;-16886.8974;-16987.0555;-30120.1344;-42943.7757;N;0.0;0
1733235808.083;2099628;-34556.9551;-32532.5802;-26121.9665;-33811.5692;-20693.5331;-36515.5041;-31861.8715;-30890.7107;-14212.9809;-17867.8706;-11441.4543;-17524.749;-16922.1461;-16999.5949;-30107.2821;-42932.8009;N;0.0;0
1733235808.086;2099632;-34560.9114;-32531.932;-26133.6789;-33842.4593;-20700.4175;-36512.7996;-31863.5926;-30887.0226;-14228.6271;-17869.5694;-11444.4718;-17530.0911;-16972.0128;-17001.0924;-30100.4425;-42925.7154;N;0.0;0
1733235808.09;2099636;-34568.0639;-32546.0136;-26153.4154;-33876.7469;-20707.6818;-36517.2923;-31871.2145;-30890.3307;-14244.251;-17868.3177;-11441.5661;-17533.6003;-16964.0109;-16991.9059;-30097.6485;-42930.2529;N;0.0;0
1733235808.094;2099640;-34576.5129;-32551.6462;-26154.466;-33866.711;-20708.1288;-36522.9025;-31872.9356;-30895.5163;-14239.2442;-17867.3342;-11433.6759;-17530.2923;-16913.6971;-16986.4967;-30101.0683;-42940.8476;N;0.0;0
1733235808.098;2099644;-34593.5002;-32554.8872;-26143.4019;-33831.0599;-20706.2289;-36524.1766;-31867.303;-30899.182;-14216.1995;-17864.8084;-11431.1948;-17523.8326;-16879.6554;-16983.7028;-30115.6864;-42945.765;N;0.0;0
1733235808.103;2099648;-34587.0629;-32547.8464;-26130.1026;-33819.5711;-20704.6196;-36519.2145;-31861.0221;-30892.3647;-14208.3541;-17864.9649;-11436.0675;-17523.4079;-16917.8769;-16991.9059;-30111.5289;-42939.1265;N;0.0;0
1733235808.107;2099652;-34582.0114;-32544.6501;-26140.295;-33854.261;-20710.3416;-36521.405;-31869.2476;-30893.5046;-14229.8788;-17874.4867;-11444.8294;-17535.9026;-16972.7951;-17004.5123;-30107.3715;-42934.4326;N;0.0;0
1733235808.111;2099656;-34574.7471;-32539.6657;-26151.3591;-33879.1609;-20708.6205;-36521.3826;-31870.9686;-30891.6494;-14244.4521;-17874.7997;-11440.0908;-17534.0697;-16967.6766;-16996.3092;-30096.7544;-42932.6668;N;0.0;0
1733235808.115;2099660;-34567.6839;-32543.5102;-26151.1579;-33859.916;-20701.5574;-36518.5216;-31870.5216;-30890.7107;-14233.4104;-17865.859;-11429.7643;-17520.5469;-16905.0023;-16973.5774;-30097.9838;-42934.6785;N;0.0;0
1733235808.118;2099664;-34572.4225;-32542.8173;-26140.2279;-33823.9297;-20703.5691;-36522.0085;-31868.7782;-30895.6057;-14216.5795;-17869.3905;-11435.5981;-17523.028;-16882.0247;-16981.2888;-30114.01;-42938.0089;N;0.0;0
1733235808.122;2099668;-34562.6995;-32530.278;-26125.2075;-33810.9657;-20705.916;-36515.817;-31862.4303;-30894.4434;-14210.0081;-17869.8823;-11441.3649;-17524.0338;-16918.7263;-17000.2654;-30110.1431;-42937.1148;N;0.0;0
1733235808.126;2099672;-34547.8132;-32516.9563;-26124.4699;-33842.884;-20706.5195;-36506.854;-31859.7481;-30888.1178;-14222.3686;-17865.0096;-11437.431;-17519.9434;-16957.1713;-16995.0351;-30093.8487;-42929.0906;N;0.0;0
1733235808.13;2099676;-34550.9201;-32520.3761;-26142.3513;-33880.1444;-20708.2629;-36512.6207;-31864.1961;-30887.2685;-14237.4784;-17860.204;-11429.0491;-17522.4468;-16946.8448;-16970.9846;-30098.4532;-42928.4871;N;0.0;0
1733235808.135;2099680;-34568.6674;-32547.3547;-26167.5417;-33885.8217;-20728.6254;-36537.4982;-31886.1902;-30911.9448;-14249.5483;-17878.8006;-11443.8012;-17542.3622;-16919.0839;-16990.0283;-30121.4084;-42953.901;N;0.0;0
1733235808.139;2099684;-34568.1086;-32550.931;-26154.9354;-33843.5993;-20726.4572;-36538.9511;-31886.7266;-30918.5386;-14231.3987;-17885.9085;-11452.1831;-17541.5799;-16895.7263;-17003.5064;-30129.5891;-42962.3723;N;0.0;0
1733235808.143;2099688;-34561.336;-32541.6774;-26139.3785;-33832.3116;-20724.6244;-36531.0833;-31879.6188;-30914.0235;-14223.1062;-17886.4673;-11459.5592;-17543.4127;-16932.4726;-17011.3966;-30124.6494;-42958.729;N;0.0;0
1733235808.147;2099692;-34540.9736;-32516.6658;-26132.4495;-33849.746;-20713.4709;-36513.0454;-31865.0901;-30897.2821;-14230.0129;-17872.0281;-11451.9149;-17538.8753;-16975.1197;-17001.3607;-30101.8506;-42940.2888;N;0.0;0
1733235808.149;2099696;-34517.996;-32496.5715;-26130.572;-33862.6876;-20698.6517;-36496.7957;-31852.9978;-30878.9536;-14234.595;-17854.7949;-11430.4125;-17528.4371;-16956.1878;-16976.9078;-30083.5446;-42922.8097;N;0.0;0
1733235808.153;2099700;-34517.2137;-32499.2314;-26127.9792;-33853.054;-20691.9238;-36501.3331;-31851.7685;-30881.3006;-14224.6932;-17850.9504;-11422.7682;-17522.4021;-16896.9557;-16969.42;-30088.6407;-42928.7553;N;0.0;0
1733235808.157;2099704;-34529.2836;-32512.4413;-26122.2348;-33822.9686;-20694.7178;-36510.8326;-31854.8307;-30891.7165;-14210.321;-17855.7336;-11426.501;-17523.5197;-16874.2463;-16980.6629;-30106.4774;-42938.523;N;0.0;0
1733235808.161;2099708;-34529.7977;-32508.0156;-26118.0326;-33814.8549;-20700.0598;-36518.4322;-31859.0328;-30894.2869;-14215.3054;-17865.0543;-11437.7216;-17531.2981;-16920.1791;-16999.0584;-30111.0148;-42939.73;N;0.0;0
1733235808.166;2099712;-34528.2108;-32506.9204;-26136.5622;-33859.1784;-20711.4816;-36527.44;-31871.2592;-30899.4055;-14243.6475;-17879.8735;-11449.5009;-17547.1455;-16983.2781;-17015.7999;-30111.3278;-42945.5414;N;0.0;0
1733235808.17;2099716;-34525.3274;-32504.7076;-26152.2532;-33888.4816;-20708.8888;-36527.4176;-31872.4215;-30892.8788;-14258.3102;-17878.6889;-11444.74;-17548.4419;-16974.0692;-17003.2606;-30107.1703;-42938.9924;N;0.0;0
1733235808.174;2099720;-34520.03;-32496.348;-26139.7809;-33863.3135;-20691.2085;-36515.9735;-31856.9541;-30882.0829;-14231.9575;-17860.0028;-11424.5564;-17529.0853;-16908.5115;-16978.763;-30102.0741;-42930.4764;N;0.0;0
1733235808.178;2099724;-34510.9105;-32490.9166;-26115.7081;-33813.2679;-20679.0939;-36504.8647;-31842.0902;-30875.6679;-14200.3298;-17850.0339;-11417.985;-17517.3953;-16880.0801;-16972.4822;-30099.6378;-42926.9895;N;0.0;0
1733235808.19;2099728;-34509.3235;-32489.0614;-26107.3261;-33802.2485;-20682.0443;-36501.7354;-31838.9609;-30877.322;-14200.0839;-17852.8056;-11422.5894;-17523.7432;-16920.045;-16972.8398;-30105.0916;-42925.179;N;0.0;0
1733235808.194;2099732;-34510.1729;-32492.5259;-26119.3067;-33840.6041;-20696.2824;-36509.2009;-31848.4604;-30881.6358;-14227.7554;-17865.9707;-11435.2629;-17540.2611;-16976.4161;-16991.1012;-30106.3433;-42928.8894;N;0.0;0
1733235808.198;2099736;-34507.9824;-32493.1964;-26134.8635;-33873.5506;-20699.4787;-36512.2184;-31857.1553;-30884.4522;-14246.6873;-17867.893;-11433.3853;-17545.4468;-16976.9973;-16992.0176;-30098.1179;-42929.1353;N;0.0;0
1733235808.202;2099740;-34510.5752;-32497.175;-26133.813;-33858.0161;-20693.019;-36514.6324;-31857.5799;-30883.8263;-14239.6688;-17864.8978;-11427.6409;-17544.6868;-16925.6553;-16983.6804;-30102.0071;-42934.4326;N;0.0;0
1733235808.205;2099744;-34514.5985;-32499.969;-26121.0501;-33818.7665;-20692.7061;-36512.956;-31853.2437;-30887.6932;-14218.77;-17864.5626;-11430.0326;-17538.2718;-16891.5242;-16988.039;-30111.976;-42939.2383;N;0.0;0
1733235808.209;2099748;-34509.9047;-32486.0439;-26105.4039;-33802.025;-20690.0463;-36503.5012;-31843.8336;-30880.3171;-14205.426;-17857.79;-11428.982;-17529.8452;-16918.2792;-16986.8991;-30100.3307;-42927.5483;N;0.0;0
1733235808.213;2099752;-34510.1058;-32486.9826;-26119.6196;-33839.1513;-20698.1599;-36508.1951;-31850.0027;-30880.25;-14226.8613;-17862.9309;-11434.1229;-17534.6285;-16964.525;-16996.6891;-30099.2355;-42926.5425;N;0.0;0
1733235808.217;2099756;-34494.6384;-32478.2431;-26129.9908;-33865.9957;-20691.2756;-36506.2058;-31844.0348;-30873.4104;-14239.423;-17857.6112;-11424.0646;-17533.2204;-16958.9147;-16983.4569;-30092.7311;-42918.0712;N;0.0;0
1733235808.219;2099760;-34482.5462;-32462.3734;-26115.6186;-33838.9948;-20666.5546;-36491.2525;-31830.1544;-30859.6417;-14213.0926;-17838.0087;-11400.7965;-17508.7005;-16889.222;-16956.1654;-30079.6106;-42906.1577;N;0.0;0
