FC3,FCz,FC4,C5,C3,C1,Cz,C2,C4,C6,CP3,CPz,CP4
57448.2232,28662.4879,54436.9519,42981.1925,37055.1199,39948.9552,5496.338,50199.4193,43247.6252,55594.3698,1231.7151,-337.9136,26644.5279
57469.5915,28670.1769,54442.0034,42999.0739,37072.0625,39961.9639,5505.994,50218.8206,43261.3492,55606.7526,1256.7043,-316.6348,26652.9769
57494.849,28678.8046,54442.6292,43010.518,37094.6378,39967.82,5506.9774,50247.5649,43278.2471,55612.0723,1272.887,-300.1392,26657.5813
57490.2892,28675.5413,54441.1987,43007.8804,37096.5153,39965.5849,5506.3516,50251.767,43274.3579,55605.2774,1269.0872,-307.0235,26654.5415
57470.3068,28670.4004,54441.6457,43001.7561,37074.8788,39956.9571,5507.8715,50229.6388,43258.3541,55605.0092,1249.82,-326.1119,26649.1771
57451.2631,28664.723,54438.9188,42993.62,37059.1432,39953.1126,5508.3185,50218.2394,43239.7127,55593.3863,1233.5926,-339.1206,26644.1256
57467.8034,28668.7911,54438.74,43000.2362,37079.1703,39959.1029,5508.8997,50227.3142,43251.6038,55595.4427,1247.8977,-329.867,26645.2432
57488.5011,28676.793,54434.8508,43010.8756,37104.5172,39963.8861,5509.302,50247.5649,43267.3395,55599.8236,1260.9959,-317.663,26643.6338
57489.9316,28673.3955,54431.9004,43005.5112,37093.5649,39961.8298,5503.4012,50248.4143,43271.3628,55598.8848,1254.648,-323.9214,26638.0906
57469.815,28663.5607,54432.5262,42992.1001,37069.0674,39955.2137,5502.6859,50229.8176,43259.2481,55591.1064,1236.7666,-337.6901,26632.3686
57461.0978,28664.4995,54436.0131,42982.5783,37049.4872,39953.2914,5501.2554,50217.0771,43246.7312,55589.7206,1225.4566,-342.1605,26631.5639
57483.1814,28672.0544,54440.9305,43001.6667,37069.9614,39959.7287,5509.7491,50237.149,43259.0246,55601.6564,1240.7005,-324.7261,26641.8457
57503.1191,28685.376,54448.1277,43023.7055,37098.0799,39975.4643,5519.2262,50268.8885,43278.4706,55615.2016,1266.3603,-300.6756,26653.6027
57502.0015,28689.1758,54454.4309,43026.5218,37111.8933,39979.9347,5525.2165,50279.9302,43289.3783,55622.7118,1274.9881,-294.6854,26658.7436
57484.8801,28684.0349,54455.6826,43015.3906,37091.5532,39973.0951,5523.473,50261.1101,43286.0255,55615.4251,1259.7442,-308.767,26658.6095
57471.6926,28677.1059,54455.1909,43001.309,37073.5377,39968.9376,5517.5722,50227.0013,43269.0829,55606.395,1244.6344,-323.9214,26655.972
57489.1716,28683.6773,54458.2754,43010.2497,37088.5134,39972.8715,5523.6518,50246.3579,43280.6164,55614.7546,1256.4361,-314.3549,26663.3034
57508.3047,28695.2555,54461.4494,43029.1593,37118.8223,39973.0057,5530.0891,50275.8622,43301.8059,55629.9537,1276.195,-295.5347,26671.6182
57499.9005,28702.0952,54461.0471,43029.1593,37122.1751,39970.6811,5525.3953,50278.4103,43297.112,55627.1374,1280.2184,-297.8593,26668.6678
57483.4049,28695.3449,54462.8352,43020.5315,37092.939,39964.8249,5523.9648,50245.7768,43279.32,55618.1073,1264.0804,-312.1644,26662.6775
57468.8315,28688.5053,54459.2142,43009.8474,37072.0178,39961.0251,5521.7296,50222.7992,43276.1461,55609.8372,1251.8317,-319.4958,26658.0731
57476.2076,28694.0932,54453.2686,43015.3906,37091.7767,39965.2719,5519.5838,50246.492,43282.941,55608.049,1259.5206,-314.6678,26655.972
57494.7596,28704.9562,54453.7157,43027.2371,37120.1634,39973.9444,5522.2213,50288.3345,43300.5095,55620.2084,1274.9881,-302.8661,26663.3928
57497.3077,28708.6666,54459.2589,43030.1428,37121.8622,39976.5819,5528.6586,50298.7504,43311.7747,55628.4785,1282.0512,-300.6756,26666.5667
57475.3135,28693.8697,54453.8945,43014.7648,37090.4803,39967.9989,5522.9366,50276.041,43291.8817,55613.6817,1259.4312,-316.6795,26656.3743
57466.0599,28682.7832,54449.6924,43003.2313,37071.4813,39969.34,5519.1368,50257.0421,43274.4473,55601.6564,1244.7238,-328.8388,26650.6076
57479.5604,28687.1642,54448.9771,43012.1273,37092.4473,39968.0436,5517.6616,50273.0012,43283.8351,55606.9314,1254.8715,-317.0818,26654.6309
57500.0346,28686.2701,54453.8498,43023.5714,37112.3403,39970.7705,5516.991,50295.7106,43309.4501,55619.9849,1272.9764,-304.2966,26661.2917
57495.4301,28679.7881,54454.3862,43020.5762,37108.8535,39970.234,5518.4215,50294.5483,43308.6455,55619.9849,1275.3457,-306.3977,26661.5599
57480.2756,28671.8756,54453.4475,43010.2944,37091.6426,39965.8084,5519.2262,50270.6766,43296.3073,55612.6088,1262.6499,-317.2159,26657.626
57468.5186,28668.0311,54454.118,43004.8406,37072.9566,39965.3614,5518.198,50240.7253,43288.1266,55610.1501,1247.2719,-325.1731,26656.1061
57481.0803,28677.4635,54455.5038,43014.3178,37084.6689,39974.5703,5520.7014,50261.87,43298.319,55620.7001,1259.2971,-318.6911,26663.3481
57498.8276,28682.9621,54455.4591,43033.3167,37106.5289,39986.0144,5524.5459,50291.7767,43310.2548,55625.394,1279.5925,-303.6261,26669.7407
57495.7877,28686.1807,54452.2405,43033.2273,37103.1314,39984.4497,5523.6518,50286.9934,43306.4997,55618.8673,1274.2281,-306.5765,26665.315
57486.4894,28685.8678,54454.2074,43028.7123,37086.5911,39985.8356,5524.1436,50277.6951,43301.8059,55611.4912,1259.3865,-314.3549,26663.4375
57478.9792,28682.7385,54453.5369,43020.308,37072.0625,39984.2262,5523.6965,50263.7029,43292.5075,55606.2609,1249.82,-320.5687,26660.9788
57497.7547,28688.6394,54452.5981,43028.3546,37090.6591,39988.6966,5520.7461,50271.4366,43307.3044,55612.2959,1268.8637,-306.5318,26664.108
57525.0685,28697.5354,54451.5699,43036.7142,37116.3189,39998.5313,5517.2592,50302.8631,43320.8048,55615.5592,1286.1192,-298.351,26668.8913
57523.4145,28701.1117,54447.189,43034.7472,37108.4064,39997.5032,5515.7393,50304.696,43307.5726,55608.6302,1282.0959,-299.3792,26669.1148
57503.0297,28697.3566,54449.5583,43024.1972,37085.5629,39989.9483,5515.6052,50278.4997,43284.9973,55602.4164,1266.0921,-310.1081,26665.9856
57488.7693,28685.3313,54452.3299,43013.2896,37074.6553,39985.0756,5516.2311,50256.2821,43274.8049,55597.2755,1253.2622,-325.039,26657.7601
57493.9102,28680.8163,54452.6875,43020.2186,37082.7913,39988.2048,5519.6732,50266.7427,43280.6611,55595.6662,1263.0969,-318.4676,26658.4307
57507.6789,28685.8678,54445.982,43030.5898,37096.2918,39988.3389,5519.1368,50287.798,43284.3268,55597.8566,1273.1999,-310.5104,26657.8943
57499.5428,28688.9523,54444.9538,43026.3877,37097.1411,39984.2709,5520.5226,50290.972,43277.0401,55604.6069,1269.9813,-315.3384,26657.939
57469.8597,28681.621,54445.4902,43006.137,37076.4434,39967.2836,5513.9959,50263.077,43256.4765,55595.8897,1250.8482,-333.3539,26649.937
57452.2018,28673.8425,54445.3114,42990.4908,37060.8866,39963.4838,5512.7442,50239.9206,43233.9013,55589.9441,1239.4935,-347.4802,26648.0148
57458.5497,28673.8873,54447.189,42995.4082,37081.9867,39964.6014,5521.059,50244.1674,43238.461,55596.0685,1255.855,-334.7397,26656.0614
57481.3038,28684.8396,54451.3464,43007.4781,37115.7825,39969.34,5532.7266,50259.1431,43252.4532,55604.2492,1277.2232,-313.8632,26666.3432
57478.6663,28688.3712,54450.0053,43005.4218,37109.2558,39962.5897,5536.3923,50257.0868,43250.0392,55605.8139,1278.2514,-308.0517,26669.8748
57453.99,28690.6958,54446.7419,43004.1701,37087.1723,39949.8045,5539.7451,50224.5426,43235.3765,55600.8518,1264.7957,-318.4229,26666.7902
57439.1931,28689.1758,54449.5136,42997.9563,37073.4036,39950.2963,5540.1474,50196.7818,43222.7254,55596.9179,1256.6596,-326.8272,26665.6727
57446.4798,28698.8765,54452.1958,43003.5889,37093.9672,39952.7997,5546.3165,50204.2472,43224.2006,55599.4213,1273.3787,-316.4113,26669.2936
57466.7305,28716.6685,54452.2405,43017.447,37126.3772,39953.962,5553.4244,50225.4367,43225.8993,55604.1598,1288.9802,-305.146,26671.3947
57457.4322,28713.9863,54444.6409,43010.6074,37120.2081,39949.3128,5549.5352,50209.7011,43211.5495,55594.7274,1284.5099,-311.4492,26665.3597
57436.4215,28709.963,54445.4902,43002.4713,37091.7767,39941.892,5547.1212,50171.6584,43188.5719,55590.0782,1268.9084,-320.4793,26661.4258
57427.4808,28710.0524,54447.3231,42995.2294,37073.046,39937.1982,5544.7519,50137.952,43171.3164,55581.9869,1253.7986,-329.6435,26656.1955
57437.5838,28724.6704,54445.6691,43000.9514,37087.5746,39940.4615,5544.0813,50146.8033,43181.3747,55579.8858,1258.8948,-326.9166,26656.3296
57451.7548,28736.1145,54449.6477,43011.412,37105.0984,39945.8259,5547.8811,50166.3387,43187.9908,55586.4573,1280.2184,-314.489,26659.0565
57454.0347,28736.6956,54449.9159,43007.791,37100.0916,39942.4732,5547.7917,50165.1317,43187.1414,55586.6361,1277.4915,-312.4326,26658.3413
57431.8171,28729.0961,54443.2998,42990.2673,37076.667,39931.1632,5539.7004,50136.1191,43174.7586,55579.3494,1250.4011,-327.1401,26651.6805
57410.8064,28720.1554,54439.5,42975.6492,37046.2686,39925.1729,5534.7383,50104.2455,43159.6935,55570.0511,1234.9784,-338.8077,26647.9254
57429.4031,28722.8823,54440.707,42988.0321,37067.6816,39931.6102,5538.8063,50112.3369,43171.4505,55573.4038,1253.7539,-328.1683,26652.0828
57447.6421,28722.2117,54436.5495,42998.895,37085.9206,39936.7511,5534.9618,50122.0375,43177.3961,55569.5146,1269.5789,-317.663,26652.9322
57441.7859,28719.0378,54436.9072,42998.6715,37080.8244,39933.5772,5531.162,50115.6896,43172.881,55570.364,1272.5294,-320.6134,26650.4288
57412.0134,28714.7015,54437.2648,42988.1662,37051.6777,39925.0388,5528.301,50091.4156,43160.7217,55565.6701,1256.9278,-333.1304,26643.9468
57389.5723,28704.9115,54431.7663,42980.5666,37023.5592,39921.3284,5524.1436,50067.3652,43143.4661,55552.8402,1243.1145,-344.3956,26640.4152
57411.8346,28707.8172,54434.5826,42989.4179,37042.0218,39930.4479,5529.1504,50073.9813,43139.264,55553.779,1255.7656,-331.521,26644.7067
57445.0046,28712.6005,54437.5777,43006.3158,37073.5377,39939.5674,5533.8889,50099.7752,43159.157,55564.4631,1273.4234,-314.3102,26651.8593
57442.3224,28702.3634,54433.018,43003.1419,37079.6621,39930.895,5524.5906,50094.679,43165.0579,55563.2114,1271.5459,-318.3335,26646.5396
57429.3584,28692.8862,54431.811,42996.5258,37054.5387,39924.5024,5520.4332,50069.2874,43149.0988,55556.7741,1259.4759,-332.1916,26640.2811
57413.9804,28680.6822,54430.8722,42988.1215,37025.4815,39925.5306,5520.612,50049.5285,43130.7256,55552.7061,1245.9308,-341.624,26640.3705
57423.1893,28682.5597,54432.6603,42995.14,37034.3328,39928.5704,5521.7296,50054.1776,43140.6945,55556.4165,1259.7889,-332.1022,26645.6902
57450.1902,28691.0534,54436.9966,43007.7463,37066.1616,39932.4596,5523.6518,50081.8044,43147.4894,55561.5574,1275.3457,-314.8019,26649.49
57447.5974,28680.9057,54431.0063,43001.8455,37055.4328,39923.7871,5519.2262,50068.0357,43143.8237,55558.4282,1267.4332,-321.8204,26642.9633
57434.7228,28670.6239,54436.5048,42988.8368,37027.2696,39910.3314,5516.2758,50038.9785,43143.7343,55556.9977,1249.2836,-337.3772,26639.4317
57423.5916,28661.6385,54439.8576,42979.2702,37006.8401,39904.4752,5514.577,50013.6316,43134.2125,55555.0754,1236.6325,-348.8213,26637.0624
57436.6897,28660.4315,54443.8809,42979.4043,37020.0723,39906.7104,5518.8686,50020.8735,43141.1862,55557.4447,1244.0532,-340.5958,26641.5775
57453.7665,28665.1701,54443.2998,42986.1546,37047.0285,39908.0515,5519.0027,50052.166,43154.8655,55562.228,1262.2029,-330.7611,26643.9021
57454.8393,28670.0875,54442.9868,42988.0321,37056.6845,39909.5267,5516.0969,50063.8336,43163.0909,55565.1784,1267.3885,-323.4744,26643.9915
57437.4497,28663.829,54442.0481,42972.2518,37031.8294,39902.9106,5517.0357,50043.5829,43154.7761,55556.6847,1250.4458,-336.4831,26636.973
57436.7791,28666.0194,54446.8313,42968.2285,37017.6584,39904.2964,5523.7412,50028.4731,43151.3339,55556.3271,1245.3496,-338.4501,26635.7213
57454.8393,28676.033,54449.4689,42979.5384,37044.391,39912.2089,5527.4516,50056.994,43165.6837,55565.2231,1258.9842,-324.8602,26645.4667
57470.6197,28680.3246,54444.4174,42986.244,37070.0061,39923.0272,5526.0658,50085.336,43179.3183,55566.9218,1270.2942,-314.8913,26649.7582
57479.7839,28688.0583,54445.7138,42991.966,37068.8885,39930.4032,5530.8491,50088.7334,43184.4145,55572.5545,1273.647,-307.7835,26653.6921
57470.5303,28692.3945,54447.0549,42988.7921,37046.2686,39926.4693,5535.3194,50073.8472,43175.2056,55570.364,1258.7607,-316.8136,26651.5464
57450.8607,28685.5996,54447.2337,42976.4986,37028.0743,39922.4907,5536.7053,50055.474,43167.7401,55569.5146,1244.6791,-327.8553,26646.4055
57455.2864,28684.482,54448.7536,42974.4869,37037.4173,39924.3683,5534.023,50064.9959,43173.9986,55572.8674,1253.3963,-323.6532,26644.8855
57470.9326,28687.343,54446.429,42983.4276,37062.3171,39923.4742,5535.9453,50093.4273,43186.4262,55577.5613,1267.1202,-312.4326,26648.5959
57472.989,28685.0184,54445.982,42986.3781,37069.8273,39917.1263,5537.1523,50092.265,43190.1366,55585.1161,1269.3554,-314.2208,26648.0595
57454.7946,28673.3061,54440.6623,42978.9573,37046.358,39912.5665,5530.4468,50077.7364,43182.0005,55581.1375,1252.9045,-330.2693,26642.4716
57446.6586,28668.2546,54435.7002,42973.3247,37022.844,39911.5831,5525.5294,50064.8171,43171.8081,55572.1074,1239.0018,-345.9603,26640.5046
57455.5993,28678.9834,54433.1074,42981.1031,37039.0713,39921.3284,5524.7694,50082.922,43171.4505,55572.1074,1242.8015,-338.763,26641.2199
57473.6595,28694.6744,54436.0131,42995.4976,37066.9663,39933.4431,5524.5906,50113.4098,43193.8469,55578.0083,1263.4546,-319.2276,26646.3608
57481.2591,28705.582,54440.7517,43004.7512,37075.1023,39938.4499,5528.7927,50130.7547,43200.2842,55581.8528,1270.2048,-315.4278,26648.73
57465.4341,28698.8765,54443.8809,43000.102,37056.8186,39934.4712,5528.748,50115.6896,43194.5622,55581.674,1257.4643,-324.6814,26643.008
57446.1222,28694.4509,54442.6739,42991.519,37041.3959,39930.5373,5527.9881,50099.1046,43186.7391,55577.9636,1239.9852,-339.0759,26636.526
57460.4273,28704.1515,54445.8926,43001.8008,37054.6728,39937.0193,5528.6586,50113.4545,43190.673,55579.6623,1246.2884,-334.7844,26636.7495
57481.8403,28714.9698,54448.0383,43019.1904,37083.3725,39947.8376,5529.5974,50141.7518,43209.0908,55587.0384,1265.6897,-320.5687,26643.5891
57479.0239,28717.1155,54448.083,43016.2847,37082.4337,39944.2166,5520.8355,50142.1094,43209.4038,55586.8149,1262.2029,-323.9214,26643.1868
57468.0269,28715.9979,54450.3182,43006.584,37060.2161,39941.2215,5518.6898,50124.8986,43196.9315,55582.881,1247.8977,-329.867,26643.1868
57456.2699,28710.7229,54448.6195,42997.5092,37042.4688,39942.652,5518.6003,50108.5371,43184.5039,55575.5496,1238.0183,-333.2645,26641.8457
57472.5419,28717.4731,54449.6924,43004.9747,37058.4279,39955.2584,5522.579,50122.3952,43201.8936,55581.3611,1254.2903,-322.8933,26648.5065
57502.6721,28724.9386,54449.3794,43021.3362,37086.9488,39968.4459,5525.887,50150.2007,43220.982,55589.363,1272.1717,-307.8282,26651.5017
57494.3125,28723.1505,54443.4339,43022.5879,37087.6193,39968.1777,5521.1484,50149.1725,43219.5514,55586.5467,1273.9152,-309.4375,26651.904
57473.7489,28714.4333,54443.2104,43011.1885,37064.4629,39952.5315,5518.7345,50130.5312,43195.3222,55575.5496,1254.1115,-325.3967,26646.6737
57452.2018,28708.7113,54440.2152,42997.1963,37045.0616,39938.0028,5515.784,50111.5322,43183.744,55572.1968,1238.1077,-343.1886,26639.4764
57467.2222,28703.2574,54440.0364,42999.3868,37061.6019,39945.7812,5519.6732,50121.1435,43192.3717,55580.467,1252.0552,-328.213,26641.4434
57489.0822,28713.5392,54443.8362,43010.7862,37092.0002,39950.2069,5526.647,50156.9957,43214.9917,55589.1395,1268.2825,-308.4093,26644.4832
57486.9812,28713.0475,54440.3046,43009.5345,37088.7816,39946.273,5526.5129,50157.0404,43220.0432,55590.3018,1268.6402,-312.3432,26642.6057
57473.2572,28706.0738,54438.5612,43001.1749,37069.6932,39934.7395,5522.266,50136.5215,43207.3027,55584.535,1253.0833,-325.9778,26637.3307
57450.1902,28688.3712,54433.2862,42983.4276,37047.3862,39920.792,5512.8783,50111.711,43192.1929,55577.6507,1235.202,-337.4219,26631.7874
57458.6838,28689.757,54437.2201,42988.2109,37059.2326,39927.8998,5513.7724,50127.5361,43202.9217,55587.709,1244.7238,-328.4812,26639.6105
57472.0055,28695.3002,54438.4718,42997.0622,37086.6358,39936.5723,5517.1251,50150.7819,43221.1608,55596.7391,1261.6664,-315.5619,26644.2597
57471.9161,28695.2555,54436.1919,42985.484,37085.3841,39933.5325,5515.5605,50160.5719,43220.5796,55599.153,1254.8715,-317.8418,26641.4434
57454.7499,28690.7852,54434.7167,42971.8494,37060.3502,39922.8483,5516.6334,50140.7236,43215.4387,55594.5933,1240.0299,-327.4977,26636.9283
57438.8802,28682.3809,54435.5661,42963.6687,37038.3561,39918.2439,5516.3205,50125.5244,43206.1851,55595.085,1231.6257,-335.9914,26638.4035
57450.816,28684.0796,54435.7896,42969.346,37056.1928,39929.4198,5518.958,50139.3378,43219.0597,55599.0636,1243.0251,-328.7494,26644.3044
57467.4904,28688.8629,54435.3873,42979.4043,37082.4337,39934.963,5518.3768,50165.1317,43232.2472,55599.8683,1260.0571,-314.1314,26643.4103
57472.9443,28694.4062,54441.0646,42981.4607,37088.871,39933.0407,5522.579,50167.501,43231.532,55604.8751,1265.6003,-308.4987,26645.3326
57460.4273,28688.5053,54442.9868,42978.1973,37070.5426,39921.8202,5522.4448,50137.8179,43218.7021,55599.4213,1249.7306,-322.2227,26638.94
57443.44,28684.3926,54439.4106,42969.8378,37057.9809,39919.138,5519.5838,50116.7625,43202.5194,55592.5369,1230.7316,-336.2149,26634.8273
57456.9404,28684.7055,54443.2104,42971.9388,37074.9235,39929.0174,5524.8141,50139.9189,43211.8624,55595.5321,1245.7967,-324.4132,26642.8739
57486.6235,28694.4062,54450.81,42983.9194,37094.3248,39945.96,5532.8608,50173.5806,43237.0305,55602.0588,1268.2825,-304.1178,26651.7699
57494.9831,28697.2672,54453.1345,42990.4908,37103.9361,39949.2234,5536.437,50179.6156,43245.7924,55611.5806,1274.7645,-298.3063,26654.4968
57477.2358,28695.792,54452.464,42982.4889,37086.7252,39942.5179,5533.4866,50160.5719,43229.565,55604.1598,1258.269,-319.0488,26648.2383
57456.8957,28691.9922,54450.05,42977.0797,37069.872,39937.1088,5533.3078,50147.3844,43217.9868,55599.1977,1244.0979,-327.6318,26646.9419
57472.5419,28690.7405,54452.5981,42987.3168,37073.6718,39947.6588,5537.2864,50161.913,43222.7254,55603.2211,1252.4575,-321.731,26647.8807
57496.8606,28700.1282,54456.8449,43004.5277,37100.6727,39961.3827,5545.9589,50188.5563,43245.8818,55612.2065,1279.816,-302.6873,26657.4472
57497.71,28700.1729,54452.7322,43008.9086,37107.87,39963.1262,5545.1542,50192.5349,43250.4416,55612.0276,1282.4982,-297.457,26662.9457
57468.3398,28689.31,54448.6642,42995.4976,37086.457,39946.6306,5535.99,50156.1016,43232.6496,55601.0306,1266.405,-310.9127,26656.732
57444.5575,28683.4538,54445.4008,42985.2605,37071.2131,39936.2147,5533.2184,50131.7829,43222.7254,55594.1015,1255.0056,-319.4958,26653.8709
57452.4254,28688.5947,54443.0763,42990.759,37079.1256,39938.8969,5531.6538,50141.26,43228.4474,55590.7488,1253.441,-319.3617,26654.5415
57472.4972,28692.6627,54445.222,43002.6501,37107.6018,39947.8823,5535.2747,50166.2046,43243.9595,55595.085,1271.5906,-304.6095,26656.8661
57470.6197,28685.689,54442.2716,42997.3304,37103.0867,39945.513,5534.5595,50165.9811,43250.8886,55602.774,1273.334,-305.9953,26656.5084
57449.0726,28673.5296,54438.8741,42979.8961,37073.7165,39929.4198,5528.748,50127.2678,43232.9178,55595.4427,1253.441,-324.592,26648.3277
57429.7607,28667.7182,54438.6059,42967.8708,37055.4775,39922.8036,5526.4235,50105.5419,43217.0033,55588.8712,1235.1573,-337.0196,26641.8904
57451.6207,28675.1837,54443.2551,42980.7454,37064.6864,39933.8901,5531.8773,50133.2134,43223.843,55596.8285,1246.0202,-323.3403,26648.6853
57479.471,28688.6394,54441.5116,42998.2692,37093.7884,39941.9367,5531.8326,50161.9577,43250.6651,55607.602,1266.8073,-306.6212,26652.5745
57484.3884,28690.0252,54441.154,42999.5209,37094.6825,39937.0641,5529.4186,50166.8304,43249.8604,55603.3552,1268.9978,-308.9458,26650.7864
57461.7684,28683.0515,54438.4271,42991.0719,37071.2131,39931.3867,5525.3953,50154.7605,43243.736,55595.6662,1259.8336,-321.5075,26646.8525
57440.1319,28669.8192,54433.6885,42979.8067,37049.0402,39925.3964,5520.3438,50126.0608,43226.0334,55587.3513,1243.9191,-337.1537,26640.9963
57445.2728,28668.7911,54432.2133,42983.1147,37057.1315,39924.0553,5516.5887,50128.8325,43231.0849,55584.9373,1244.9026,-329.9564,26637.8224
57472.0949,28671.3392,54431.9004,42997.2857,37084.803,39932.102,5518.3768,50162.2707,43243.3337,55586.4573,1264.9298,-318.5123,26640.7281
57475.3135,28674.9601,54432.4815,42998.8056,37090.9721,39935.3206,5516.544,50164.3717,43242.3949,55589.363,1266.6285,-316.0089,26643.0527
57452.1124,28670.311,54431.9004,42991.6978,37066.6981,39928.1234,5515.0688,50132.3193,43225.3182,55585.1161,1248.166,-325.2178,26638.2694
57439.5955,28658.1069,54431.5875,42977.7056,37039.2501,39918.8697,5512.6101,50106.5701,43212.5777,55577.7848,1231.2233,-336.1255,26632.2345
57458.4603,28661.415,54435.5661,42983.6959,37060.1714,39928.2575,5517.4828,50125.882,43227.3299,55585.2056,1246.1543,-322.625,26634.6037
57480.4991,28670.8474,54436.9966,42993.7094,37092.8049,39941.3109,5518.8686,50154.1346,43246.7759,55597.2755,1262.8287,-309.5269,26637.5095
57482.332,28674.5131,54435.8343,42999.6103,37101.1198,39942.0708,5521.9978,50169.6467,43244.2725,55597.5437,1270.3389,-307.1129,26641.5775
57460.025,28668.4781,54434.8061,42991.1166,37077.6951,39937.1535,5522.9813,50160.706,43232.2472,55587.7537,1256.8831,-322.178,26638.3588
57438.8355,28656.9446,54428.0112,42976.0963,37048.6379,39927.2293,5518.6898,50136.5662,43226.1229,55580.3329,1238.4206,-335.3208,26631.1616
57451.4866,28663.4713,54429.9781,42985.3946,37066.7428,39936.2147,5523.9201,50145.6857,43239.5339,55587.4854,1253.6645,-325.7543,26637.3307
57480.0521,28678.0894,54435.1637,43004.1701,37094.0566,39949.2234,5529.9997,50174.0724,43257.3706,55596.6944,1280.129,-307.9623,26646.5396
57488.1434,28684.5267,54438.3824,43001.8008,37095.9789,39950.2963,5529.2845,50176.4417,43261.3939,55595.9791,1282.1406,-305.6824,26649.6688
57461.0978,28672.2779,54432.7945,42988.9262,37075.0129,39936.3041,5519.7179,50149.7984,43249.8604,55601.5223,1258.5372,-321.5075,26641.6669
57437.852,28670.758,54434.0461,42977.6609,37052.6612,39930.895,5522.3107,50136.4321,43236.4494,55597.9908,1243.9191,-336.2149,26636.526
57460.6955,28683.9455,54445.7585,42989.7308,37070.8555,39941.6238,5531.1173,50170.4067,43256.1636,55603.0869,1260.7276,-320.2558,26648.6853
57488.1434,28690.6511,54448.3513,43002.2925,37101.0303,39955.5266,5536.8841,50206.5271,43282.0916,55611.7147,1276.195,-300.1392,26656.6426
57489.9763,28684.3479,54441.2881,42999.1633,37106.0371,39951.5927,5533.4866,50205.4989,43278.5153,55609.256,1275.8821,-304.6095,26651.144
57466.7305,28685.4655,54441.1093,42993.3071,37083.7748,39942.2497,5529.508,50192.8031,43266.8924,55609.9713,1257.9113,-318.6911,26647.7913
57449.3855,28680.5928,54436.3707,42982.3101,37065.4017,39935.5441,5524.1883,50180.4203,43256.1636,55606.7079,1240.5664,-331.7446,26643.9915
57467.8481,28683.3197,54443.3892,42991.0719,37081.182,39942.9649,5528.4351,50193.2502,43268.5912,55610.6418,1251.4293,-323.1615,26649.2665
57490.1551,28690.3828,54444.7303,43001.8008,37101.388,39946.4071,5533.576,50214.9314,43280.974,55614.844,1266.9414,-308.5434,26653.9603
57483.0025,28686.8513,54441.5116,43001.9796,37098.9293,39947.2564,5529.5527,50211.221,43276.1461,55612.1618,1264.9745,-311.1809,26650.8758
57468.2951,28681.6657,54443.4339,42996.0787,37082.1208,39947.6588,5528.2116,50198.0782,43264.6126,55606.2162,1253.6645,-318.7358,26646.8972
57450.1455,28676.7036,54445.6691,42986.9145,37063.39,39941.2662,5528.2563,50184.3542,43258.3541,55601.2094,1247.5401,-324.8602,26646.1372
57457.5663,28672.1885,54442.9868,42989.1497,37073.6718,39943.7249,5528.8821,50200.6263,43267.7865,55607.1997,1254.9609,-316.6795,26649.043
57478.6216,28677.4188,54443.2998,43002.6054,37102.4609,39949.0446,5535.5877,50229.7729,43284.7738,55617.8391,1268.4166,-303.0896,26656.5979
57484.7013,28682.2468,54444.1044,43005.69,37113.6367,39949.894,5536.2582,50223.1568,43282.4045,55613.9946,1272.1717,-303.6708,26655.7485
57466.1046,28680.3246,54447.8595,42999.7444,37095.4871,39944.8425,5536.437,50201.1627,43273.598,55611.0889,1262.024,-312.1644,26653.0663
57450.4137,28674.6025,54447.7701,42991.7425,37074.3424,39941.4897,5535.1853,50183.2366,43269.4405,55609.0772,1252.7257,-317.2606,26653.9156
57454.3029,28670.2663,54444.6409,42996.6599,37081.629,39946.6753,5534.4254,50201.1627,43276.8166,55613.8158,1265.8238,-306.3977,26657.8943
57470.0385,28680.414,54444.9091,43009.5792,37106.3948,39952.442,5533.6207,50227.6272,43282.941,55618.8673,1276.4186,-297.7699,26656.2849
57486.847,28683.7667,54443.9703,43014.9883,37113.8602,39955.9289,5532.8161,50227.7613,43278.0683,55613.8158,1275.9715,-300.4968,26654.9438
57476.5652,28685.4655,54443.3892,43003.8124,37084.803,39951.3245,5533.5313,50217.5242,43275.5649,55617.4368,1261.7558,-310.3316,26652.3957
57447.9997,28670.2216,54439.5894,42992.3683,37057.3103,39945.513,5529.1951,50194.5913,43261.2598,55610.8207,1244.9026,-328.8388,26650.7417
57466.4623,28667.8076,54438.8294,42997.6434,37073.2248,39948.7764,5530.715,50199.5087,43270.3346,55608.7196,1250.7588,-322.0439,26647.7913
57495.5642,28672.2779,54438.8741,43015.4353,37101.1198,39954.7666,5537.8228,50231.874,43286.3384,55613.8605,1271.6353,-303.0002,26651.3228
57497.4865,28668.344,54434.9402,43013.0213,37103.802,39952.3526,5532.1455,50235.495,43287.7243,55613.1899,1271.3671,-307.3364,26650.0264
57472.676,28665.5724,54432.8392,42997.2857,37083.8642,39945.066,5521.059,50210.2375,43273.1956,55603.3552,1252.3234,-319.3617,26643.9468
57450.2349,28658.4646,54431.2298,42986.3334,37058.7409,39942.3838,5519.4497,50191.9091,43257.5047,55596.2026,1239.5829,-330.314,26640.147
57452.4254,28656.4082,54432.3474,42992.1448,37059.322,39943.7249,5518.5109,50203.3085,43259.7846,55603.3552,1249.1494,-323.2509,26641.3987
57473.0784,28658.9116,54435.3873,43001.7561,37087.0382,39950.5645,5519.0921,50229.1024,43280.2141,55614.9334,1263.6334,-309.3034,26643.4997
57477.7275,28655.6482,54434.8955,43000.415,37093.8331,39948.9999,5519.3603,50239.1607,43286.0702,55618.2414,1262.3817,-307.8729,26645.4667
57463.6906,28653.9048,54431.4981,42993.0389,37072.733,39938.0475,5513.5489,50226.2861,43269.7982,55607.7361,1242.2651,-327.453,26638.94
57444.334,28647.244,54431.6769,42982.0418,37053.8682,39930.8503,5509.6596,50203.4873,43263.4503,55603.2211,1226.4401,-339.4783,26633.1732
57453.7218,28653.0107,54434.0014,42985.5287,37072.6883,39936.7064,5514.13,50217.2112,43266.8924,55609.5243,1232.1174,-333.5774,26637.1965
57475.2241,28661.3256,54438.74,43000.2362,37098.3481,39948.5528,5520.612,50249.5766,43279.1859,55624.9022,1252.3234,-314.6231,26645.2432
57471.7373,28658.241,54436.1472,42994.827,37088.2004,39946.4071,5515.5605,50256.6844,43284.3268,55622.7118,1252.2787,-317.1712,26642.7398
57450.1008,28652.5637,54436.0131,42982.9806,37065.9381,39937.1535,5509.9279,50243.3181,43266.9818,55614.2181,1232.2068,-335.9914,26638.2247
57443.4847,28651.2673,54440.5282,42975.9622,37053.0188,39931.8337,5510.3749,50224.9897,43261.6174,55609.0325,1218.3487,-345.8261,26635.6319
57460.9637,28653.1001,54441.8693,42983.4276,37065.3123,39932.9066,5513.37,50235.5397,43279.0518,55610.2842,1235.649,-329.2859,26640.7281
57481.9297,28657.6599,54445.1326,42995.0505,37092.8049,39938.4052,5518.6898,50263.9711,43296.6202,55621.9965,1257.509,-310.9127,26645.0644
57487.607,28667.45,54445.8926,42997.4645,37099.3763,39942.5179,5518.5109,50272.8224,43299.8836,55623.2482,1257.7772,-312.8797,26645.0644
57474.5536,28672.0097,54448.4407,42997.6881,37083.7301,39945.8706,5518.6898,50260.9313,43292.7758,55620.0743,1245.7073,-322.4909,26643.9021
57455.0629,28660.5656,54446.5631,42987.6745,37063.7029,39938.3605,5515.6499,50230.3541,43282.4045,55617.3474,1231.1786,-334.8738,26638.7612
57456.091,28654.7542,54443.0315,42983.7853,37068.665,39933.8454,5513.2359,50234.0198,43281.1528,55614.8887,1234.1291,-331.3422,26639.2082
57474.4195,28666.7347,54446.3396,43000.0126,37093.5649,39946.7647,5520.5673,50262.7641,43301.3588,55625.394,1254.1115,-314.6678,26644.3491
57481.7061,28672.2332,54446.429,43001.7561,37100.4492,39948.8658,5523.4283,50270.3637,43299.0789,55624.7234,1252.6363,-313.1926,26642.3374
57462.5731,28666.0641,54445.3114,42985.3052,37071.3025,39940.238,5519.7179,50250.2024,43284.6397,55611.223,1233.0115,-326.7378,26635.4978
57447.1503,28659.4927,54442.3163,42980.0749,37049.8449,39937.3323,5518.3321,50219.0888,43274.1344,55602.9975,1219.511,-340.0594,26627.3618
57454.3029,28660.0292,54442.1822,42984.4558,37058.7856,39940.7297,5513.4147,50233.2598,43271.8098,55605.2774,1228.1388,-337.0196,26631.3851
57478.3087,28673.8873,54441.6457,43000.6385,37085.0712,39953.4255,5516.5887,50265.4016,43295.9497,55614.6204,1251.8764,-314.5784,26639.387
57484.8354,28679.9222,54444.7303,43010.1156,37093.4308,39966.3001,5523.6965,50271.2578,43309.4054,55619.5825,1264.1698,-305.0566,26643.0974
57472.4525,28670.2663,54449.9159,43008.7298,37072.6883,39960.8463,5525.0376,50262.5406,43301.4035,55615.6039,1251.9658,-313.1479,26644.9749
57455.7334,28660.208,54451.9275,42997.8669,37051.7671,39951.9056,5525.2165,50247.5649,43289.1995,55608.1831,1235.4702,-323.385,26642.0245
57470.0832,28662.2196,54448.843,43005.2876,37059.6796,39956.4207,5525.887,50247.5202,43292.8205,55611.0442,1240.5664,-319.3617,26644.1703
57490.4233,28666.5112,54447.636,43016.4188,37089.0945,39964.6461,5529.3739,50271.3919,43306.2315,55620.9236,1259.9677,-305.146,26648.2383
57487.7411,28669.9533,54450.3629,43014.586,37093.2966,39961.3827,5528.9716,50286.6358,43310.1654,55624.2764,1265.198,-302.732,26649.7582
57472.8101,28665.7065,54450.5417,43009.9368,37079.1256,39955.169,5527.3622,50280.1538,43299.2131,55622.22,1256.2126,-311.0915,26649.3559
57450.816,28657.4364,54449.2453,43000.3256,37060.8419,39953.4255,5527.1834,50258.0702,43285.9808,55615.8721,1241.5946,-319.1382,26646.629
57468.9656,28656.0506,54449.603,43006.584,37073.2248,39957.1806,5526.7364,50263.4794,43291.6135,55620.7001,1248.166,-313.0585,26647.3442
57490.9598,28657.8387,54449.6924,43014.6307,37096.1577,39952.6209,5527.9434,50291.1061,43308.7349,55627.048,1263.2757,-300.1839,26649.043
57493.5079,28663.1584,54451.5699,43013.3343,37099.5551,39946.8988,5528.6139,50301.6114,43312.5794,55631.0266,1264.3933,-298.8428,26649.6688
57472.4972,28665.4383,54449.3347,43006.897,37077.0246,39944.6636,5533.0843,50282.076,43297.0673,55622.7118,1255.095,-313.4161,26644.215
57457.298,28655.9612,54442.0928,42999.0739,37053.8682,39943.4119,5529.8209,50264.6863,43285.4444,55613.2346,1238.5994,-327.9895,26641.8457
57470.1279,28660.7891,54439.0976,43001.3537,37065.044,39950.341,5526.7364,50272.2412,43297.4696,55618.912,1240.0299,-320.6134,26645.3773
57490.8257,28679.654,54441.9587,43015.48,37098.5717,39961.4722,5532.3243,50303.6231,43318.8379,55627.7186,1259.6995,-299.7816,26650.697
57490.1998,28687.343,54440.6176,43023.929,37105.9477,39967.3283,5534.4254,50316.1401,43319.5084,55632.1442,1268.9531,-296.7864,26652.0381
57474.4642,28688.1924,54443.8809,43018.8775,37092.8943,39966.2107,5533.3525,50308.4511,43303.7281,55627.808,1255.7656,-310.2422,26648.4618
57464.987,28680.1904,54449.9159,43012.3508,37078.4551,39962.4556,5536.6158,50284.043,43287.4113,55624.4552,1240.8793,-320.8369,26647.9254
57483.8072,28683.275,54458.7225,43018.207,37088.8263,39964.1097,5540.9521,50300.315,43308.6008,55630.2667,1259.5654,-309.0799,26653.6474
57503.1191,28688.103,54458.7672,43027.0135,37118.2412,39964.6908,5541.265,50314.9778,43334.3053,55639.4756,1281.1124,-297.2782,26656.9108
57502.8956,28683.4538,54457.6943,43024.4654,37119.9399,39961.2486,5539.5663,50315.2907,43335.3782,55640.4591,1284.6887,-296.8311,26657.7601
57484.3884,28673.5296,54455.0568,43013.3343,37090.6591,39950.1175,5536.1241,50292.8495,43316.8262,55633.0383,1266.3603,-308.454,26655.7485
57464.2718,28663.829,54454.6992,43004.0359,37063.9265,39946.4071,5537.3311,50274.3423,43302.387,55625.394,1247.3613,-317.1265,26650.5182
57470.7538,28666.3771,54454.5203,43012.2167,37067.6816,39955.3478,5540.1921,50292.2237,43310.3889,55631.4737,1252.5469,-311.8515,26651.6358
57496.503,28683.2303,54457.2473,43028.2652,37102.9079,39973.1398,5544.2154,50331.7863,43334.5735,55639.8779,1275.5692,-294.3277,26659.7718
57501.9121,28687.5218,54457.8731,43037.4742,37112.6533,39982.5275,5549.1328,50351.1429,43337.2557,55641.2637,1279.369,-288.9633,26661.8282
57487.4729,28681.0398,54455.4591,43035.0155,37093.1178,39978.1913,5550.0269,50337.553,43330.4608,55635.8099,1264.1698,-296.8758,26656.9555
57479.0686,28673.3955,54454.4756,43031.3945,37076.9352,39975.822,5547.9705,50313.4578,43318.0779,55634.7817,1255.542,-302.9555,26655.972
57484.7907,28674.7813,54456.3532,43035.7307,37084.5795,39978.4148,5546.7635,50313.5026,43323.1741,55637.5086,1265.8238,-295.9818,26656.0614
57509.2882,28678.447,54454.565,43044.2244,37108.7193,39978.5489,5544.7519,50329.4617,43334.4394,55641.4872,1279.6819,-283.8224,26660.2188
57514.3397,28674.5578,54456.0403,43045.342,37111.1333,39973.4527,5540.7733,50325.0808,43329.5667,55642.3366,1281.6489,-285.387,26661.5152
57491.4515,28663.6055,54451.9722,43030.858,37087.5746,39959.9969,5534.1125,50300.2703,43312.3559,55633.083,1270.2048,-299.7816,26656.7767
57468.4739,28658.4198,54447.3231,43017.9834,37062.3618,39956.823,5532.0114,50276.041,43293.2675,55624.0529,1254.335,-316.0536,26650.3394
57478.1299,28663.0243,54450.497,43023.8843,37071.4366,39963.9308,5534.4254,50294.6824,43300.1071,55627.1821,1256.0338,-311.8962,26649.8923
57503.2085,28668.6569,54448.2172,43033.585,37098.0799,39966.2554,5532.2349,50319.0905,43319.1508,55629.7749,1271.4118,-298.9322,26651.6805
57508.9753,28682.6044,54446.6525,43036.8483,37108.0935,39973.0504,5530.1338,50328.7017,43323.3976,55628.8362,1280.129,-293.2101,26653.111
57500.7498,28685.3313,54451.4358,43027.3712,37093.4308,39972.201,5528.6139,50313.0555,43308.6902,55628.702,1266.7179,-306.7553,26651.5911
57485.2824,28676.4801,54454.2968,43017.2235,37065.357,39967.4177,5524.5012,50284.1324,43293.2675,55618.2861,1248.8365,-320.4793,26645.6455
57485.7742,28672.1885,54448.9324,43014.0495,37065.1782,39965.8978,5518.3321,50288.4686,43295.6815,55613.9946,1247.406,-318.9147,26644.1256
57507.7683,28685.2866,54446.8313,43024.5548,37089.4969,39974.2126,5520.6567,50311.625,43318.972,55621.2366,1265.2874,-301.3462,26649.7135
57516.2172,28689.3547,54445.8926,43026.2089,37095.8,39986.9978,5521.1484,50317.9729,43322.5483,55621.0577,1270.92,-296.7864,26650.697
57502.8956,28681.1292,54441.2881,43012.4402,37083.9536,39978.7277,5515.4711,50298.8398,43297.8272,55610.1501,1257.2408,-309.974,26645.0197
57478.0852,28674.2896,54436.639,43002.4713,37057.8915,39971.3069,5513.4147,50277.0692,43282.0469,55605.0539,1244.5003,-323.9214,26642.1586
57486.6682,28677.1953,54441.154,43008.3722,37059.2773,39976.4478,5516.4546,50289.7203,43288.5289,55607.3785,1253.7539,-313.8632,26645.0197
57504.952,28687.5665,54450.6758,43025.2254,37091.1956,39979.7559,5525.3953,50324.4102,43300.8224,55617.9285,1276.3739,-295.5794,26654.1839
57507.053,28683.722,54449.4689,43029.7405,37102.282,39980.9182,5529.4186,50326.9583,43302.6105,55622.0412,1279.8607,-294.4618,26655.2567
57482.4661,28676.1671,54446.3396,43018.1623,37081.0926,39975.1067,5532.1008,50301.8349,43288.6183,55615.5145,1262.0687,-306.8,26649.3559
57448.9832,28666.1536,54447.4572,43005.69,37064.6417,39964.065,5534.336,50279.2597,43268.01,55609.3007,1246.0202,-317.1265,26645.2879
57450.5925,28667.6288,54446.0267,43001.9796,37064.2394,39959.0582,5534.2466,50281.2713,43269.217,55610.9995,1247.3166,-315.0702,26647.3442
57472.6313,28681.9786,54446.7419,43014.1389,37087.0382,39962.858,5539.1192,50305.8583,43280.2588,55621.3707,1267.2544,-300.0498,26654.5862
57470.1726,28688.3712,54451.2123,43019.2351,37100.4492,39964.959,5546.4506,50297.4987,43279.4094,55619.4931,1274.6751,-295.8924,26657.179
57453.4982,28676.4801,54445.8032,43004.93,37082.3443,39954.856,5545.646,50259.2772,43261.1257,55608.4067,1258.3584,-308.4987,26650.4735
57435.6169,28672.4567,54442.2716,42989.7308,37055.0305,39948.9552,5541.9356,50220.0276,43230.1015,55602.3717,1244.3662,-322.5803,26647.6572
57434.0522,28679.9222,54444.9091,42989.5073,37057.7574,39945.2001,5543.7237,50214.0373,43233.4095,55603.0869,1250.267,-318.3335,26652.0828
57455.197,28696.8201,54448.3513,42999.5209,37087.7087,39953.0232,5549.0881,50231.9634,43247.804,55608.5408,1270.2048,-300.8097,26658.2966
57458.9968,28704.5091,54451.257,43005.8688,37093.7437,39954.6772,5554.229,50236.1655,43248.117,55613.9946,1275.3904,-295.8477,26662.5881
57443.3059,28704.7327,54453.671,43001.0408,37078.9021,39950.788,5557.1795,50217.703,43235.0636,55607.0656,1267.612,-304.2966,26661.2023
57422.6528,28707.3702,54455.2356,42990.312,37060.1267,39946.9882,5556.9112,50189.808,43220.7137,55596.6496,1256.1232,-317.1712,26659.0565
57424.7092,28716.2215,54451.7934,42991.2955,37061.289,39945.8259,5558.4759,50193.1608,43217.3163,55598.3484,1257.3749,-316.6348,26655.7038
57442.3224,28727.5761,54451.3911,43007.5228,37084.9371,39958.1194,5568.7129,50219.1782,43225.7205,55606.8867,1281.3807,-298.1722,26663.7504
57452.2018,28732.5829,54458.6778,43018.5646,37097.4541,39960.3993,5575.6867,50236.1208,43235.5106,55609.8372,1294.747,-287.0858,26668.8466
57443.6635,28727.2185,54462.4329,43013.3343,37083.9089,39951.8609,5574.1668,50209.4775,43228.4027,55607.8255,1278.9667,-296.2947,26662.7669
57422.2058,28715.4168,54457.8284,43000.9514,37054.7622,39946.3177,5570.0988,50173.4465,43217.2269,55598.3037,1262.8734,-311.0021,26655.525
57429.716,28718.7696,54458.3648,43007.0311,37060.529,39956.5548,5573.3174,50169.0656,43218.4786,55597.8566,1271.9929,-307.3364,26659.146
57447.5974,28725.2069,54462.2093,43017.9387,37085.2947,39966.926,5577.7431,50188.3328,43231.5767,55607.0209,1295.9093,-292.0032,26666.0303
57452.6489,28727.6208,54465.5174,43025.896,37093.9672,39965.719,5581.2299,50190.5233,43230.4144,55614.844,1299.9326,-282.3919,26668.4443
57448.3573,28720.2448,54465.3833,43024.4207,37077.6951,39961.6063,5580.2017,50172.9995,43222.6807,55611.0889,1288.712,-289.3656,26667.3267
57426.0503,28708.1748,54457.3814,43006.3158,37053.287,39940.9086,5570.7693,50133.7498,43200.1948,55597.1414,1265.4662,-310.3763,26659.8612
57428.0173,28703.7939,54454.2968,43003.9465,37057.668,39934.4265,5564.0191,50131.6488,43204.0393,55598.3484,1267.8355,-307.3812,26657.7154
57458.0133,28711.8405,54459.6165,43019.9057,37085.1606,39945.6471,5566.1649,50158.2474,43218.8362,55604.6963,1282.9453,-296.0265,26662.454
57463.1989,28724.4469,54462.5223,43023.9737,37093.0731,39952.3079,5568.0424,50167.8139,43221.5184,55605.1433,1289.2038,-293.4784,26667.7737
57440.8919,28714.7015,54457.8731,43016.1953,37076.3987,39940.238,5561.0687,50142.1541,43212.4436,55596.5602,1277.8938,-299.3345,26663.5716
57428.062,28700.2623,54456.9343,43009.1769,37049.2637,39931.4314,5559.9064,50114.4379,43193.9811,55591.1064,1259.4312,-308.6329,26657.2684
57430.6995,28698.4295,54453.7157,43004.6171,37048.8167,39931.1185,5557.0006,50108.6265,43192.1929,55587.0384,1259.7889,-304.0284,26656.732
57456.5381,28703.3916,54448.1725,43012.9766,37078.7233,39938.584,5556.5983,50128.8325,43204.5311,55591.0617,1282.5876,-291.869,26659.9506
57463.3777,28705.4032,54451.5699,43012.3061,37084.8477,39944.6189,5558.7888,50136.4768,43216.7351,55607.8255,1288.4885,-289.2762,26663.5269
57445.1834,28700.4858,54453.671,43007.0311,37058.4726,39938.8969,5558.2076,50109.9676,43204.5758,55598.3037,1271.7247,-299.2451,26659.6377
57421.6694,28684.929,54452.2852,42995.9446,37026.9567,39925.7541,5551.9938,50081.0444,43182.6264,55590.2123,1251.5187,-316.3218,26654.8991
57423.3681,28688.3265,54452.7322,42995.6317,37036.0315,39928.4363,5550.0716,50089.3146,43193.9811,55591.1511,1257.6878,-308.8564,26656.3743
57450.2349,28696.3731,54449.7371,43005.3771,37067.5027,39935.1418,5550.7421,50115.6896,43206.2745,55597.7672,1272.3953,-297.9487,26659.9506
57459.2203,28696.8648,54442.5398,42999.5656,37074.6553,39932.2361,5543.6343,50125.7479,43202.9217,55593.4757,1274.0046,-300.4968,26659.0118
57445.3175,28697.6248,54444.0597,42987.7639,37050.6495,39927.1846,5540.9074,50115.9579,43195.1433,55590.8382,1256.3467,-309.5716,26652.7981
57430.0289,28691.411,54445.4008,42983.5618,37025.5709,39922.9378,5542.919,50095.126,43191.9694,55585.8314,1246.8249,-320.7028,26647.9254
57450.5031,28700.5752,54449.8712,42988.5238,37040.0995,39936.4382,5548.1493,50112.6945,43209.3143,55590.4806,1253.8433,-314.3549,26655.3909
57480.3203,28710.41,54447.0549,43001.4431,37071.7496,39953.9173,5552.3962,50137.1026,43231.3979,55604.1598,1272.1717,-295.2218,26663.4375
57485.7742,28702.0952,54440.8411,43003.8571,37077.114,39949.134,5550.161,50139.159,43235.6447,55608.0937,1277.0891,-294.6854,26660.8
57465.3894,28695.6578,54449.7818,42997.5092,37058.7409,39942.3838,5552.2621,50126.9996,43229.9674,55604.4728,1269.266,-299.6027,26658.5201
57440.9366,28689.8911,54451.0335,42990.9378,37034.4222,39928.481,5551.9491,50094.0979,43215.7964,55595.8897,1255.4079,-309.1693,26649.7135
57443.7529,28689.4888,54454.3862,42992.8154,37040.6806,39931.9679,5550.7421,50100.4905,43215.7069,55599.2872,1257.062,-306.3977,26649.6688
57471.7373,28687.343,54455.2356,43001.2643,37070.0508,39938.4946,5547.5235,50124.0045,43224.0665,55602.774,1270.6965,-295.6688,26652.1722
57486.7576,28688.7288,54460.8235,43008.104,37085.8312,39950.8327,5553.5138,50141.1706,43233.4542,55611.3124,1276.6868,-285.4764,26658.833
57469.9491,28688.7288,54462.254,43000.8173,37071.3025,39950.2963,5555.4807,50136.3426,43223.9324,55608.0043,1267.7461,-292.4502,26661.3811
57460.2485,28685.689,54458.1413,42997.8222,37052.1694,39949.4916,5555.7936,50114.7062,43218.3892,55610.2842,1257.3749,-303.4472,26660.2188
57466.0152,28695.5237,54459.4824,43002.7843,37065.0887,39956.9124,5558.8335,50130.8888,43233.7224,55619.8508,1267.5673,-302.1508,26662.7669
57490.8704,28712.6899,54461.5835,43018.8775,37096.2471,39968.2224,5566.3884,50165.6234,43253.3473,55627.8527,1289.8296,-286.5046,26668.7125
57501.6886,28725.5645,54465.1598,43029.5616,37114.5755,39970.7705,5569.3835,50193.7866,43258.1306,55631.2948,1294.3894,-283.5095,26670.0089
57487.5176,28723.0611,54466.635,43029.0252,37094.7719,39963.5732,5564.8237,50174.7876,43238.9975,55623.3823,1279.9948,-291.6008,26662.8563
57465.2553,28714.4333,54465.6962,43019.7716,37063.4794,39952.1291,5558.9676,50145.9986,43224.0218,55609.3901,1268.9978,-303.0449,26657.9837
57472.8101,28712.2875,54463.774,43022.6326,37073.046,39966.0766,5563.0356,50157.9344,43230.2356,55610.7759,1276.9103,-297.9487,26661.694
57507.5895,28722.1223,54461.4494,43033.8979,37097.4094,39977.029,5562.1415,50189.361,43246.9994,55616.7215,1289.4273,-288.9633,26663.9739
57512.7304,28718.9484,54461.3153,43037.2059,37101.5668,39979.4877,5556.8665,50198.7934,43247.1335,55617.8838,1288.5332,-291.0644,26662.6775
57501.5992,28715.8191,54459.4377,43030.9474,37079.3045,39981.8122,5555.436,50182.7002,43247.6252,55618.2414,1276.7762,-298.1275,26662.8563
57488.5011,28705.582,54460.0189,43018.3858,37060.8866,39979.8453,5558.4311,50162.0919,43238.3716,55614.7546,1267.2991,-307.2023,26663.1246
57485.4612,28702.0504,54460.153,43016.8658,37071.7049,39981.9463,5558.2076,50164.8635,43242.082,55613.4135,1271.7694,-299.9604,26666.6114
57510.1823,28711.9746,54465.5621,43037.5636,37108.0041,39994.1951,5561.1581,50197.0053,43263.8079,55623.1588,1294.5235,-282.9731,26673.1828
57512.8645,28711.9746,54463.774,43033.7191,37107.1547,39997.7714,5560.6663,50211.7574,43275.699,55626.6457,1299.3962,-278.5921,26669.6066
57495.743,28705.4479,54460.5106,43021.1127,37090.9721,39990.2165,5556.2407,50196.9159,43265.2384,55617.3474,1282.2747,-295.1324,26660.04
57475.4477,28698.4295,54458.8119,43009.8027,37066.6981,39977.4313,5554.2737,50176.1287,43244.2725,55610.9548,1265.5109,-314.0867,26653.4686
57482.9578,28704.0621,54458.5884,43009.5345,37079.7068,39976.4478,5558.0735,50191.5067,43248.4299,55615.7827,1270.4283,-312.3432,26654.9438
57503.6108,28710.7676,54464.221,43019.861,37108.5405,39977.6101,5560.3087,50215.6019,43264.7914,55619.3143,1285.091,-293.6572,26658.1178
57511.7469,28718.7696,54464.5339,43023.8396,37124.6338,39973.7656,5561.024,50219.5805,43266.0878,55618.6885,1288.712,-290.4385,26658.6542
57493.4185,28713.3157,54462.0305,43018.0728,37107.4677,39964.0203,5556.6877,50196.1112,43255.8507,55611.7594,1279.1008,-299.8263,26655.8379
57464.4506,28701.1117,54458.0966,43003.2313,37073.2695,39947.8376,5550.161,50164.6399,43238.3716,55610.0607,1256.2126,-313.9079,26649.937
57465.3447,28696.7754,54452.0617,43005.2876,37069.425,39945.7365,5545.0201,50164.5505,43237.4775,55606.9762,1256.1232,-311.4492,26649.7135
57491.7644,28703.8386,54455.4144,43021.515,37097.3647,39957.0912,5551.9044,50194.0101,43257.5494,55617.5709,1279.6819,-297.0994,26659.5483
57492.2115,28707.3702,54453.7604,43020.7998,37105.009,39953.649,5550.4292,50207.6894,43259.1587,55618.3755,1283.9735,-295.1771,26658.9224
57471.2902,28699.4129,54453.3581,43006.2264,37082.7913,39946.0942,5545.9142,50189.8527,43248.7875,55615.6039,1269.9813,-301.7485,26653.2451
57450.816,28687.1642,54448.5301,42988.9262,37054.7622,39933.5325,5542.1591,50168.9762,43241.3667,55613.324,1248.9706,-319.6746,26647.0313
57457.1192,28691.9922,54447.0549,42986.1993,37070.3191,39930.8503,5544.9754,50168.4844,43244.2725,55615.9616,1250.4905,-318.9147,26648.0148
57480.9462,28694.4509,54446.2055,42996.1234,37104.249,39943.1437,5547.6576,50194.9936,43258.3988,55620.2084,1263.4546,-307.8729,26649.7582
57491.7644,28697.9824,54450.4523,43000.7726,37107.7359,39950.1622,5554.4972,50204.0684,43260.9469,55628.0315,1271.5906,-299.9604,26657.9837
57478.7557,28698.5636,54453.8051,42995.3635,37091.5532,39946.72,5553.8267,50184.8012,43256.1636,55622.7118,1264.0357,-304.386,26657.4472
57456.6722,28690.8746,54447.9042,42986.1546,37070.9449,39940.0592,5550.3398,50167.4116,43239.3104,55612.0723,1247.3613,-321.2392,26647.7466
57460.6955,28686.8066,54445.3114,42985.4393,37070.0955,39937.824,5546.7188,50167.4563,43239.4892,55609.7478,1247.1825,-321.8204,26647.7019
57477.951,28693.7356,54448.083,43001.4431,37095.353,39946.6306,5551.6809,50194.5913,43256.9683,55619.8061,1266.5838,-302.6426,26655.1673
57481.9297,28697.7589,54451.6593,43014.0495,37114.4861,39948.0164,5558.2076,50207.4212,43267.7865,55629.8643,1277.6256,-289.4551,26662.007
57469.3233,28692.9309,54450.4523,43002.8737,37096.7835,39944.1272,5561.0687,50191.5067,43252.3638,55624.4999,1270.2942,-300.0498,26657.9837
57452.6489,28691.3216,54448.3066,42984.8135,37073.1801,39938.3605,5555.3019,50169.1103,43238.6398,55620.7001,1254.7374,-317.0818,26654.4968
57464.7188,28682.3362,54446.0714,42988.5685,37076.5775,39944.7531,5550.6527,50170.6749,43248.9216,55620.8342,1257.1514,-312.7456,26657.5366
57488.0093,28683.722,54445.0879,43003.9912,37106.9312,39954.5431,5553.9161,50191.775,43261.0363,55625.394,1275.5245,-298.351,26659.2801
57487.6964,28688.997,54445.5349,43007.8804,37114.9331,39954.4537,5556.8218,50198.9722,43267.8312,55627.4951,1276.7762,-295.803,26658.386
57471.1561,28684.1691,54442.9421,43002.0243,37096.6941,39945.7365,5552.9773,50174.2512,43252.2744,55617.8838,1266.4944,-307.6494,26650.5629
57452.5595,28679.0282,54443.8809,42993.8436,37076.0411,39936.5723,5548.5517,50155.4757,43234.4824,55608.1831,1253.441,-320.7922,26646.0925
57448.9385,28668.9699,54446.3396,42992.4577,37077.3375,39940.3721,5547.7917,50155.3416,43240.3833,55613.8605,1256.6596,-314.7125,26645.0197
57467.6245,28674.5578,54441.9587,43006.8076,37100.2704,39942.1602,5548.2388,50177.5146,43258.0411,55616.6768,1276.7315,-298.5746,26646.9866
57476.5652,28675.6307,54442.3163,43015.0777,37109.8816,39945.3342,5551.3233,50195.2171,43262.7797,55619.4931,1284.5993,-298.3958,26652.351
57462.886,28670.4451,54439.187,43004.8853,37097.4094,39943.7696,5548.6411,50189.4057,43257.6388,55612.4747,1272.1717,-308.2305,26651.5911
57440.3107,28666.69,54442.5845,42996.6152,37074.2083,39932.996,5548.3729,50157.5768,43240.2492,55607.8255,1254.9162,-321.8651,26645.3326
57447.8209,28670.8921,54445.982,42995.7211,37072.733,39933.3537,5552.9326,50158.8285,43239.3551,55612.1171,1252.5916,-320.6581,26648.8194
57463.3777,28672.1885,54441.5116,43001.5326,37092.6708,39940.3721,5548.507,50185.9188,43256.4765,55618.2414,1263.9016,-307.8282,26650.8758
57466.0152,28672.1885,54442.2716,43004.8406,37106.5289,39941.3109,5542.6508,50199.6875,43265.7301,55618.4202,1272.1717,-303.5814,26648.283
57452.3807,28671.8309,54438.2483,42992.5025,37089.4074,39939.478,5539.5663,50185.2483,43249.2793,55606.9314,1253.5304,-317.8418,26641.6669
57441.6071,28668.4781,54440.2152,42980.9242,37067.7263,39934.4712,5539.0745,50158.6944,43239.3551,55604.7857,1237.5265,-329.8223,26640.9069
57450.9501,28666.243,54441.6904,42982.4442,37073.94,39938.6734,5543.0532,50165.7128,43242.2161,55604.6963,1243.0251,-324.8602,26639.7893
57475.6712,28676.2565,54440.0811,42999.2974,37096.56,39945.6024,5543.5449,50191.9538,43260.5892,55614.6204,1260.9065,-311.628,26644.2597
57480.7674,28684.0796,54442.1375,43004.6618,37105.5454,39947.5247,5544.3943,50195.9771,43270.2899,55619.359,1269.0425,-306.4871,26647.7913
57483.5837,28684.929,54446.7419,43002.8737,37098.4823,39949.6704,5548.7752,50180.8226,43268.4124,55614.3969,1260.7276,-310.3763,26648.9983
57470.7538,28685.5102,54446.6525,42997.7775,37078.3657,39947.9717,5552.7538,50161.0637,43252.7214,55605.2327,1244.0532,-322.0439,26647.2548
57471.9161,28686.4936,54448.3066,42996.0787,37078.4998,39947.3011,5554.229,50172.6866,43259.6058,55603.4893,1246.646,-321.0604,26648.0148
57484.7907,28697.7589,54449.6477,43006.4052,37104.9196,39953.7832,5555.6148,50203.3085,43275.1179,55614.4416,1264.4827,-303.9837,26650.3394
57493.642,28698.1165,54447.0102,43004.4383,37111.7592,39952.4868,5552.3962,50213.5456,43281.5105,55619.6719,1270.1154,-300.2733,26647.8807
57485.4612,28692.5286,54446.429,42987.3616,37091.6873,39944.7531,5548.2835,50194.7701,43269.217,55613.1005,1256.4361,-313.5949,26642.2927
57461.2767,28681.9339,54446.2055,42973.9505,37067.4133,39932.1914,5543.3214,50171.8372,43257.3706,55607.2891,1238.8676,-327.9001,26638.18
57459.1756,28683.0068,54443.6127,42977.9738,37071.9284,39929.7774,5542.025,50174.7876,43258.5776,55612.7429,1239.5382,-328.8835,26639.5211
57477.2358,28684.8396,54438.6953,42988.1215,37096.6494,39931.342,5539.611,50201.1627,43275.9672,55613.9946,1253.888,-320.6134,26642.3374
57485.2377,28682.4703,54435.879,42993.4859,37101.0303,39932.8172,5541.712,50216.8983,43285.2209,55613.1899,1263.1863,-313.4608,26644.3044
57472.2737,28677.4635,54436.2813,42988.1215,37080.422,39929.0621,5540.0133,50192.4455,43270.6028,55620.0296,1255.8997,-321.1945,26644.8408
57453.3194,28670.6239,54433.3756,42980.1196,37065.5805,39923.4742,5534.4254,50171.122,43250.3968,55609.9266,1238.6441,-334.4268,26637.1518
57454.8841,28674.379,54433.018,42987.0039,37069.2015,39925.1282,5533.4866,50173.5359,43254.7331,55613.1005,1243.6956,-331.2081,26639.1635
57479.7392,28688.4606,54439.5894,43002.516,37100.628,39933.756,5537.0629,50203.6661,43268.77,55624.7234,1260.1465,-315.2043,26648.3724
57484.3884,28685.8678,54436.5942,43004.6171,37109.8816,39940.3721,5535.5877,50222.7992,43275.699,55625.2599,1264.8404,-309.6163,26647.6572
57469.1892,28679.6093,54433.7779,42993.7094,37087.1276,39941.9367,5535.9006,50205.5436,43267.8759,55617.5709,1250.8482,-319.7193,26640.147
57448.5809,28664.7677,54427.9665,42977.2139,37064.1053,39932.6831,5530.2233,50183.4601,43252.9002,55605.2327,1227.3341,-340.5064,26629.1946
57451.4866,28665.1701,54429.1288,42977.3033,37056.0139,39927.0952,5527.094,50179.9285,43253.9284,55606.3056,1230.2846,-336.9749,26628.5688
57477.6828,28672.2779,54431.1404,42986.1099,37082.6125,39931.6549,5527.2728,50206.5271,43268.01,55617.0344,1245.2602,-321.9545,26632.0109
57491.0939,28678.2235,54433.8226,42995.7211,37104.696,39940.8638,5529.5527,50230.3094,43278.113,55615.7827,1253.3069,-317.8418,26633.1732
57479.918,28680.1904,54435.1637,42991.4296,37093.8778,39940.1486,5527.2281,50213.5456,43270.6922,55610.1948,1243.4274,-332.4151,26627.9429
57452.6936,28668.6122,54435.2978,42975.0681,37062.2724,39931.9679,5525.8423,50183.6389,43264.6573,55608.1831,1223.892,-345.6473,26624.009
57450.8607,28663.6949,54436.1472,42972.52,37066.8322,39929.3751,5525.8423,50187.6175,43264.3443,55608.049,1221.478,-343.6357,26622.2656
57485.1036,28678.0894,54440.5729,42992.413,37100.6727,39944.4848,5533.8442,50225.6155,43287.8137,55619.7613,1248.2554,-319.4511,26633.9779
57505.2649,28687.4771,54440.3493,43003.4995,37109.2111,39946.9435,5537.197,50241.1276,43291.3452,55622.98,1263.1416,-311.8962,26640.147
57495.6536,28681.1292,54438.1589,42998.5821,37096.5153,39942.4732,5535.4536,50229.1024,43282.0916,55617.705,1249.5965,-322.625,26639.834
57469.0551,28676.3459,54439.1423,42981.863,37073.7165,39935.0077,5534.8724,50201.5203,43264.9702,55605.948,1230.5081,-338.4501,26635.0955
57474.5536,28683.7667,54444.8644,42990.6696,37082.389,39945.6024,5543.0979,50207.7341,43277.9342,55618.3755,1245.1261,-327.4083,26641.6222
57503.6108,28699.0106,54449.7818,43006.9864,37122.041,39960.6228,5551.9044,50244.078,43301.94,55626.8245,1267.5226,-306.7106,26649.3112
57513.2221,28700.3964,54453.7157,43011.5908,37132.5463,39964.959,5558.2523,50262.4959,43313.4735,55628.2997,1274.2281,-295.8924,26651.5017
57499.5428,28692.5286,54449.4689,43004.3489,37111.7592,39958.9241,5553.782,50245.5533,43305.1139,55624.7234,1260.7723,-308.2752,26644.8408
57477.0123,28680.0563,54448.7089,42992.1448,37086.9488,39948.5976,5546.9871,50213.5009,43288.7524,55618.912,1238.6441,-325.2625,26638.4035
57478.5322,28683.0515,54451.4358,42996.5258,37086.1441,39950.9668,5549.0881,50215.0655,43290.4959,55615.1122,1247.2719,-320.7922,26641.3987
57501.6886,28694.5403,54454.118,43008.7745,37115.7825,39963.752,5553.4691,50243.9439,43304.8904,55622.5777,1264.7957,-303.5814,26646.9419
57521.2687,28697.2672,54452.1064,43012.1273,37126.5113,39964.6014,5551.368,50257.7126,43306.3209,55627.5845,1269.9366,-299.2451,26644.3491
57505.7119,28690.5169,54450.2288,43002.5607,37100.7621,39953.2467,5545.2436,50250.113,43296.0391,55623.2035,1256.5255,-311.1809,26641.5328
57477.4593,28670.6686,54444.9538,42987.0039,37067.7263,39937.2429,5537.0182,50219.4464,43276.459,55614.0393,1235.202,-329.7329,26636.7495
57482.1979,28670.7133,54442.8974,42992.726,37072.1966,39948.1505,5535.3194,50221.0557,43279.5882,55614.4863,1241.2816,-328.6153,26639.4317
57501.9121,28674.9601,54440.9752,43009.9368,37104.1596,39953.1573,5532.9949,50242.8263,43289.1548,55618.8673,1258.5819,-313.9079,26642.4268
57507.1424,28681.9339,54441.3775,43013.8707,37112.9662,39952.3079,5535.1853,50255.8351,43294.4745,55621.3707,1268.2825,-307.5153,26645.1091
57491.8985,28674.6025,54437.533,43006.8076,37096.0683,39947.7482,5531.3408,50245.7768,43290.2277,55617.5709,1257.956,-320.7475,26643.1868
57474.5089,28661.2362,54435.3426,42990.0438,37073.8953,39941.1321,5526.6917,50230.7564,43271.8992,55605.5903,1234.0844,-336.1702,26632.8603
57471.9608,28656.9446,54433.1521,42983.2488,37071.4366,39943.4566,5520.5673,50226.1966,43270.9157,55602.1035,1231.268,-335.4102,26630.9381
57499.0511,28668.7911,54436.8178,42999.4762,37099.1528,39954.856,5526.1552,50256.9079,43293.6251,55614.3969,1257.062,-316.903,26640.5046
57516.9772,28678.2682,54441.0646,43014.0495,37118.1071,39963.2603,5532.369,50269.6037,43314.0993,55623.6953,1270.3836,-300.1392,26649.4006
57506.0695,28677.687,54437.3095,43006.2711,37099.8234,39957.9406,5532.5478,50261.1995,43303.1023,55619.6719,1257.4196,-308.9458,26646.5843
57486.1765,28676.5248,54435.8343,42992.8154,37069.425,39950.5645,5529.7762,50246.045,43288.3054,55610.1501,1234.889,-326.2013,26637.2859
57485.64,28680.861,54436.6837,42994.1118,37070.7661,39951.7268,5526.7811,50243.0052,43284.8185,55610.1948,1234.0844,-327.4977,26636.1684
57517.1113,28684.8843,54438.9188,43007.5675,37104.5619,39959.684,5527.9881,50270.9895,43298.4978,55614.1734,1254.2903,-315.7854,26641.7116
57520.3747,28681.621,54436.7731,43015.3012,37113.145,39962.0533,5526.1999,50277.0245,43298.0508,55612.6088,1260.37,-310.3763,26641.3987
57504.8178,28682.8727,54440.9752,43009.9815,37092.7602,39959.684,5526.9599,50262.9429,43286.3384,55613.2793,1252.681,-316.9477,26640.2811
57487.7411,28678.5811,54437.9354,43002.3819,37069.9614,39952.8891,5527.854,50234.1092,43274.9838,55611.6253,1238.3759,-327.4083,26638.9847
57484.8354,28676.3012,54435.6555,43002.1584,37072.5542,39954.5878,5528.0775,50237.8196,43282.4045,55613.0558,1243.785,-324.0556,26637.3754
57509.6011,28683.7667,54435.7449,43010.3391,37100.7174,39967.7306,5528.7927,50267.7262,43291.4346,55616.6321,1260.9959,-315.6066,26637.3754
57517.2007,28690.6064,54435.4767,43008.551,37108.7193,39961.0251,5525.8423,50278.6338,43298.8107,55617.9732,1262.784,-313.0585,26635.6319
57501.018,28682.4703,54430.2911,43003.4548,37091.1062,39953.9173,5523.6965,50265.4463,43296.9332,55614.6204,1248.7471,-322.2674,26631.5639
57481.7955,28676.2565,54427.5194,42990.312,37063.9712,39947.5247,5521.372,50235.8079,43289.3336,55606.3056,1232.6539,-334.1585,26627.6747
57491.9432,28679.1176,54435.2531,43000.1467,37072.733,39951.6821,5527.0493,50246.6708,43292.2393,55613.5476,1238.0183,-324.592,26633.2626
57500.2134,28678.0894,54434.4485,43008.9086,37092.0897,39954.1408,5526.5129,50273.4035,43296.7097,55614.1287,1249.82,-314.489,26633.7991
57505.7566,28682.8279,54431.3192,43016.4635,37106.0818,39957.3147,5528.8821,50282.7466,43302.834,55622.2647,1257.1514,-309.7504,26632.6815
57506.7401,28687.4771,54436.8178,43012.1273,37092.3132,39959.5946,5533.3078,50275.4152,43299.0342,55624.187,1250.0882,-317.2606,26635.1849
57491.3621,28679.5199,54433.4203,43000.0573,37066.7875,39952.755,5529.9997,50249.3978,43283.2986,55613.5923,1233.9503,-328.213,26631.6086
57490.1551,28674.9601,54437.8459,42997.0175,37069.2462,39953.3361,5532.9502,50255.7009,43297.5143,55616.2298,1241.7287,-317.9312,26637.5989
57503.8344,28681.9339,54441.601,43008.5063,37099.9575,39960.5781,5535.6771,50285.5182,43315.6192,55625.3493,1260.37,-302.3297,26643.7232
57508.3494,28680.414,54438.5612,43018.5646,37108.4958,39963.305,5535.543,50297.3646,43312.3559,55626.7351,1266.8073,-304.5648,26644.4385
57493.1949,28673.172,54437.7118,43011.9932,37096.0236,39953.649,5533.7995,50279.5279,43306.2762,55622.4436,1254.4692,-315.3384,26643.7232
57469.4127,28661.0126,54435.119,43005.5112,37071.6602,39942.652,5531.5197,50253.4658,43292.4628,55613.1899,1241.371,-328.1683,26640.9963
57474.3301,28660.3421,54433.1521,42999.0292,37071.6602,39942.2497,5534.1125,50255.7904,43297.8272,55620.3872,1242.131,-330.2246,26639.8787
57491.7197,28664.9466,54428.0112,43003.9912,37093.4308,39947.1223,5534.7383,50272.1518,43310.2101,55627.3162,1257.2855,-315.7407,26641.8457
57501.018,28666.3771,54426.3572,43014.273,37106.8418,39942.5179,5534.8724,50282.2101,43306.008,55627.7186,1262.337,-313.5502,26638.5376
57492.882,28665.6618,54432.4815,43007.2546,37096.113,39944.2613,5533.0396,50265.044,43302.0741,55620.9683,1251.2952,-317.0818,26632.3686
57478.3087,28664.9019,54433.5991,42995.0953,37069.6932,39941.7579,5531.2067,50240.0547,43290.9876,55611.0889,1233.0562,-332.5045,26627.8088
57475.7159,28663.0243,54432.5709,42994.6482,37071.4813,39947.167,5528.7033,50244.8827,43292.3734,55611.2677,1237.9736,-332.1022,26629.1052
57492.3903,28673.172,54435.3426,43008.6404,37100.7174,39960.8463,5534.2466,50275.0576,43314.5911,55618.912,1258.2242,-315.5172,26636.3025
57502.225,28673.5296,54437.0413,43020.4868,37102.6844,39964.1991,5539.1639,50293.9224,43313.3841,55620.3425,1263.0522,-310.6445,26637.2859
57500.8839,28667.8523,54434.4038,43023.3479,37086.6358,39956.4654,5537.3758,50273.2247,43300.2859,55618.3755,1253.8433,-316.0536,26634.6484
57487.16,28662.0855,54436.2813,43017.6258,37063.7923,39950.2069,5536.7053,50248.0119,43287.0537,55611.8935,1239.0912,-325.0837,26634.1567
57479.7839,28663.6949,54444.1044,43020.5315,37071.3919,39949.9834,5540.5945,50246.3579,43288.5289,55612.9664,1245.7073,-320.1216,26635.9448
57494.4019,28664.1419,54441.6457,43022.0068,37091.2403,39953.8726,5536.9288,50262.8088,43301.8953,55614.531,1257.3302,-310.0634,26637.0624
57500.7498,28664.0078,54440.7517,43023.1243,37108.3617,39954.9007,5536.0794,50276.801,43309.9419,55623.1141,1263.3651,-301.4803,26639.8787
57490.1104,28659.9845,54442.6292,43011.9485,37097.8117,39948.1952,5537.5546,50271.2131,43307.6173,55622.0412,1249.1494,-314.2208,26638.0459
57465.3447,28651.6249,54439.3212,42999.6997,37073.4036,39943.0543,5535.5877,50255.3433,43294.4745,55614.3075,1229.3905,-330.627,26634.6931
57468.4292,28660.4762,54442.1375,43004.6618,37075.6388,39950.5198,5538.8063,50264.6863,43296.8438,55621.1472,1239.6723,-321.5969,26640.9963
57491.9432,28665.8853,54450.5417,43016.7317,37104.4278,39961.9639,5546.0483,50294.5036,43318.7932,55634.4241,1260.2359,-303.3578,26648.8194
57506.1142,28674.9601,54451.9722,43014.6754,37115.3355,39965.0931,5546.54,50303.3996,43322.3695,55636.5699,1269.0872,-295.1324,26650.1158
57488.8587,28670.9368,54448.4407,42997.5092,37092.4026,39948.5081,5539.2981,50289.8097,43315.8427,55629.3726,1253.3516,-309.5716,26645.7796
57465.5682,28659.3139,54447.4125,42988.2556,37065.044,39936.7064,5532.0114,50255.7904,43292.1499,55617.6603,1231.4916,-326.0672,26636.0343
57463.8247,28647.3334,54443.5233,42990.1779,37066.1169,39934.4265,5526.7364,50244.1674,43290.4065,55615.5145,1232.8774,-325.352,26634.7378
57488.2776,28653.4131,54438.9188,43000.4597,37081.4502,39935.3653,5527.7199,50267.8603,43308.2432,55620.7001,1250.2223,-315.4278,26638.4929
57505.399,28665.2595,54439.0082,43014.3178,37097.007,39940.2827,5531.4749,50281.0031,43304.7563,55623.8294,1260.5488,-307.6494,26639.9682
57489.4398,28666.1536,54436.8625,43009.1321,37090.3909,39939.3439,5529.1504,50261.3783,43290.7641,55617.0344,1252.9939,-316.9924,26635.7213
57465.8364,28652.966,54434.0461,42991.3402,37053.8235,39937.6452,5520.5673,50228.6553,43272.1227,55599.2424,1231.4916,-338.8524,26625.3054
57469.2339,28655.6035,54439.8129,42991.2508,37052.7506,39942.0261,5524.0095,50235.6738,43276.459,55602.4164,1230.5975,-332.5045,26629.3734
57491.7644,28664.4101,54443.568,43006.8076,37081.0032,39951.9056,5524.0989,50266.2957,43301.1353,55612.4747,1251.2058,-315.1596,26641.041
57502.4486,28664.0972,54442.808,43011.3226,37089.1392,39956.4207,5520.7014,50278.8574,43312.5794,55616.9003,1265.8685,-310.9574,26643.6785
57495.5195,28658.4646,54442.0928,43000.6385,37072.0178,39954.5878,5515.4711,50277.6057,43302.5211,55613.5923,1250.0882,-319.6746,26639.4764
57476.7888,28650.3285,54442.1822,42989.3285,37039.8313,39947.3011,5513.5041,50258.0702,43285.3997,55604.6963,1229.3905,-329.2859,26633.4862
57479.4263,28652.8319,54439.6341,42991.0272,37039.2054,39952.6209,5515.4264,50249.7107,43290.6747,55605.3668,1229.2117,-325.2625,26634.7826
57499.6322,28659.1351,54437.9354,43002.3372,37067.771,39962.1874,5520.5673,50275.0576,43304.8457,55614.3969,1248.3895,-308.7223,26637.7777
57512.1939,28667.897,54440.3046,43007.3887,37089.2733,39966.3001,5521.2379,50292.6707,43309.1372,55619.1355,1258.6713,-301.7932,26640.4599
57498.917,28669.3275,54442.1822,42998.895,37073.8059,39962.4556,5521.4167,50281.2713,43305.9633,55615.738,1246.0649,-311.8068,26638.7612
57475.3135,28661.1468,54442.4057,42989.552,37047.2521,39953.649,5521.059,50259.1431,43286.3832,55605.0539,1229.3458,-327.5424,26634.4249
57468.608,28661.5044,54440.8411,42994.6482,37051.633,39954.5431,5523.8754,50256.2374,43283.2092,55603.0422,1237.8395,-321.6863,26636.0343
57484.3436,28668.3887,54443.568,43008.5957,37083.596,39960.8463,5530.8491,50289.0497,43297.559,55613.5923,1260.6829,-304.7884,26642.9633
57492.3903,28671.6521,54442.7633,43012.619,37092.0897,39962.6344,5533.9336,50292.4919,43297.0673,55615.2016,1266.1815,-297.6358,26642.7398
57477.2805,28671.6521,54444.4174,43001.8008,37071.839,39957.4935,5533.3078,50272.5989,43282.9857,55618.4202,1250.7588,-308.4987,26640.6387
57456.6275,28668.3887,54441.7351,42990.5802,37048.5038,39946.4518,5532.0114,50244.391,43252.4085,55609.6137,1232.6092,-324.9049,26635.4978
57448.2679,28670.9368,54441.8693,42988.7921,37052.7953,39943.5461,5532.5478,50236.3443,43249.1899,55603.0422,1236.096,-327.3636,26640.1023
57469.9491,28672.9932,54444.8644,42997.1963,37083.6407,39944.2166,5534.336,50253.3764,43257.5047,55604.4281,1252.0999,-316.3218,26644.4385
57481.572,28675.6754,54441.7351,42999.2974,37088.7369,39940.4615,5536.3476,50252.4823,43254.1072,55606.6185,1255.3185,-313.9973,26643.8574
57458.1027,28681.1739,54438.2483,42989.0603,37066.9663,39925.8882,5531.2067,50212.2492,43227.3299,55598.5272,1235.4255,-325.9778,26633.352
57436.5556,28680.3246,54441.1987,42973.6376,37037.5961,39913.7735,5531.4302,50179.3921,43209.9402,55601.3882,1223.4002,-337.2431,26629.2393
57433.337,28683.1409,54442.9421,42972.4753,37035.9868,39917.7969,5535.23,50167.3669,43217.3163,55599.4213,1229.3011,-332.4598,26632.5027
57452.7383,28701.4693,54443.7468,42987.9874,37070.5426,39928.6151,5539.7004,50185.7847,43228.4921,55602.9975,1253.888,-312.6562,26640.7728
57460.5614,28709.1136,54444.8197,42999.5656,37092.2238,39932.4149,5547.5682,50206.1695,43231.4426,55606.7526,1264.1698,-305.3248,26644.3491
57438.0308,28693.7356,54438.6953,42983.7853,37069.1568,39919.8979,5543.0532,50179.6603,43214.8576,55593.1628,1244.7238,-320.6581,26635.3637
57407.3195,28681.1292,54433.9567,42963.8922,37033.7963,39906.9339,5535.9453,50139.6954,43188.5719,55579.7964,1220.5839,-342.0264,26624.9925
57407.8113,28686.4042,54431.0957,42969.0778,37041.1724,39914.757,5537.4205,50128.9666,43181.4641,55582.0316,1221.1204,-340.3723,26624.6349
57434.231,28693.6015,54427.9665,42976.5433,37063.39,39920.8367,5534.2913,50144.881,43195.9927,55586.0996,1244.3662,-325.3073,26628.4347
57444.0211,28697.4907,54431.2298,42987.9427,37075.7282,39921.5072,5538.4934,50143.8081,43210.0296,55584.2221,1256.749,-313.0138,26633.5756
57431.37,28702.274,54438.6953,42990.8037,37071.7049,39922.5801,5543.5002,50133.2581,43206.7662,55583.6409,1249.5965,-315.4725,26636.7048
57412.9522,28694.2273,54436.6837,42977.3927,37045.2404,39912.8795,5540.2368,50102.6809,43184.7274,55574.9685,1234.0397,-332.7727,26632.458
57418.6295,28691.8133,54437.4883,42976.4092,37030.7118,39911.9407,5539.7898,50086.5877,43181.4641,55575.2814,1234.5314,-332.1916,26629.3287
57436.5556,28694.3167,54440.4835,42987.898,37057.3997,39920.2555,5540.7286,50112.5604,43198.809,55582.7469,1251.2058,-317.8418,26636.3472
57451.0396,28692.0369,54442.0928,42992.2342,37070.3638,39921.9543,5541.1309,50129.2795,43200.2842,55584.1774,1263.0969,-311.8515,26643.1868
57443.2611,28689.4888,54439.6788,42986.7804,37051.633,39914.6676,5538.6275,50116.7625,43196.7527,55580.3329,1257.6431,-319.2723,26640.9963
57423.1893,28683.9455,54440.5282,42978.8679,37028.4766,39905.861,5539.0745,50083.1455,43182.537,55576.6672,1242.4886,-330.627,26637.5095
57415.2768,28677.9106,54439.5,42977.1692,37019.9829,39904.9222,5539.5216,50062.8054,43174.8927,55567.2348,1238.4206,-332.5492,26635.6319
57442.6353,28685.0631,54440.8411,42991.7872,37046.8944,39909.2138,5541.1309,50073.9366,43195.188,55577.6507,1255.2738,-315.9195,26642.6504
57466.0599,28692.5733,54445.4008,42999.2974,37061.6019,39911.2701,5543.4555,50096.4224,43207.6603,55581.3164,1268.8637,-304.1178,26647.2101
57455.0629,28683.722,54446.5631,42991.0719,37047.1627,39906.4869,5542.472,50085.1572,43206.498,55582.881,1261.13,-312.9691,26647.2101
57435.3933,28678.6705,54446.8313,42973.1458,37014.2162,39903.5364,5539.1192,50058.6927,43188.3931,55576.9801,1238.51,-328.7494,26642.6057
57439.4614,28669.8192,54446.876,42972.1624,37010.3717,39903.4023,5539.7004,50048.5003,43185.1298,55572.7333,1238.4206,-327.453,26642.7398
57462.7966,28676.6142,54445.8926,42983.0253,37035.1821,39909.8843,5540.818,50070.852,43194.9198,55582.7916,1257.1067,-309.3034,26649.8476
57469.5021,28680.5928,54445.5796,42993.0836,37049.1296,39910.4208,5539.9239,50088.1523,43198.362,55587.2619,1267.2991,-302.285,26650.3394
57460.6061,28670.2663,54440.8858,42983.07,37035.5844,39900.7201,5534.0677,50071.2097,43194.2493,55582.9704,1254.8715,-314.2655,26644.0362
57442.9929,28659.9398,54433.465,42961.657,37001.6992,39887.3985,5527.9434,50036.4304,43170.4223,55571.0346,1230.0164,-334.8738,26632.1898
57446.3904,28660.1633,54441.5116,42962.0594,37001.6545,39893.8358,5528.301,50040.9007,43178.3795,55571.2134,1231.0445,-329.7329,26634.6484
57468.2504,28672.6356,54446.9208,42980.656,37036.2103,39907.2915,5534.1125,50068.5275,43196.5739,55581.2269,1249.2836,-309.661,26641.7563
57480.9909,28678.4917,54445.5349,42984.6793,37049.9343,39915.1593,5535.4089,50082.5644,43208.7779,55588.0219,1260.37,-302.3297,26642.9633
57471.3796,28678.9387,54446.0714,42976.9009,37033.9304,39910.1526,5536.437,50078.3622,43203.9499,55588.2454,1251.0717,-310.8233,26642.1139
57453.4982,28672.5014,54441.8246,42963.6687,37009.9247,39899.6025,5535.3642,50066.5158,43185.1298,55579.5282,1233.5479,-330.5376,26635.0955
57446.7927,28672.2332,54442.7633,42964.2498,37012.5175,39898.172,5535.0065,50075.233,43187.7226,55585.5632,1233.1009,-329.7329,26639.2976
57470.1279,28675.8542,54446.6078,42975.8281,37046.4921,39902.9106,5539.0745,50102.8597,43217.048,55600.5388,1255.6762,-312.075,26649.2665
57481.8403,28675.5413,54446.8313,42983.5171,37055.4328,39906.0845,5539.0298,50117.5672,43225.7205,55600.0024,1263.8122,-306.9341,26648.3724
57471.8267,28672.412,54445.6244,42983.3829,37045.0169,39900.9436,5538.0017,50095.9754,43212.9353,55593.0734,1257.4196,-315.1149,26641.9798
57452.6489,28664.4548,54446.2502,42970.6872,37024.7662,39895.6239,5536.9735,50066.1135,43194.9198,55582.6128,1241.2816,-328.6153,26635.319
57452.8277,28660.208,54446.3843,42966.3509,37024.2745,39894.1487,5535.9453,50058.5586,43199.2561,55586.5914,1240.9687,-332.5492,26639.9682
57479.5157,28667.2711,54446.8313,42981.4607,37049.1743,39906.4869,5536.5711,50075.8588,43216.4222,55595.5321,1258.4478,-313.9079,26644.1703
57492.6585,28674.5578,54447.5913,42993.3071,37072.1519,39914.757,5538.9851,50104.7373,43232.1131,55603.3999,1271.3224,-300.0945,26649.7135
57481.0356,28676.4354,54442.9868,42989.2391,37057.2656,39911.0913,5536.3923,50099.4176,43225.497,55602.4611,1261.3088,-305.2801,26647.3442
57463.7353,28673.7531,54441.2881,42981.6842,37034.8692,39909.7502,5536.0347,50078.6752,43216.1093,55593.7439,1244.3662,-321.6863,26642.9633
57462.4389,28672.1885,54443.0763,42986.5122,37036.0315,39912.5665,5541.7567,50081.6256,43217.2269,55596.1579,1244.5003,-321.8204,26645.6902
57480.0074,28686.4489,54444.6856,42999.5209,37065.7146,39923.2954,5549.8034,50118.193,43227.2851,55603.0422,1264.0357,-308.1858,26650.4735
57490.7362,28692.618,54442.2716,43006.8076,37080.9585,39928.9727,5554.3631,50135.5827,43241.322,55606.2162,1277.8938,-298.2616,26652.0381
57485.9083,28695.8367,54440.7964,43002.5607,37068.2627,39928.481,5553.5585,50118.9083,43235.0636,55598.3484,1270.5624,-302.9108,26650.0264
57473.9724,28692.3498,54441.0199,42991.206,37049.219,39925.1729,5548.4176,50093.472,43225.3182,55585.7867,1251.0717,-320.8816,26641.6222
57468.6974,28685.0184,54434.3591,42985.8416,37045.4639,39928.8386,5538.8063,50090.7451,43216.1987,55579.8858,1243.8297,-327.7659,26635.0508
57483.4049,28688.4606,54433.0627,42997.9563,37071.839,39940.2827,5536.2135,50123.9151,43227.7769,55587.9325,1258.5819,-310.5104,26639.8787
57498.917,28693.0203,54437.3542,43002.9184,37085.8312,39948.9999,5535.8112,50145.3727,43240.7409,55601.3435,1267.0755,-302.8214,26645.6455
57486.8917,28686.4042,54435.7449,42993.0836,37066.2063,39945.5577,5529.1504,50134.778,43230.8167,55592.0899,1257.6431,-317.2606,26639.834
57466.0152,28678.3129,54436.1919,42980.2537,37040.4571,39942.3391,5527.0046,50113.0968,43218.9703,55581.8975,1244.2321,-326.3801,26636.7495
57463.78,28673.6637,54433.018,42976.5433,37028.9683,39937.6452,5524.9482,50109.61,43222.1889,55580.3329,1233.9503,-327.6318,26634.0673
57479.2027,28671.8756,54428.8158,42984.724,37057.0421,39939.2545,5524.7247,50127.2231,43233.7672,55581.2269,1247.7189,-317.0371,26634.7826
57486.1765,28674.6472,54431.0063,42994.9611,37079.5727,39941.9367,5524.5012,50154.1346,43245.1665,55589.363,1256.9726,-315.249,26637.4201
57477.3252,28677.687,54435.5214,42987.451,37070.3191,39935.8571,5523.9201,50143.0482,43236.9411,55592.2687,1249.5518,-320.9263,26634.9167
57456.091,28669.5063,54432.9286,42971.6259,37046.1345,39928.6598,5524.7247,50127.2231,43221.6078,55587.9325,1236.4089,-333.3539,26629.9993
57454.5264,28666.9582,54432.0345,42972.4306,37043.3182,39930.8503,5527.2728,50133.884,43223.7983,55589.6312,1240.7005,-327.006,26632.0109
57485.3718,28676.793,54434.0461,42985.3499,37067.6368,39936.5276,5535.0065,50163.88,43241.8138,55596.5155,1259.923,-309.661,26638.8506
57497.5759,28682.3809,54430.2464,42991.3402,37090.2568,39939.1204,5535.4983,50175.5476,43251.4697,55595.7556,1264.6168,-302.3297,26640.8622
57482.4661,28680.9951,54432.258,42984.0088,37078.2316,39931.9232,5534.1125,50167.188,43245.7924,55593.6545,1256.3914,-307.4259,26634.7826
57456.091,28672.412,54434.1356,42969.7037,37052.7506,39917.4839,5533.0843,50146.088,43231.8896,55590.6594,1239.4041,-320.1663,26631.2063
57455.5099,28679.1623,54434.3591,42966.5297,37053.1976,39916.5004,5534.023,50137.8626,43234.2142,55590.6147,1235.6043,-327.453,26631.7427
57483.0472,28691.1428,54440.7517,42981.5501,37080.9138,39921.239,5536.1688,50162.0919,43251.738,55607.5126,1253.3963,-313.8185,26638.7165
57496.8159,28701.4693,54441.7351,42988.3897,37096.1577,39922.9378,5538.7616,50179.258,43261.081,55616.5427,1264.2592,-302.8661,26643.008
57488.1881,28702.8104,54441.8246,42981.6395,37079.0362,39920.2555,5536.75,50167.188,43259.1587,55609.9713,1255.4079,-307.4259,26640.2811
57468.4292,28696.4178,54439.3659,42969.7037,37046.9391,39909.7502,5536.6158,50142.3776,43243.3784,55601.4776,1237.7501,-325.2625,26633.1732
57462.3495,28698.2954,54438.8294,42970.2401,37051.4095,39911.5831,5539.8345,50141.3047,43246.1053,55601.8353,1234.9784,-326.9166,26637.4648
57483.986,28710.9017,54441.9587,42981.863,37084.5795,39923.0719,5541.3544,50162.4048,43253.7943,55608.7196,1253.0833,-309.661,26646.0031
57501.778,28717.2943,54448.3513,42990.3567,37096.7388,39933.2643,5545.1989,50178.2745,43266.3113,55616.9897,1263.6781,-299.6922,26648.9089
57498.3805,28712.2428,54455.2356,42981.9077,37087.664,39932.996,5543.0979,50170.362,43259.8293,55613.0558,1251.9658,-307.1576,26645.1091
57471.7373,28701.1564,54453.5369,42968.4967,37063.4794,39920.9261,5536.5711,50139.6507,43243.7807,55609.3901,1231.7151,-320.4346,26636.3025
57467.9375,28691.5898,54447.8148,42966.038,37050.9624,39914.8017,5531.9667,50131.7382,43235.6894,55605.5456,1224.9202,-325.0837,26634.0673
57482.8237,28691.9922,54445.4008,42976.5433,37073.6271,39922.7142,5532.4137,50151.0948,43252.5873,55609.7478,1245.8414,-311.7621,26639.1635
57488.7693,28692.2157,54444.3727,42979.3596,37085.1159,39918.1545,5530.5809,50160.5719,43265.7748,55612.2512,1255.8103,-303.2684,26640.0576
57476.1629,28694.9873,54443.2998,42972.1177,37080.1538,39911.4043,5533.3525,50161.019,43255.2695,55608.9431,1248.5683,-310.7786,26638.3588
57462.0813,28690.0252,54444.5515,42964.9204,37055.4328,39911.0019,5532.4584,50135.7168,43239.7127,55601.7458,1232.7433,-324.9496,26638.3141
57463.9142,28680.6822,54447.9489,42965.6804,37048.9061,39917.9757,5533.7995,50123.6022,43237.4775,55602.1929,1229.614,-329.1965,26638.3141
57478.8004,28681.2186,54446.8313,42974.5317,37075.3258,39922.8036,5529.5527,50142.6458,43251.2015,55605.8139,1250.7588,-315.6066,26639.6552
57494.089,28684.3032,54445.6691,42983.9194,37096.2024,39923.0719,5528.9716,50161.2425,43258.8011,55606.3056,1261.577,-304.9672,26641.2199
57481.7061,28679.6093,54445.4455,42980.8795,37085.7418,39918.2439,5531.0279,50159.4543,43254.4649,55612.4747,1255.2738,-307.3812,26639.7893
57457.9686,28668.6569,54442.5398,42973.1011,37056.5057,39908.6326,5530.4468,50130.7994,43237.7011,55603.9363,1237.1242,-324.592,26636.4813
57447.9103,28669.1487,54439.9023,42969.9719,37046.805,39911.5831,5529.1951,50126.0608,43236.9411,55595.3085,1231.4916,-327.2742,26634.8273
57468.9656,28679.3411,54442.0481,42980.8795,37076.9799,39924.4577,5533.8442,50155.2522,43247.6699,55600.7177,1250.6247,-313.1926,26639.387
57481.9297,28679.207,54443.6574,42982.3548,37088.7816,39924.86,5533.3525,50159.812,43257.5941,55605.2774,1255.6314,-308.3646,26637.7777
57472.5419,28676.3459,54443.7468,42977.8397,37077.0693,39918.1992,5531.162,50154.1346,43256.3871,55608.2278,1247.406,-312.2091,26637.5989
57459.0415,28667.8076,54444.8644,42972.6094,37054.1811,39913.4159,5532.0114,50138.846,43247.9829,55606.1715,1233.995,-323.2509,26638.3141
57452.4701,28661.3703,54441.4222,42964.6969,37044.3463,39904.5646,5523.1601,50136.1638,43244.1831,55604.6069,1222.5509,-334.695,26633.352
57473.2572,28667.4947,54440.0364,42977.8844,37069.7379,39911.449,5524.8588,50153.5535,43256.7,55606.5738,1239.7617,-326.2013,26635.2743
57488.9481,28675.1837,54440.5729,42989.5967,37084.356,39917.4839,5529.8209,50169.1997,43267.5183,55609.7478,1253.3963,-317.1265,26638.8953
57477.6381,28676.9718,54433.465,42978.7785,37067.1451,39911.5384,5525.5741,50156.2804,43261.3045,55603.9363,1244.9473,-329.107,26634.4696
57461.9919,28671.6074,54435.2084,42965.9933,37045.8215,39906.8445,5523.6518,50127.6702,43249.1452,55597.6331,1233.235,-340.6852,26631.698
57466.0599,28666.7347,54437.2648,42964.2498,37045.2851,39908.3197,5525.3506,50131.7829,43245.7924,55596.6496,1232.0727,-340.5064,26631.6086
57485.8189,28673.2167,54435.3873,42973.3694,37066.3851,39919.2274,5526.8258,50150.5136,43259.7399,55605.2774,1244.0085,-326.8719,26634.5143
57501.9121,28680.5928,54434.0909,42980.4325,37085.5182,39927.6763,5528.4798,50169.2891,43280.3035,55613.5029,1257.5984,-312.5221,26638.8506
57500.6604,28682.1574,54435.6108,42978.555,37082.5231,39923.0272,5533.4866,50166.741,43279.0518,55613.4135,1250.2223,-317.8865,26639.6105
57482.9131,28677.2847,54438.6059,42965.5463,37052.6165,39916.5452,5535.7665,50147.8314,43262.735,55607.2444,1226.9318,-331.8787,26636.3919
57479.471,28678.447,54442.4057,42963.7581,37043.5417,39913.8629,5538.1358,50145.2833,43262.0645,55611.2677,1228.3623,-327.2742,26639.6105
57504.7731,28695.2108,54448.4407,42980.656,37072.5542,39927.4081,5543.8578,50172.6866,43285.4444,55629.909,1253.7539,-305.0566,26650.2053
57517.4242,28702.9445,54447.6807,42991.6978,37092.3132,39933.8901,5544.6625,50198.6146,43297.2461,55637.5533,1267.0308,-295.5347,26652.9769
57506.9636,28701.7375,54452.1958,42995.3188,37084.9818,39935.3653,5547.4341,50195.2171,43294.1169,55633.7982,1266.1368,-302.8214,26653.9603
57488.4564,28692.8862,54453.4028,42982.9806,37064.8205,39923.0272,5544.0813,50175.0559,43275.2073,55622.533,1248.0319,-320.0322,26646.2266
57485.5953,28689.1758,54452.3299,42972.3859,37059.9031,39919.3615,5544.4837,50164.7294,43267.3842,55618.6438,1245.4391,-322.2674,26643.9021
57499.4534,28702.2293,54451.704,42979.9855,37084.6242,39926.3352,5548.7305,50198.6146,43285.3997,55623.1588,1258.9842,-307.6494,26646.1819
57511.434,28704.4644,54451.2123,42989.7755,37099.0187,39930.0009,5551.3233,50222.3074,43298.6319,55630.1773,1267.6567,-297.6805,26651.0546
57498.2464,28694.1379,54446.5631,42982.7124,37084.7583,39924.7259,5545.7354,50204.2919,43289.1995,55622.8459,1254.335,-308.8564,26645.6902
57475.09,28680.3693,54441.8693,42965.591,37052.0353,39910.7784,5534.6489,50183.5048,43273.598,55611.2677,1232.4303,-328.7047,26636.6154
57469.2339,28680.0116,54441.5563,42964.6075,37038.8925,39910.5549,5530.8491,50179.7944,43271.4522,55610.8207,1233.9503,-330.8505,26636.6601
57480.0074,28681.4868,54436.5048,42968.2732,37058.115,39913.9524,5527.9434,50195.9324,43283.388,55613.5476,1247.0931,-316.6348,26641.354
57501.8674,28685.0184,54433.8226,42974.9787,37086.8593,39915.5617,5527.6304,50212.875,43298.1849,55621.1472,1256.4361,-306.7106,26642.7845
57492.435,28680.5481,54432.6603,42969.5249,37078.4551,39912.5665,5523.6965,50197.6758,43295.8603,55615.5145,1245.8861,-321.2839,26637.1965
57468.5186,28668.9699,54431.3639,42953.3869,37051.186,39899.1108,5521.2379,50173.5359,43274.4473,55604.6963,1223.4896,-337.8242,26629.0158
57469.5468,28670.0875,54435.3426,42956.0244,37050.7389,39902.5083,5525.3506,50175.0559,43271.2287,55609.7925,1225.2778,-334.6056,26630.2675
57487.0706,28682.8727,54439.6341,42968.4967,37075.1023,39911.3148,5531.8773,50205.7225,43299.7048,55625.6175,1246.1543,-310.5551,26641.5328
57499.9899,28687.0301,54436.4601,42976.2304,37087.5746,39916.3216,5528.301,50219.9829,43314.8593,55625.9751,1251.6975,-304.6542,26642.9633
57491.7197,28686.0466,54433.7779,42978.9573,37084.1324,39913.4159,5523.9201,50206.2142,43292.284,55616.8109,1245.0367,-319.8087,26638.0459
57466.2834,28672.3226,54429.5311,42962.1935,37053.8682,39902.3741,5517.7957,50178.051,43274.1344,55603.8916,1224.1602,-341.5793,26627.9876
57466.0599,28660.6997,54429.5311,42955.0856,37046.4027,39908.9456,5516.9463,50171.9266,43273.0168,55604.2492,1222.3274,-341.5793,26629.0158
57492.3009,28672.8591,54434.2697,42975.6492,37078.4998,39920.4791,5528.4351,50197.7652,43292.8652,55618.1967,1245.3049,-317.1712,26637.5095
57507.8577,28683.722,54434.4038,42987.3616,37094.8613,39924.0106,5530.6703,50222.3969,43309.9866,55621.1472,1259.5654,-304.8778,26641.6222
57495.7877,28684.2585,54434.8955,42979.8961,37080.4667,39918.6015,5526.4235,50212.875,43296.0838,55617.2132,1245.1261,-313.9526,26637.4201
57468.3398,28676.793,54437.0413,42965.8145,37051.9906,39910.1526,5522.5343,50194.3678,43285.4891,55606.6185,1230.9551,-328.1683,26632.0556
57461.8131,28671.0709,54435.879,42963.8028,37045.4192,39911.8066,5527.1834,50194.0995,43283.7009,55605.0092,1232.5644,-329.1965,26630.9381
57486.9812,28680.7269,54437.4883,42982.3995,37071.5708,39921.0155,5531.922,50209.5222,43298.5425,55611.8935,1254.2903,-314.3996,26636.2578
57505.2649,28686.2701,54437.6224,42994.38,37090.1674,39924.86,5536.0794,50223.8721,43310.1207,55616.6768,1268.1037,-305.1013,26640.6834
57493.5526,28681.8892,54436.3707,42987.7192,37082.9254,39924.2342,5532.9949,50209.7905,43300.4647,55610.2842,1256.3467,-311.1809,26641.3093
57468.5633,28673.6637,54434.5826,42969.0331,37056.2822,39915.6958,5527.4069,50181.9402,43282.181,55601.6564,1236.1854,-330.4034,26635.6319
57465.2553,28668.1205,54436.9072,42967.7367,37050.7389,39916.2322,5528.8374,50188.5116,43282.4045,55609.3454,1236.5431,-324.2344,26640.0576
57490.1998,28672.412,54440.0811,42979.3149,37072.5542,39923.9212,5530.0891,50217.1218,43290.4512,55625.1705,1252.5022,-309.2587,26644.9749
57504.6837,28670.4004,54439.2318,42983.07,37086.4123,39923.1613,5525.8423,50230.667,43300.1518,55626.8692,1261.13,-308.6329,26642.7398
57494.4019,28668.7464,54441.154,42981.4607,37081.8079,39919.6297,5523.8307,50221.3687,43294.9215,55620.566,1252.5022,-315.5619,26640.5493
57471.1561,28667.2711,54437.8459,42970.3742,37049.4872,39913.3265,5522.1319,50197.4523,43287.0984,55613.6817,1232.3856,-328.3024,26638.4035
57465.8364,28658.554,54438.74,42967.6026,37041.3959,39915.9193,5521.1931,50196.7818,43282.7175,55615.6039,1224.2496,-332.0575,26637.6436
57484.7013,28666.0194,54437.8012,42977.2139,37059.322,39923.5636,5521.9531,50224.9002,43299.8836,55622.4883,1236.2301,-321.418,26640.2811
57496.5477,28670.6239,54436.8178,42984.2323,37078.9915,39924.86,5521.5955,50240.3677,43316.0663,55624.9022,1252.7257,-315.1149,26644.1256
57485.2377,28660.655,54434.1356,42977.5268,37073.4036,39921.8202,5520.612,50231.9187,43306.9915,55619.0014,1245.8414,-322.5803,26639.7446
57467.9375,28651.1779,54431.4086,42966.3509,37048.6379,39920.3897,5515.337,50216.1831,43289.423,55609.9266,1226.8871,-338.8971,26628.837
57458.4603,28651.9378,54434.2697,42963.3111,37031.0694,39915.1146,5512.0736,50206.9741,43287.4113,55602.7293,1215.9348,-344.7086,26626.0207
57487.3388,28665.7959,54435.2978,42975.381,37058.2044,39923.1613,5513.6383,50229.8623,43300.2859,55610.6865,1232.9668,-326.3801,26631.5192
57500.8839,28672.8144,54435.4767,42987.5851,37087.8428,39932.3255,5518.645,50241.3064,43311.3724,55617.6156,1252.5022,-317.4394,26636.8836
57496.6371,28675.0048,54436.3707,42983.4723,37075.7282,39926.1564,5522.0425,50225.4814,43304.7563,55613.5923,1247.0484,-322.2674,26635.5425
57474.4195,28665.2595,54438.8741,42967.1556,37041.7535,39919.138,5519.1368,50205.4989,43288.4395,55606.6185,1224.8755,-336.4384,26632.3686
57472.7654,28666.9582,54439.2765,42968.9884,37038.5349,39919.4509,5516.5887,50202.2803,43290.8088,55607.7361,1224.6966,-335.9914,26632.5921
57494.4019,28671.205,54434.5826,42979.002,37060.8866,39926.6481,5516.3205,50227.1354,43301.7612,55610.1501,1243.2486,-320.3452,26634.8273
57508.8412,28676.033,54435.9684,42984.9029,37085.2947,39926.3352,5517.751,50255.8351,43315.5745,55620.2531,1253.6198,-309.7504,26643.3209
57496.4583,28676.5695,54438.2483,42975.8728,37075.6835,39925.3517,5515.9181,50243.184,43309.0478,55624.7681,1244.5003,-319.317,26643.1868
57476.6099,28670.0875,54437.1307,42967.7814,37053.3317,39923.8318,5515.784,50215.8701,43286.6961,55614.9334,1229.0329,-332.1916,26639.6105
57466.5517,28659.8951,54431.5875,42956.9632,37042.6029,39918.7803,5513.0571,50210.461,43285.355,55606.7079,1219.7793,-337.6007,26638.7612
57481.2144,28664.0525,54428.95,42965.8145,37063.5688,39925.1282,5512.2077,50239.6971,43307.8408,55608.6302,1234.7549,-327.6765,26636.2578
57497.8888,28668.7464,54428.9052,42983.6959,37085.7865,39930.6715,5513.5489,50254.5387,43321.2072,55614.0393,1254.5586,-317.2606,26639.387
57491.9879,28667.3158,54434.2697,42983.6065,37074.3424,39928.1681,5513.9065,50249.0401,43323.0847,55616.5427,1255.0056,-320.3452,26643.8127
57464.9423,28653.7707,54437.0413,42969.4802,37047.3862,39919.585,5510.7772,50225.9731,43305.5162,55611.9382,1229.9269,-335.7232,26637.6883
57466.9987,28645.0535,54432.3027,42965.9933,37042.9158,39911.8513,5508.1844,50206.1695,43293.3569,55604.3833,1220.0028,-344.485,26632.905
57489.6187,28650.2838,54428.1006,42971.2683,37060.8866,39916.1428,5507.6927,50223.4697,43299.3919,55608.9878,1236.1854,-333.5774,26635.766
57504.4602,28666.0641,54430.6487,42976.6327,37081.0479,39928.8386,5512.2077,50249.9789,43308.1985,55616.1404,1245.0367,-322.4909,26638.4929
57489.9763,28663.5607,54432.9286,42962.9087,37069.0227,39927.721,5513.8618,50250.3365,43314.8593,55612.9217,1233.4138,-326.7378,26634.6931
57467.0434,28659.001,54430.2911,42956.7397,37045.7321,39920.032,5514.9794,50230.4435,43294.4745,55601.0753,1219.824,-344.2615,26627.8535
57463.5118,28654.933,54428.9052,42955.3986,37032.4999,39914.0865,5513.4594,50214.4396,43287.8584,55596.4708,1216.0242,-351.1012,26624.7243
57481.7955,28658.5987,54433.1968,42961.2994,37055.6563,39920.8814,5513.0124,50236.702,43302.4317,55611.1336,1231.4022,-331.521,26631.2063
57506.2484,28666.0194,54433.8226,42978.1526,37081.7184,39928.8386,5515.1135,50263.3899,43312.5347,55616.7662,1244.4556,-318.7358,26634.4249
57501.4204,28664.0525,54434.3591,42977.035,37071.839,39927.2293,5510.6431,50248.906,43315.6639,55617.7944,1243.4721,-327.1401,26632.0109
57472.8996,28653.8601,54432.0792,42968.7649,37043.8993,39924.7259,5507.8268,50210.5504,43291.6582,55611.7147,1223.2661,-346.9437,26625.7972
57467.0881,28651.4014,54428.1006,42967.2003,37041.7535,39926.6481,5508.7656,50206.1248,43283.1198,55608.0043,1219.7793,-352.9787,26628.8817
57479.4263,28656.0953,54427.8771,42979.3149,37069.5591,39932.102,5507.3798,50221.6369,43290.3171,55612.0276,1238.1971,-337.7348,26631.698
57493.7761,28661.7726,54430.2016,42988.2556,37097.0517,39931.1185,5510.2855,50236.702,43299.9283,55618.1073,1253.9774,-323.7426,26641.2646
57487.16,28658.5093,54427.1618,42987.138,37083.6854,39932.2361,5510.4643,50232.8128,43296.2626,55615.0675,1250.0882,-328.8388,26641.3093
57473.883,28651.4908,54429.1288,42978.9573,37055.2987,39922.5354,5509.302,50212.875,43286.0255,55609.3901,1230.9551,-342.9651,26637.5095
57464.3612,28646.5734,54430.9169,42975.8728,37045.2851,39920.0767,5505.4575,50209.5222,43284.3715,55609.0772,1222.7744,-346.6308,26638.7612
57481.9297,28656.9446,54437.5777,42989.9991,37073.8506,39934.963,5513.2359,50234.1092,43302.4764,55620.3872,1243.6062,-328.4365,26648.9089
57496.4583,28662.8008,54441.2881,42995.7211,37091.6426,39940.0592,5516.1417,50261.2442,43320.4025,55626.4669,1255.095,-312.8797,26654.1392
57490.7362,28659.0457,54443.0315,42993.3965,37085.1606,39934.3371,5516.5887,50263.077,43313.3394,55621.2813,1247.3613,-316.8583,26647.1207
57469.1445,28654.3071,54440.0811,42983.5618,37055.4328,39930.9397,5512.6548,50238.7136,43299.8389,55617.3921,1228.8541,-332.3257,26637.5095
57459.8014,28658.0175,54435.1637,42985.3499,37050.7389,39936.2147,5512.7442,50236.0314,43302.1188,55612.5641,1224.1602,-340.73,26633.8438
57486.4894,28673.6637,54437.6224,42992.8601,37079.3492,39943.859,5518.3321,50270.8554,43323.0847,55624.0976,1244.4109,-322.625,26638.5376
57504.5943,28674.7366,54439.6341,43004.5724,37097.4988,39950.1175,5523.6071,50293.1178,43337.8369,55641.1296,1260.5935,-307.6494,26645.1985
57491.1386,28668.0758,54438.0695,43000.9961,37084.803,39943.9484,5518.5109,50271.4366,43318.0332,55630.0431,1247.9872,-315.696,26641.1752
57479.6945,28668.344,54438.74,42989.0156,37059.769,39928.6598,5514.89,50247.9672,43298.319,55617.6603,1227.6024,-334.4268,26635.3637
57480.0968,28666.1536,54441.601,42991.9213,37053.1529,39929.7774,5516.3205,50235.1373,43297.2461,55621.3707,1224.339,-333.4433,26636.3025
57495.8771,28665.7065,54442.7633,43003.5889,37088.9604,39942.2497,5521.3273,50256.1033,43313.7417,55630.2667,1248.4789,-315.9195,26641.8457
57507.4553,28669.4169,54444.8644,43008.7298,37107.8253,39947.167,5524.5906,50278.6338,43328.9856,55632.9042,1263.231,-303.939,26646.9866
57499.1852,28665.1701,54441.0646,43005.6006,37090.6144,39937.1982,5520.2544,50265.0887,43318.972,55624.4999,1253.9774,-311.4492,26642.1139
57476.6099,28653.5025,54439.8576,42990.1332,37059.2326,39930.6267,5513.9959,50236.4784,43295.5921,55618.5097,1235.5149,-330.1799,26637.733
57474.2407,28650.1497,54441.601,42984.7687,37051.3201,39929.2856,5514.7111,50231.6952,43292.1499,55616.6321,1233.1009,-329.9564,26637.2412
57500.7945,28660.208,54442.2269,42992.0554,37071.3919,39941.1321,5517.5275,50251.9011,43313.9205,55621.8177,1248.166,-312.9691,26642.2033
57516.0831,28665.93,54443.5233,43001.2196,37085.0265,39949.894,5518.8239,50275.2811,43320.8495,55621.1025,1259.2524,-305.6824,26645.5561
57505.846,28669.5957,54442.7633,43002.9184,37075.0129,39951.0115,5513.9959,50269.4696,43319.5978,55619.7166,1255.9891,-311.8962,26643.455
57482.1532,28662.0408,54438.6953,42985.037,37051.9012,39945.8259,5509.1679,50243.0052,43304.3987,55609.4795,1236.6772,-327.1848,26635.1402
57478.711,28663.4713,54439.5,42982.3101,37051.5883,39950.2516,5508.4974,50236.6126,43300.2412,55609.0325,1236.2748,-325.7096,26638.18
57502.6721,28670.9815,54442.1375,42997.6881,37073.4036,39958.2535,5510.9113,50264.1052,43311.8194,55618.6885,1254.1562,-308.9905,26647.4783
57516.4407,28672.5909,54441.914,43003.3207,37092.6708,39960.4887,5508.1844,50274.7893,43317.1391,55618.5544,1262.1135,-301.5697,26646.0031
57503.1638,28663.4713,54441.1987,42999.2974,37086.3229,39955.2137,5505.7257,50261.6912,43309.8525,55618.4202,1253.5304,-312.7009,26647.2101
57478.3534,28650.3285,54435.0296,42982.0865,37049.3978,39940.1933,5500.3613,50239.8312,43296.6202,55604.6069,1229.6587,-331.521,26637.5095
57470.6197,28646.8416,54431.0063,42968.5861,37038.8925,39943.3225,5498.4838,50226.6884,43277.5766,55597.3202,1220.1369,-337.4219,26631.5639
57475.09,28641.7007,54429.4417,42977.6162,37069.3803,39949.1787,5506.6198,50234.5562,43284.5503,55601.9694,1239.4488,-325.9778,26636.079
57479.7839,28634.7717,54426.3124,42974.6211,37076.7117,39944.0378,5503.9823,50240.5018,43284.4162,55601.4776,1244.9026,-323.6085,26634.7378
57472.8996,28630.3908,54423.7643,42969.5696,37066.3851,39933.3537,5507.2457,50232.1422,43270.2005,55598.6166,1239.717,-325.1731,26637.6883
57441.6518,28612.9117,54415.8965,42953.4316,37041.3512,39914.8017,5504.027,50194.6807,43246.2841,55583.6409,1225.9483,-343.1439,26629.5522
57423.4128,28605.0439,54412.7226,42948.693,37033.1258,39912.9689,5504.5187,50172.8654,43234.0801,55581.7634,1223.6685,-347.6143,26630.0887
57429.5819,28604.5074,54410.4874,42955.5774,37054.0917,39918.1992,5507.9162,50180.465,43240.7856,55592.6263,1238.8229,-333.041,26637.5542
57436.645,28603.5687,54413.572,42961.7465,37072.2413,39914.3547,5513.1465,50183.5048,43244.5854,55595.9791,1252.8598,-319.9428,26639.6105
57417.6908,28596.1926,54408.5652,42951.9117,37062.5854,39903.4023,5513.4147,50158.5603,43226.1676,55589.9888,1243.6062,-326.6037,26639.0741
57385.5042,28587.3413,54399.3562,42939.5288,37036.7467,39892.5841,5511.0455,50122.0375,43203.5923,55577.9636,1223.6685,-340.5958,26633.2179
57364.3148,28584.8379,54393.4554,42930.007,37020.5194,39887.1303,5505.5469,50094.9025,43190.8518,55577.0695,1215.8453,-348.0166,26628.5241
57374.1943,28589.353,54390.0132,42930.5434,37031.5611,39884.4928,5502.9541,50099.3282,43194.5622,55584.6691,1225.0096,-341.8475,26631.3851
57389.6617,28596.5055,54390.4155,42937.8301,37042.3794,39887.4432,5508.6762,50113.1415,43199.569,55583.6409,1238.5547,-332.3257,26634.9167
57375.7142,28593.3763,54385.0958,42932.4657,37031.8294,39881.587,5509.6149,50099.8646,43192.1035,55576.7566,1237.303,-337.7795,26630.7592
57348.2662,28589.8,54382.6371,42920.8875,36999.1511,39867.5054,5506.9774,50064.9065,43173.4622,55572.778,1216.8735,-351.3247,26624.5008
57337.1798,28589.5765,54384.1124,42915.0313,36987.5729,39860.2635,5505.681,50045.1475,43165.7732,55572.8227,1206.8152,-359.1031,26622.7573
57355.5529,28596.9526,54379.2397,42919.7699,37006.9742,39861.8728,5502.2389,50060.2126,43173.5516,55570.364,1220.5392,-353.694,26622.7126
57369.9027,28603.8816,54372.6236,42922.9885,37030.0859,39865.3597,5500.7637,50078.1387,43176.3232,55568.0841,1234.6655,-344.7086,26620.2092
57359.8891,28599.5901,54369.0473,42921.0663,37018.9548,39868.0866,5498.5285,50059.6762,43165.8626,55564.9996,1226.8424,-349.6706,26616.1859
57335.2128,28589.6659,54363.1017,42909.7116,36983.3261,39858.5647,5495.0863,50028.2049,43149.5011,55554.2707,1205.4741,-365.9427,26610.6874
57332.7541,28594.4045,54369.1814,42915.9254,36981.9403,39856.3296,5494.9522,50012.2905,43140.3369,55549.4875,1199.9756,-368.9378,26612.2073
57344.5559,28605.938,54373.8306,42929.8729,37005.2308,39861.8281,5495.3545,50021.4547,43161.4816,55557.4,1221.031,-352.7999,26616.8118
57372.4061,28629.2732,54385.9452,42946.9049,37029.8624,39873.2722,5504.8317,50046.7122,43175.5632,55566.9665,1243.785,-335.0973,26626.0654
57382.4644,28637.2751,54394.8859,42944.4909,37023.8274,39875.3285,5510.7325,50045.9969,43173.4174,55571.2134,1240.5664,-336.0361,26630.2675
57369.0534,28636.6493,54397.7469,42941.4064,37004.292,39871.484,5513.5041,50021.4994,43165.8626,55567.4583,1227.6918,-349.4471,26626.423
57361.4985,28636.8281,54404.676,42941.004,36999.1511,39876.8038,5517.6169,50006.1661,43162.0181,55563.4797,1227.6024,-350.3412,26627.2277
57385.996,28644.5618,54412.2756,42949.6765,37019.4465,39887.3091,5523.2942,50038.1738,43173.4622,55570.0064,1241.1475,-336.6619,26634.5143
57413.5333,28655.9612,54414.6895,42960.0924,37040.2336,39894.104,5529.6868,50066.3817,43187.5885,55575.0132,1255.8997,-323.8767,26636.3919
57412.5946,28661.2362,54415.6283,42960.5842,37039.7866,39890.1254,5530.3574,50059.6315,43190.4942,55574.2979,1251.1164,-327.6318,26634.6037
57396.3672,28652.0272,54419.3834,42949.3636,37015.0656,39887.0856,5528.5245,50031.6471,43176.0997,55576.6672,1231.5363,-338.9865,26632.1003
57382.3303,28649.5686,54416.4777,42943.731,36999.464,39880.4694,5522.9366,50013.4528,43166.4884,55569.8723,1219.9134,-346.005,26627.7641
57406.3808,28652.6531,54415.4495,42956.5161,37018.4183,39880.9165,5522.4895,50033.7481,43179.2736,55573.7615,1238.3312,-328.7047,26634.9614
57424.1728,28659.7162,54417.9082,42968.0049,37042.4688,39893.2099,5521.5508,50052.7471,43193.7128,55583.3727,1253.1281,-315.3384,26642.4268
57423.9045,28661.4597,54414.5554,42964.6969,37038.669,39890.0807,5519.8967,50042.1524,43187.052,55586.4573,1246.8249,-323.1168,26638.7165
57408.2583,28648.451,54411.6944,42946.5473,37009.8352,39877.4743,5518.6003,50017.0738,43172.6575,55578.3212,1227.513,-339.523,26635.0061
57405.442,28652.2955,54417.5953,42944.6697,37005.0967,39882.8387,5522.0425,50007.1496,43168.4107,55575.9519,1226.7977,-341.624,26637.5095
57429.9395,28666.3771,54422.7362,42961.8806,37036.6126,39898.932,5528.6139,50030.753,43188.4378,55585.3397,1252.8151,-318.9147,26648.8642
57457.7004,28683.4538,54430.604,42978.3314,37059.8584,39907.3809,5536.0794,50048.1427,43199.3902,55597.4096,1272.9317,-299.8263,26655.7038
57456.6722,28685.0631,54431.3192,42976.7221,37054.1364,39906.8445,5537.6887,50042.2865,43190.4048,55596.5155,1265.8685,-301.1227,26655.6144
57434.1863,28677.5529,54434.4485,42962.3276,37031.74,39900.7201,5539.2534,50023.6005,43178.3795,55593.2522,1247.853,-315.6513,26650.697
57433.0688,28676.9271,54433.912,42958.349,37024.0062,39902.3294,5538.9404,50017.9678,43182.3581,55589.7206,1241.8628,-320.4793,26649.1324
57452.6489,28690.6064,54438.1589,42971.3577,37047.5203,39912.7007,5542.1591,50048.9473,43202.3406,55594.638,1260.3253,-305.4142,26655.2567
57462.0366,28696.1943,54438.2483,42974.5764,37062.8983,39911.4043,5543.8131,50077.5129,43216.154,55601.567,1271.2777,-295.043,26658.4307
57460.919,28692.2157,54437.4883,42961.7018,37047.3862,39903.3576,5539.2534,50068.3039,43211.2366,55593.6098,1256.749,-306.8447,26649.1324
57443.3506,28679.8328,54436.2813,42949.8553,37019.5359,39898.6638,5540.9521,50047.1145,43199.2561,55590.0782,1239.7617,-322.8933,26645.6008
57436.9133,28676.8377,54436.2813,42945.0721,37006.259,39889.7678,5540.9521,50037.1903,43198.362,55593.8333,1231.4916,-326.6037,26646.7631
57459.6226,28685.1972,54444.8197,42962.0594,37036.7467,39900.4966,5545.8248,50056.4128,43218.0762,55604.3386,1251.5187,-313.3267,26655.3909
57476.4311,28692.618,54445.5349,42973.0117,37058.5173,39908.722,5547.4341,50076.0376,43222.3678,55610.9101,1266.405,-302.4638,26659.3248
57467.8481,28691.1875,54440.8411,42967.3791,37048.1461,39900.7201,5541.3544,50076.5741,43216.9139,55606.3056,1256.7937,-309.1693,26655.6591
57443.0823,28686.8513,54441.8246,42962.1935,37033.7516,39899.379,5538.4487,50061.0173,43218.3444,55602.4611,1243.4721,-318.3782,26653.2451
57440.3554,28694.4509,54447.8148,42969.3907,37034.1539,39909.3032,5539.7004,50059.3632,43218.6127,55605.7245,1240.924,-317.4841,26656.5979
57469.4127,28703.9727,54450.81,42981.0137,37058.562,39917.0369,5546.0483,50091.6839,43237.5669,55615.6486,1257.0173,-303.179,26661.8729
57486.4894,28714.8356,54453.8945,42993.7541,37085.6971,39928.4363,5552.9326,50122.7528,43253.2132,55624.8128,1275.3457,-289.768,26665.6727
57481.7955,28713.8522,54455.325,42998.3139,37082.2549,39929.5092,5555.3466,50116.6731,43242.4396,55623.3376,1277.9832,-292.4949,26661.8282
57463.3777,28709.203,54451.5252,42990.0885,37069.3803,39922.446,5552.5303,50096.1989,43221.2502,55611.8041,1265.198,-303.6708,26654.5862
57449.3855,28704.9562,54456.1297,42982.8018,37057.2209,39920.3897,5550.3845,50082.4302,43221.4737,55610.7312,1256.9726,-309.4375,26654.318
57479.471,28717.3837,54461.0023,42998.3139,37083.0595,39933.9348,5557.0006,50106.8383,43239.7574,55617.9732,1269.266,-294.8642,26659.6824
57498.6041,28727.1291,54455.8614,43006.5393,37097.4541,39944.6189,5559.504,50127.5361,43246.3288,55620.2531,1281.4701,-289.5445,26658.9671
57497.9335,28723.374,54452.5981,43002.4713,37085.1606,39947.9717,5554.3631,50129.6371,43235.1977,55610.4183,1272.4847,-296.3394,26655.4803
57480.9015,28715.4168,54454.3862,42986.9145,37059.9926,39951.3245,5549.3116,50113.0074,43227.911,55610.7312,1254.9162,-306.7106,26653.2451
57476.5205,28717.8308,54455.2803,42985.3499,37057.9809,39956.7783,5549.5799,50110.3252,43230.8167,55609.3007,1249.373,-309.8398,26651.904
57493.0161,28723.0164,54453.8051,42996.1681,37079.215,39960.5334,5551.6809,50131.2017,43244.2725,55611.3571,1266.852,-300.2733,26656.1508
57500.7051,28716.5791,54451.3017,43003.8571,37095.4424,39955.9289,5549.8481,50149.5749,43258.8011,55613.5029,1277.6703,-290.6173,26658.2966
57495.296,28709.3371,54446.876,42996.1681,37090.3462,39950.9221,5547.6129,50148.8596,43243.8701,55606.9314,1266.5838,-297.3676,26655.1226
57475.2688,28701.4246,54449.6477,42983.6959,37065.1782,39943.6355,5543.2767,50120.16,43228.8945,55602.0141,1248.9259,-308.767,26649.5794
57466.2834,28694.7191,54448.843,42978.3762,37053.4658,39939.9251,5541.712,50104.2008,43221.0267,55601.9694,1238.4653,-314.0867,26645.9137
57483.9413,28694.4062,54445.5349,42988.7921,37071.4366,39938.9416,5540.818,50131.3806,43235.3318,55611.8488,1256.3467,-301.1227,26654.1839
57499.8558,28699.5023,54447.636,42998.2692,37096.6941,39941.3109,5542.5614,50151.5418,43243.9148,55615.3804,1272.3953,-297.2782,26658.6095
57500.7945,28704.5091,54453.0451,42994.827,37097.0517,39937.6005,5546.1824,50148.8596,43250.3968,55616.1851,1272.7529,-299.4686,26658.833
57479.471,28694.6744,54448.3066,42973.5929,37077.3822,39926.4693,5544.7072,50120.2047,43239.1316,55613.1005,1255.3632,-312.9244,26653.1557
57465.747,28688.55,54442.0928,42964.4734,37066.251,39922.1331,5541.3991,50104.9161,43229.7438,55607.9149,1248.4789,-321.3286,26650.5182
57483.092,28702.0057,54447.1443,42983.3382,37086.7699,39932.9066,5548.1941,50134.3757,43246.3735,55615.8274,1266.2709,-306.8894,26660.8894
57504.1473,28718.1884,54452.8663,42996.7493,37107.3335,39937.4217,5557.9841,50160.1696,43264.6126,55626.7351,1278.7879,-288.6504,26668.8913
57497.4418,28714.4333,54451.7487,42994.0671,37095.9789,39933.5325,5561.024,50149.2172,43262.8691,55624.0082,1271.9482,-289.4104,26665.3597
57468.9209,28707.0125,54449.6477,42982.0418,37070.0955,39925.62,5557.9394,50128.6536,43255.2695,55625.2599,1256.9726,-301.7932,26659.2801
57461.9472,28704.3303,54450.2288,42977.3927,37068.8885,39928.9727,5559.3699,50128.7431,43253.3026,55625.1705,1252.4575,-307.2917,26660.8447
57486.6235,28711.3488,54455.6826,42986.7804,37100.2704,39945.3342,5564.9579,50159.812,43261.9303,55628.7915,1270.2495,-294.5513,26669.2489
57513.0433,28730.3925,54459.393,42998.001,37124.6338,39954.2302,5571.4399,50186.9917,43276.459,55639.3862,1288.1756,-278.458,26676.9826
57510.9422,28734.6393,54460.1977,42998.8503,37122.1751,39950.2963,5572.021,50181.9402,43273.7768,55639.9673,1285.3593,-283.286,26675.0604
57496.3242,28731.1077,54460.7341,42986.1546,37094.9954,39939.9251,5571.1269,50157.9344,43263.6291,55634.1112,1269.4895,-298.3063,26669.1595
57483.3602,28718.2331,54460.8235,42978.7338,37082.4784,39940.0592,5566.4778,50140.5001,43258.3988,55633.083,1262.4711,-304.2519,26665.5833
57494.849,28713.2263,54458.6778,42988.6132,37109.3005,39947.8376,5568.5788,50159.0967,43272.0333,55640.6379,1277.9832,-291.869,26673.8981
57520.5535,28722.5693,54459.1695,43001.8008,37130.2664,39955.3478,5571.7528,50179.4368,43282.7622,55643.9459,1290.6343,-277.698,26676.8485
57515.8596,28715.7744,54459.0801,43001.3537,37120.4764,39947.5694,5568.2212,50173.3124,43274.5814,55636.3463,1285.2699,-287.7563,26670.6795
57493.7314,28705.9397,54462.1646,42987.4063,37092.2238,39935.4547,5565.9413,50143.4058,43256.1189,55629.8643,1267.2544,-301.7038,26663.7951
57482.332,28704.2856,54461.2259,42972.8329,37075.6388,39931.2973,5563.2591,50128.6536,43243.4231,55628.9256,1257.2855,-309.0799,26663.9739
57494.4466,28711.6617,54462.6564,42984.3664,37102.282,39941.3556,5569.3388,50151.4077,43256.2083,55636.1228,1275.2116,-294.1042,26672.1547
57505.0414,28718.546,54464.0422,42999.7444,37129.5065,39952.9338,5571.3058,50173.223,43273.5533,55641.9343,1287.505,-283.9565,26673.8981
57511.3446,28713.6286,54463.9528,42994.2012,37123.6056,39951.8609,5570.7693,50170.4514,43275.699,55638.3133,1282.8112,-284.6718,26673.0487
57491.4515,28713.0028,54467.4397,42983.0253,37092.9837,39947.9717,5572.1104,50141.3494,43264.4337,55634.1112,1267.1202,-299.2898,26674.0322
57489.7081,28721.2282,54473.6534,42983.8747,37088.7816,39955.4372,5577.1619,50144.2105,43261.7068,55636.5699,1264.6168,-301.5697,26676.5803
57499.0958,28718.2331,54471.3736,42989.8202,37108.2723,39960.7122,5576.8937,50172.7313,43259.2481,55636.2122,1274.3175,-290.8409,26675.6415
57511.7916,28716.4003,54465.8303,42999.3421,37126.4666,39957.8512,5574.2562,50186.4552,43272.3463,55636.4357,1285.091,-281.2743,26674.5239
57513.3562,28720.2448,54463.5952,43001.3537,37125.7067,39956.1524,5574.3903,50179.4815,43275.6096,55638.6709,1287.6391,-282.6601,26675.3733
57487.0706,28708.7113,54463.3716,42981.4607,37098.214,39942.9649,5567.9083,50150.2901,43261.2598,55632.4124,1267.7014,-303.4472,26667.0138
57478.6216,28703.0786,54463.1034,42975.4257,37083.2384,39941.6685,5567.6848,50135.8956,43254.8672,55626.4669,1259.9677,-307.9176,26664.108
57495.5642,28707.8619,54458.2307,42984.1429,37104.6066,39951.3692,5566.9695,50158.3368,43269.977,55631.9654,1278.8773,-293.076,26669.2936
57510.8975,28711.5276,54456.085,42989.0156,37121.2363,39951.3245,5565.8072,50180.3309,43279.6329,55635.2735,1286.8345,-286.2811,26671.1265
57507.1871,28715.9532,54463.461,42991.0719,37115.3802,39941.6238,5565.4049,50173.3571,43272.7039,55636.3016,1281.2465,-291.0644,26667.3267
57489.6634,28708.9795,54465.428,42981.4607,37088.3346,39935.0971,5559.6828,50148.9043,43257.5941,55627.2715,1258.5372,-305.5483,26662.6328
57484.5672,28697.9824,54463.0587,42969.6143,37071.6602,39935.6782,5557.6712,50138.7566,43255.4036,55617.4368,1247.9424,-311.2704,26662.5434
57501.1522,28702.8104,54464.0869,42983.6959,37094.3248,39944.0825,5566.5672,50162.7624,43271.2287,55622.98,1265.6897,-296.4288,26669.3383
57514.4738,28708.5772,54466.4562,42994.827,37117.1236,39943.859,5569.1153,50182.4766,43284.9526,55636.391,1281.1571,-284.7165,26673.9428
57514.4291,28706.6102,54465.6962,42991.7425,37118.6882,39939.3886,5567.3271,50183.8624,43287.0984,55637.0616,1274.9434,-291.422,26671.8417
57493.7761,28702.4975,54465.2939,42979.9408,37087.4852,39930.2244,5561.8286,50156.0569,43271.8992,55629.1938,1259.5206,-309.7504,26663.4375
57494.2678,28700.5752,54465.9197,42977.3927,37075.1023,39926.2011,5561.6945,50136.6556,43266.0431,55628.1656,1254.2456,-309.9293,26662.007
57517.6924,28708.0854,54466.7691,42987.2274,37100.0022,39932.996,5567.1036,50157.7109,43276.5037,55639.4309,1270.2048,-298.0381,26668.3102
57530.2541,28706.5655,54465.2045,42993.5306,37117.8389,39936.8405,5566.9695,50181.1355,43289.9147,55647.2987,1280.0843,-288.9633,26670.5006
57527.259,28704.5985,54464.668,42989.7755,37116.4531,39940.3721,5566.4778,50182.9237,43293.3122,55647.9692,1273.7811,-292.4502,26668.3996
57505.6225,28699.1447,54467.3055,42976.8562,37091.3744,39938.271,5568.8024,50166.1599,43280.7058,55640.2802,1260.4594,-303.8496,26663.661
57496.2795,28700.2623,54471.7759,42975.9622,37083.0148,39935.3653,5567.8636,50153.4194,43285.5338,55639.2521,1256.5702,-306.3977,26664.3316
57516.6643,28712.6452,54474.5922,42986.3781,37106.663,39939.9251,5571.2163,50178.1404,43302.0741,55650.5173,1271.3224,-293.2996,26673.4064
57534.9033,28717.1155,54478.7943,42996.6599,37127.1819,39943.1884,5572.9598,50205.9907,43311.1042,55656.1947,1281.023,-286.9517,26676.4462
57528.913,28707.996,54474.3687,42988.6132,37113.8155,39940.0592,5571.7975,50200.7604,43303.5046,55653.1996,1276.5974,-293.7466,26672.0653
57498.1123,28703.8833,54468.5572,42971.4024,37085.9653,39928.0787,5567.4165,50172.6866,43276.6825,55643.5883,1253.6645,-311.0915,26668.8913
57485.7295,28703.168,54470.8371,42965.9039,37074.8341,39930.8056,5564.2873,50168.2162,43276.1014,55641.8002,1244.8132,-315.1596,26666.6561
57509.2435,28703.3468,54468.6466,42969.1672,37089.9439,39938.271,5563.3485,50187.5281,43288.5289,55647.1199,1258.8501,-303.8049,26666.8797
57525.3814,28706.0738,54469.8536,42982.3101,37114.6649,39944.0825,5566.746,50210.9081,43300.7777,55650.6515,1275.4351,-287.9798,26669.383
57520.1511,28701.961,54466.7691,42986.6016,37111.6251,39944.6189,5567.2824,50210.3269,43299.7495,55650.4279,1270.9647,-291.6008,26666.6114
57499.4534,28697.5354,54460.3318,42976.8562,37085.0712,39934.203,5562.3651,50180.8226,43284.4162,55644.3483,1250.3117,-307.7835,26660.6659
57486.4447,28701.6928,54455.4591,42972.8329,37073.8506,39932.102,5561.2922,50164.8635,43279.1859,55638.358,1241.3263,-313.8632,26657.626
57497.8441,28709.8736,54457.5602,42983.7853,37097.2306,39945.7365,5568.1765,50197.3182,43293.2228,55647.2987,1260.9065,-299.6922,26665.5833
57518.5418,28716.8026,54459.0354,42995.2741,37123.8291,39957.9406,5574.0774,50223.1568,43313.1605,55653.6019,1278.2961,-285.4764,26671.0371
57522.6098,28719.2166,54467.7526,42997.3304,37124.6785,39954.6772,5575.3738,50227.8507,43314.5016,55654.4513,1275.5245,-288.2034,26670.59
57512.0598,28716.7579,54478.839,42991.966,37109.971,39953.6937,5579.6206,50210.3716,43310.4336,55649.0421,1262.4711,-294.3724,26671.35
57501.4651,28715.7744,54479.8225,42995.8552,37105.8136,39958.1194,5586.7732,50206.0801,43310.2995,55646.5387,1263.4993,-293.7019,26675.5968
57518.0501,28725.6539,54478.392,43010.6968,37131.1605,39962.1874,5590.9753,50231.6952,43320.5813,55651.5902,1280.6654,-281.3637,26679.7543
57542.0111,28732.717,54479.6884,43016.0612,37144.5715,39971.3069,5591.6905,50258.2043,43331.3549,55660.4415,1290.0531,-269.9643,26682.5259
57541.877,28734.8628,54477.9897,43014.4072,37134.7815,39967.1048,5590.2153,50253.2423,43331.489,55660.4415,1290.5896,-275.9099,26680.246
57519.57,28730.9289,54474.9945,43008.2381,37108.8982,39952.7997,5584.7615,50227.806,43313.697,55649.5786,1273.1105,-293.5231,26675.1945
57504.7284,28721.4071,54473.6087,42998.3586,37097.6329,39951.6821,5580.3806,50210.9081,43303.1917,55642.6942,1257.1961,-304.2966,26672.9593
57516.9325,28717.4731,54474.0558,43005.0194,37116.006,39960.0416,5582.7051,50231.8293,43312.043,55645.6,1271.2777,-290.4832,26674.4345
57539.016,28722.4799,54475.2181,43015.7483,37137.9107,39964.1991,5583.1522,50259.5901,43321.833,55654.4065,1290.8131,-275.6417,26677.072
57531.4164,28725.9221,54472.2676,43018.5646,37137.3743,39967.9989,5582.5263,50254.941,43321.0284,55658.1169,1289.7402,-275.4182,26678.6367
57522.1628,28718.6801,54471.5077,43011.1885,37110.4181,39961.2486,5583.0628,50232.4551,43309.9866,55654.6301,1278.0279,-284.8059,26677.4297
57514.4291,28711.7064,54471.463,43002.2478,37091.7767,39957.4488,5580.47,50210.1928,43305.9633,55648.8633,1265.0192,-293.3443,26673.0487
57530.6118,28714.2545,54470.4795,43012.4849,37118.2859,39963.0368,5580.2464,50234.3774,43321.1625,55652.3055,1278.6537,-281.7661,26676.4909
57544.6039,28718.9037,54472.9382,43019.8163,37141.1294,39968.3118,5583.5992,50259.1878,43334.2606,55656.8205,1293.7635,-272.7807,26682.2129
57546.5709,28720.0212,54480.5378,43016.7764,37135.8991,39974.3468,5584.3592,50259.0537,43328.9856,55664.9119,1288.3097,-273.2277,26685.7445
57524.5768,28717.2496,54485.6787,43008.9086,37110.6416,39970.3234,5584.4933,50233.3939,43317.6309,55657.4911,1274.3622,-290.1703,26679.1731
57508.8859,28710.7676,54484.9634,43004.3042,37104.696,39966.4342,5582.9734,50224.632,43311.9535,55656.0159,1267.5226,-296.697,26675.7309
57520.017,28716.7579,54484.3376,43007.9252,37122.8009,39970.1893,5582.6157,50243.3181,43326.0798,55661.2909,1276.6421,-281.9002,26680.3801
57545.4086,28727.8444,54487.4668,43019.6375,37139.5648,39976.2243,5587.399,50274.4764,43341.3684,55667.6388,1293.4953,-263.7953,26684.761
57549.7448,28732.6723,54488.8973,43026.8347,37136.8825,39981.1864,5588.7848,50286.8593,43340.6085,55667.4153,1295.5517,-264.1529,26686.2363
57534.3221,28723.374,54488.1374,43017.0447,37113.1897,39976.8502,5587.7566,50258.7855,43327.7786,55661.9614,1280.2631,-280.7826,26682.9729
57519.3465,28708.9795,54482.3259,43007.5228,37097.0964,39969.2953,5583.1969,50239.7418,43318.7485,55654.5407,1267.7908,-295.1324,26676.2227
57531.9529,28710.857,54481.2977,43010.965,37114.6649,39973.855,5580.0229,50252.7505,43338.3733,55656.5523,1279.8607,-283.286,26679.2178
57561.9489,28726.4585,54489.4785,43028.1758,37144.5715,39985.925,5588.2931,50285.2947,43352.6784,55663.9284,1304.09,-266.5222,26687.5774
57558.462,28731.4206,54492.9206,43031.5286,37144.3033,39985.8803,5594.6857,50287.6639,43346.107,55668.1752,1302.436,-264.0635,26691.8242
57537.362,28722.6588,54486.1704,43019.2351,37120.074,39979.3535,5590.8412,50265.1781,43325.0964,55661.0674,1278.0726,-284.6271,26686.4151
57521.5369,28716.5791,54482.4153,43008.5957,37102.7291,39980.0688,5587.1755,50257.2209,43325.454,55660.4862,1264.9745,-293.7019,26683.3752
57536.6914,28720.3789,54484.8293,43017.6258,37119.9846,39982.9298,5586.192,50277.3821,43345.8835,55666.3871,1278.3855,-275.5523,26685.7892
57564.5864,28735.3098,54487.3774,43033.8979,37142.9175,39993.4798,5589.1424,50299.3762,43347.761,55673.2714,1295.9093,-261.8283,26689.6784
57550.5048,28730.4372,54484.5164,43025.136,37136.9272,39984.8074,5583.4651,50292.5813,43337.7475,55665.7612,1288.1309,-270.8584,26684.8505
57524.8003,28716.3556,54479.0179,43008.2828,37112.9662,39967.9542,5579.3077,50266.2957,43323.3976,55657.6699,1267.7461,-289.9915,26675.6415
57515.1891,28704.7327,54472.8935,43001.309,37091.8661,39964.959,5575.5526,50252.1247,43320.4025,55651.8584,1255.4526,-299.7816,26672.9146
57525.0685,28707.0572,54467.7973,43001.5326,37110.7757,39971.2622,5570.6352,50259.7243,43323.8894,55650.2044,1265.8238,-290.7515,26672.6464
57534.6351,28718.9931,54469.5407,43009.9368,37126.2878,39980.9629,5570.6352,50284.2218,43340.832,55660.5756,1279.5925,-275.2841,26675.0604
57526.8567,28715.238,54471.1053,43009.4004,37123.2033,39983.6004,5569.2047,50288.0216,43340.8767,55660.8438,1279.0114,-275.8652,26676.8932
57507.5001,28705.1797,54471.6865,42997.0175,37105.4113,39975.822,5564.1979,50259.5007,43318.4355,55653.4231,1265.2874,-291.0644,26671.5735
57504.952,28698.3848,54475.7992,42996.6599,37097.4988,39969.0717,5562.4545,50241.2617,43312.4453,55649.6233,1258.6713,-297.1888,26669.696
57528.8236,28706.9678,54478.4367,43009.3557,37115.1119,39974.4362,5567.5507,50257.4891,43330.4608,55655.3453,1270.7412,-286.0576,26677.3403
57549.5213,28718.8143,54481.253,43024.3313,37143.2751,39987.7578,5577.6089,50295.9341,43354.6007,55665.0907,1292.2883,-269.2938,26684.8505
57544.4698,28714.4333,54482.46,43029.0252,37141.6211,39987.0872,5580.2017,50304.3383,43359.0263,55670.9468,1293.0036,-269.9643,26687.6221
57515.4126,28711.2147,54483.3541,43019.0116,37111.0439,39975.9114,5576.8043,50272.3306,43336.9875,55661.4697,1273.0211,-283.1519,26681.3636
57507.5001,28706.1632,54482.8176,43016.6423,37094.3695,39971.2622,5577.1172,50249.3083,43328.1809,55659.8157,1262.6946,-290.8856,26677.6085
57530.2094,28711.2147,54482.0577,43029.5169,37118.42,39982.3487,5578.95,50275.2811,43340.5191,55671.3045,1279.9054,-278.6815,26683.6882
57550.0578,28712.6452,54482.0577,43042.9727,37146.0915,39989.5459,5582.3028,50305.7241,43352.9913,55677.25,1301.7207,-264.8234,26692.2712
57547.1967,28713.0028,54480.9848,43035.5072,37144.0351,39984.3603,5581.1405,50303.6231,43353.5725,55668.8458,1300.0667,-269.6067,26690.1255
57524.4427,28708.3089,54482.0577,43015.5247,37110.6416,39976.0902,5575.9996,50276.354,43345.6153,55660.218,1276.6421,-284.2695,26678.7708
57514.742,28704.1962,54482.5941,43007.8357,37096.7388,39975.9561,5575.9102,50264.0605,43330.7737,55662.9449,1263.8569,-290.3491,26674.5687
57526.4096,28711.4382,54482.013,43017.2235,37121.1022,39983.1533,5577.6089,50283.9983,43337.7475,55669.9187,1276.2398,-280.6932,26679.4413
57547.5544,28709.4265,54477.185,43027.7288,37136.7037,39982.0358,5574.5244,50299.9574,43348.6104,55670.5445,1290.2319,-272.6465,26680.6483
57535.0821,28700.4411,54475.7545,43021.2021,37128.1654,39978.5936,5571.3058,50297.5881,43345.3023,55669.3822,1282.3641,-277.7427,26680.5589
57516.9325,28692.7074,54471.9994,43010.1156,37106.1265,39966.8813,5566.8801,50270.1402,43334.35,55664.0178,1263.6781,-295.3112,26673.8981
57508.6176,28694.8532,54476.7827,43004.3936,37094.1013,39960.1758,5566.8801,50252.7952,43328.5385,55663.7943,1256.6596,-300.3627,26675.1945
57522.9228,28698.9659,54482.3259,43013.2896,37108.2276,39966.3895,5569.4282,50272.2412,43338.1498,55671.0809,1276.4186,-284.8506,26682.8835
57545.1851,28704.6432,54482.1024,43028.6676,37132.144,39975.3302,5574.2562,50283.5065,43354.8689,55676.5795,1295.0152,-272.9595,26688.2926
57543.4864,28708.3983,54483.22,43028.9805,37130.7582,39971.441,5575.3738,50286.0546,43354.6007,55675.6407,1296.5798,-275.6417,26685.4763
57527.259,28705.2244,54484.3376,43016.2847,37109.971,39969.5188,5573.0939,50275.2364,43341.8155,55667.0129,1280.3525,-290.1256,26677.8767
57514.3397,28702.274,54481.8789,43011.412,37097.9905,39969.0717,5573.0939,50268.5755,43333.59,55660.7097,1267.1649,-295.5794,26676.625
57527.5719,28713.6734,54484.5611,43026.6112,37125.1702,39980.9182,5582.571,50283.8641,43350.8456,55664.6883,1281.4701,-275.1052,26684.0905
57540.9383,28723.5081,54485.1869,43038.5023,37148.4607,39993.0328,5582.124,50309.7922,43366.6706,55675.1937,1299.0832,-262.8118,26690.9748
57538.3455,28727.3973,54485.4552,43043.4644,37152.4394,39999.7383,5583.331,50319.9846,43367.6988,55677.9206,1300.6032,-267.5951,26689.4549
57520.8664,28723.7763,54484.7846,43032.8697,37129.4171,39995.3574,5582.2134,50311.0439,43359.2051,55667.5047,1284.5099,-280.0226,26686.4151
57511.434,28720.5577,54482.5494,43023.3479,37108.317,39986.1932,5578.1901,50290.3908,43353.796,55661.2462,1271.9929,-287.4881,26682.3471
57525.8285,28723.0164,54484.5611,43031.6627,37127.4054,39994.5974,5581.0958,50308.9875,43362.8708,55678.7699,1287.3709,-277.1169,26687.1303
57550.9965,28728.7384,54486.0363,43046.4596,37150.83,39999.6936,5583.8227,50340.2352,43378.2041,55687.8,1304.1794,-261.7836,26696.1604
57551.1754,28724.6704,54483.4435,43046.7278,37144.8398,39991.9152,5581.364,50335.0049,43372.5715,55681.8992,1297.9209,-264.1976,26696.6075
57538.2113,28708.3536,54482.2812,43031.2157,37121.6387,39978.1018,5574.8373,50304.6513,43352.7678,55672.735,1281.2465,-281.319,26689.6784
57520.1064,28695.2555,54481.6107,43019.861,37096.7835,39970.547,5569.2494,50273.2694,43341.7708,55668.7117,1271.233,-288.7398,26684.761
57528.1978,28698.653,54480.1801,43023.5714,37113.1897,39978.6383,5571.5293,50287.7086,43349.7727,55667.9517,1279.1008,-276.3122,26685.2081
57555.1987,28705.7161,54480.806,43038.6364,37141.6211,39993.8822,5572.468,50323.4714,43367.7435,55670.6339,1296.0881,-262.9012,26689.4102
57553.4105,28708.1748,54481.3424,43047.3089,37142.9175,39993.0775,5570.9481,50320.2081,43368.9505,55669.4716,1297.1163,-267.1927,26688.2926
57525.4709,28702.4975,54480.5378,43029.0699,37118.0177,39977.7442,5565.9413,50298.0351,43349.0127,55662.4532,1273.8705,-288.1587,26679.8884
57514.2503,28704.5538,54481.1636,43021.6938,37094.146,39981.6781,5563.7509,50281.316,43338.9544,55659.1004,1265.958,-293.2996,26677.8767
57530.7459,28716.7132,54482.9518,43029.3381,37110.3734,39992.5858,5565.1814,50305.4112,43346.1964,55664.3754,1283.4817,-278.9944,26681.6318
57552.7847,28723.4187,54483.4435,43042.4809,37143.0516,40003.4934,5569.4282,50333.3509,43351.7843,55667.1023,1299.2173,-266.1645,26685.3422
57555.1987,28728.8725,54485.4105,43042.3468,37141.3976,40000.0513,5569.6517,50335.3626,43352.6784,55666.5659,1290.7237,-267.4162,26685.9233
57541.1171,28724.9833,54489.8808,43032.7356,37121.8622,39998.7996,5570.4564,50310.5968,43336.7193,55661.5591,1280.0395,-277.3404,26682.9282
57525.8285,28718.0543,54489.5679,43025.8512,37105.009,40000.4089,5572.2892,50289.6756,43321.5201,55654.5407,1276.4186,-284.3589,26683.5541
57542.7711,28722.3458,54492.7865,43034.1214,37123.7397,40008.7684,5576.2231,50309.9263,43337.4792,55668.7564,1292.1989,-268.8468,26695.5346
57561.5019,28725.3857,54494.3511,43040.3799,37148.5054,40009.4837,5576.1784,50327.8971,43346.4646,55673.182,1308.6498,-258.3414,26700.9884
57561.0548,28724.9833,54493.2336,43041.1398,37149.8466,40005.4604,5578.4136,50324.9913,43346.0176,55674.5231,1306.3699,-263.1694,26699.2003
57529.1812,28714.1651,54490.3278,43026.2536,37124.8126,39998.2631,5580.47,50300.8068,43327.4657,55666.6106,1290.3214,-275.7758,26694.3276
57510.1376,28709.8736,54488.2715,43014.4072,37101.7009,39989.7695,5580.8276,50273.2694,43310.076,55660.4862,1275.4351,-284.94,26688.6055
57525.7838,28712.4664,54488.6738,43017.0894,37114.5308,39985.4332,5581.8111,50280.9137,43313.7864,55663.5708,1282.2747,-275.4182,26689.4102
57539.016,28715.685,54486.9751,43014.1836,37131.9652,39978.5936,5575.8208,50294.2801,43311.9982,55665.6271,1293.54,-272.2442,26687.935
57525.6497,28715.4168,54484.6058,43009.7133,37133.3063,39972.8715,5576.3572,50282.7466,43307.2597,55665.3589,1291.1707,-276.3122,26684.9846
57492.3903,28699.1894,54479.5096,42994.2012,37104.2937,39957.0018,5572.468,50237.8643,43290.4959,55654.4513,1274.6304,-295.7135,26677.8767
57467.2669,28695.0767,54474.9498,42983.3382,37081.0926,39940.5956,5569.16,50200.6263,43263.942,55640.5485,1255.6762,-309.974,26669.2489
57485.1483,28707.2361,54475.1287,42998.4927,37109.3005,39947.9717,5575.642,50203.7108,43269.4405,55642.6495,1274.2728,-294.3277,26673.764
57512.6857,28718.5907,54481.8789,43014.273,37140.3694,39960.5334,5585.4321,50225.1238,43278.8283,55654.0936,1298.2339,-277.1169,26682.1682
57506.5166,28729.1855,54487.4221,43009.9368,37137.3296,39956.2418,5588.8295,50221.6369,43274.4473,55654.4513,1296.8928,-280.3802,26682.8835
