FC3,FCz,FC4,C5,C3,C1,Cz,C2,C4,C6,CP3,CPz,CP4
55007.9048,26986.599,53113.3264,40867.5671,35739.7199,38088.2174,5675.9119,49994.275,44532.9398,55773.139,-813.9163,-1589.9241,24741.7241
55024.8474,26995.3161,53114.1311,40885.7614,35768.1513,38098.7227,5682.7515,50019.2642,44545.8144,55782.2585,-795.275,-1572.4003,24747.5356
55040.1807,27008.4143,53118.2885,40900.3794,35796.4933,38106.7693,5685.7914,50040.1407,44552.207,55786.5947,-782.3557,-1561.5821,24753.4811
55027.9766,27002.6475,53117.5733,40891.1258,35781.0706,38100.0191,5683.735,50027.132,44549.1672,55783.5996,-791.3858,-1569.137,24752.9
55013.2692,26993.3492,53121.5966,40884.2415,35761.4458,38096.4875,5686.6854,50001.9193,44543.9816,55779.9786,-802.4722,-1582.8609,24752.0059
55018.4548,26995.5844,53121.7307,40885.5379,35765.8267,38107.3952,5689.9935,50011.1282,44543.5792,55783.5549,-795.9008,-1579.4635,24757.8174
55032.8493,26999.8759,53114.3546,40893.0033,35787.5079,38114.2795,5690.6641,50026.685,44557.3479,55791.2439,-779.5841,-1564.3984,24764.0759
55046.5733,27001.4405,53120.3002,40905.2521,35807.9821,38116.4253,5693.2569,50050.0649,44568.3002,55796.7871,-766.3965,-1554.6083,24767.3839
55030.5694,26998.6242,53116.411,40895.3279,35787.0162,38105.607,5687.5795,50036.8327,44558.1973,55787.5782,-775.4266,-1564.2643,24761.7513
55014.6997,26991.9634,53111.8065,40886.1637,35756.8413,38100.0191,5685.8361,50019.6218,44539.1536,55777.3411,-794.3362,-1580.7599,24754.4199
55014.2974,26992.6786,53107.2915,40879.1453,35752.3263,38099.5274,5686.3278,50020.8735,44535.6667,55777.0282,-803.5898,-1582.9057,24754.1517
55031.4635,26998.5348,53103.447,40882.3639,35769.0901,38102.0308,5682.9751,50037.6374,44553.861,55789.9028,-791.1175,-1572.3556,24757.4151
55047.1097,26997.596,53102.0164,40895.9091,35790.1007,38103.1483,5683.288,50054.3118,44561.9971,55791.9145,-776.2313,-1566.4995,24760.8572
55037.0514,26988.7894,53099.6025,40881.604,35773.024,38093.5818,5676.0907,50040.6772,44545.6803,55787.4441,-787.9883,-1577.6753,24756.0292
55012.688,26974.842,53095.6239,40859.2522,35743.7432,38084.1941,5669.117,50008.2672,44528.7824,55779.5316,-808.1496,-1590.237,24748.5638
55008.7988,26968.5388,53084.6715,40854.8266,35738.3341,38077.4885,5663.8867,49993.9173,44524.4908,55772.9602,-820.756,-1597.7472,24741.3218
55024.8027,26967.3318,53079.0389,40863.499,35756.3943,38076.2815,5661.1151,50019.9348,44540.8076,55774.9718,-810.2059,-1588.3148,24739.2654
55024.3109,26972.9197,53079.3071,40864.8401,35770.3865,38073.5993,5662.0985,50032.0941,44547.2002,55775.4636,-805.378,-1585.722,24739.3996
55009.0671,26971.0869,53078.5024,40857.6429,35761.5352,38073.4205,5660.8468,50028.5178,44537.3654,55777.5646,-815.5704,-1595.512,24739.3548
54994.0467,26960.9392,53079.2624,40842.5778,35742.4915,38067.6091,5660.1316,50005.1826,44531.1069,55775.6871,-828.132,-1604.9445,24736.8068
54988.4588,26957.0053,53075.3732,40839.7615,35737.1271,38065.3739,5657.36,49994.0962,44526.6813,55765.5841,-833.5859,-1605.168,24732.6046
55008.7988,26966.5718,53076.7143,40849.4174,35754.4273,38068.9055,5657.3153,50019.2195,44533.1186,55767.2381,-820.9348,-1587.7336,24734.8398
55023.7298,26970.1481,53079.3071,40858.8946,35776.4661,38071.8559,5660.3551,50036.0727,44542.7299,55777.5199,-806.7638,-1578.5694,24742.6182
55020.2876,26965.7224,53077.0272,40861.8003,35773.8733,38075.611,5662.9032,50028.0261,44535.7561,55772.2002,-807.6578,-1584.1573,24742.6182
55000.3946,26953.7866,53072.0204,40850.6244,35749.5546,38069.8889,5659.1928,50013.4081,44521.0934,55764.5112,-822.5888,-1597.8366,24734.5716
54991.9456,26951.8197,53070.277,40850.2668,35743.6985,38069.0843,5655.9294,50007.4178,44517.6512,55759.7727,-821.4265,-1598.9542,24732.694
55011.3469,26959.6428,53075.5967,40863.9461,35762.7422,38080.6178,5662.5009,50031.2448,44540.9417,55770.1439,-802.5169,-1581.4751,24744.1828
55024.8027,26962.8167,53078.7259,40877.1783,35784.1551,38088.4409,5666.4795,50051.9872,44555.0233,55782.482,-789.0165,-1570.1205,24752.14
55009.7823,26957.6758,53073.7191,40870.0705,35768.1066,38085.5799,5659.8634,50050.7355,44542.9981,55779.3975,-801.3994,-1577.8989,24747.6697
54986.9835,26947.2152,53070.4558,40853.2619,35740.3904,38077.1309,5654.4095,50035.8492,44526.1896,55767.417,-817.4926,-1594.9756,24742.6182
54982.3344,26943.9518,53067.4607,40849.0151,35737.1718,38075.4322,5653.1578,50024.8075,44526.9495,55765.1818,-818.9678,-1599.0436,24740.383
55006.0272,26948.5116,53066.3431,40862.7391,35756.0813,38082.6741,5656.0636,50042.6888,44545.8144,55770.9038,-804.5733,-1587.6442,24743.8252
55016.309,26944.7118,53058.5647,40871.0986,35770.5206,38080.886,5653.9625,50056.681,44549.4354,55771.0826,-796.8396,-1580.9834,24743.0652
55004.7308,26933.5359,53052.8426,40862.5603,35758.6741,38076.4604,5648.6875,50039.3808,44538.5724,55764.243,-806.6297,-1589.9688,24738.9078
54981.9767,26921.7342,53050.6074,40846.6458,35732.2097,38066.1786,5646.6311,50005.8979,44521.0487,55757.0457,-824.3769,-1605.8832,24733.6328
54966.554,26916.7721,53049.2216,40833.2348,35720.4974,38060.1883,5637.601,49996.4207,44517.4724,55747.6133,-833.3623,-1614.8239,24726.9273
54986.8941,26925.1764,53053.8261,40847.8528,35752.4604,38072.1688,5639.1656,50030.0378,44533.6103,55754.3188,-815.3915,-1596.8531,24733.7222
54998.3829,26928.3056,53053.1555,40858.7605,35776.6896,38078.025,5639.2103,50053.5071,44546.3061,55754.4529,-800.8182,-1589.03,24735.2868
54989.3975,26920.4825,53045.3324,40858.6711,35766.7655,38073.1076,5636.6622,50036.9668,44537.9913,55747.2557,-813.2011,-1596.4061,24728.3131
54970.935,26918.6944,53045.1536,40845.8859,35744.5925,38069.7548,5635.4553,50009.34,44524.8932,55741.936,-835.1058,-1612.5441,24721.384
54972.3655,26924.9529,53048.3276,40840.1638,35738.2447,38071.0959,5634.2483,50008.8036,44524.5355,55745.2887,-839.0397,-1613.4381,24720.8029
54986.5812,26930.0938,53047.5676,40847.3164,35752.6392,38074.8957,5632.2366,50037.9056,44535.8902,55749.4015,-824.3322,-1599.7142,24723.6192
54996.9077,26928.708,53046.7629,40852.9937,35761.0881,38076.3263,5630.2249,50045.3711,44546.0379,55751.9495,-818.1185,-1597.5684,24723.7533
54982.9602,26925.1764,53046.4053,40843.7848,35748.5712,38067.8326,5622.8936,50027.7132,44533.6998,55746.6298,-831.3954,-1609.4148,24716.7796
54958.4627,26914.3581,53040.9515,40824.3388,35721.615,38051.3817,5613.0141,50000.6676,44516.2207,55736.8398,-853.7918,-1627.475,24706.319
54954.35,26911.7653,53039.521,40820.1814,35712.8531,38047.1796,5612.2988,50000.5335,44516.4442,55743.2324,-859.7374,-1633.063,24707.6154
54965.7941,26915.4757,53038.1352,40834.2183,35736.8141,38053.4381,5619.1832,50030.3954,44527.3966,55750.5637,-844.1359,-1621.3506,24712.2645
54981.7532,26926.1152,53041.6667,40849.6857,35757.1542,38068.4584,5623.7876,50039.3808,44537.589,55758.6104,-828.8026,-1609.7277,24718.1654
54982.3344,26937.0675,53047.4335,40848.6575,35751.4322,38067.3856,5624.8158,50034.6869,44525.9213,55759.2362,-829.7414,-1613.0805,24721.2052
54959.7591,26926.8304,53048.104,40833.2348,35725.9512,38057.9978,5618.155,50022.5276,44523.0156,55751.9048,-845.3876,-1628.7267,24715.6173
54964.6318,26926.741,53055.4801,40835.5594,35721.0338,38057.9084,5620.1667,50022.8852,44528.8271,55754.7212,-847.6675,-1627.6091,24715.3491
54989.8893,26934.8323,53062.4092,40849.1492,35749.6887,38070.336,5627.0957,50041.7054,44544.1604,55762.7231,-827.9532,-1611.6053,24722.5016
55010.9446,26946.0529,53065.9854,40862.2921,35769.6712,38075.9686,5634.4271,50061.2855,44553.2352,55767.6405,-809.6248,-1599.7589,24730.8612
55020.377,26949.1374,53070.8134,40872.4844,35769.0006,38081.0201,5637.3775,50060.3914,44555.1127,55767.5958,-809.6248,-1598.5519,24731.4423
55005.6249,26945.2482,53070.2323,40865.1531,35753.5779,38075.2534,5629.912,50049.0814,44539.7347,55760.2197,-831.7977,-1612.8123,24724.6921
54994.4937,26942.6554,53072.691,40858.1793,35751.4769,38077.3544,5630.9849,50052.613,44533.2974,55760.4879,-835.1058,-1611.2924,24727.3296
55010.6317,26954.7701,53073.7191,40869.6234,35778.5225,38087.4127,5635.7235,50071.7461,44544.0263,55764.8689,-817.4926,-1594.2156,24735.2421
55032.9834,26959.3745,53075.552,40880.1734,35792.6041,38094.7888,5640.9538,50085.783,44556.0068,55773.3178,-808.239,-1585.4985,24736.7173
55021.0476,26959.0169,53074.0768,40871.6351,35775.3038,38086.9657,5642.5184,50078.3622,44549.9718,55771.4403,-809.893,-1594.0368,24736.0468
54993.6891,26947.5281,53067.8183,40850.6691,35743.7432,38074.0911,5638.6292,50051.406,44540.7629,55761.8737,-830.4119,-1609.7277,24730.1906
54993.9126,26945.7847,53072.1098,40860.7274,35749.1076,38084.6858,5642.8313,50047.338,44551.8494,55764.3324,-827.9532,-1606.1068,24733.1411
55017.8289,26954.3231,53075.2838,40872.9762,35777.2261,38094.2076,5647.704,50081.5809,44567.6297,55773.6307,-811.4129,-1591.3099,24737.0303
55036.2915,26964.6049,53073.2721,40878.0277,35784.8704,38096.0405,5644.7089,50098.6576,44567.138,55775.1954,-805.5121,-1587.0631,24739.489
55022.2099,26960.1792,53073.8086,40873.6914,35770.8782,38088.7091,5637.9139,50084.2631,44557.3479,55764.0642,-813.6034,-1599.7142,24732.2023
54994.7172,26950.1209,53071.4393,40860.2357,35734.9813,38081.1542,5634.1588,50063.3866,44543.8474,55757.5375,-835.8657,-1615.0475,24725.5415
54998.07,26950.255,53075.9543,40860.5039,35739.1387,38079.7237,5635.4553,50061.2408,44543.2216,55762.9466,-840.4255,-1614.2875,24728.2237
55011.481,26960.9392,53074.5685,40865.1084,35765.9161,38082.853,5632.326,50077.5129,44560.9242,55769.1157,-827.1933,-1609.4148,24730.0118
55022.2546,26970.2822,53074.8367,40870.8751,35778.1649,38083.747,5631.0296,50089.9404,44561.8182,55770.1886,-816.375,-1608.4313,24732.2917
55015.3702,26962.9955,53073.0039,40866.9859,35766.4078,38082.1377,5631.3872,50079.5245,44559.6725,55766.2547,-827.0591,-1611.6053,24729.2966
54989.7552,26954.9936,53070.3664,40858.537,35741.3292,38071.7665,5628.705,50057.7986,44548.5413,55762.2761,-843.51,-1620.546,24724.3792
54987.2965,26952.9819,53069.9193,40852.2338,35738.7811,38071.0065,5625.6205,50059.8103,44547.2449,55764.1089,-847.6228,-1621.5295,24721.9205
55010.1399,26962.2803,53074.3897,40859.2969,35769.0006,38078.472,5627.2298,50082.0726,44558.1973,55768.3557,-832.0659,-1607.7161,24727.3296
55017.7395,26964.5154,53077.1166,40867.8353,35783.9763,38079.5896,5627.9004,50096.0201,44561.8182,55771.3509,-821.7394,-1599.6695,24732.3364
55000.2158,26955.7983,53076.3119,40859.6098,35767.1231,38072.75,5627.3192,50088.3311,44556.275,55766.8805,-829.9649,-1607.8949,24727.5531
54985.553,26951.6855,53076.6249,40850.9374,35736.7694,38068.7267,5624.4135,50063.2077,44545.9932,55761.6055,-846.3264,-1624.9716,24719.1936
54983.9884,26946.8129,53078.9047,40849.8645,35730.958,38068.4137,5624.3241,50059.3632,44539.2877,55765.6735,-848.1145,-1627.9668,24719.9535
55006.6531,26947.7963,53084.0009,40858.2687,35751.1193,38073.2417,5626.0675,50089.7169,44553.9057,55772.4237,-835.9551,-1615.6733,24721.3393
55018.4548,26949.7633,53084.0904,40866.3154,35764.9326,38074.3593,5625.3523,50104.782,44561.4606,55776.9388,-825.0922,-1607.3585,24724.4239
55014.8785,26951.1044,53082.8387,40861.2192,35753.2203,38071.7665,5628.3474,50096.1989,44556.9456,55773.899,-827.5062,-1609.996,24725.1391
54998.4723,26953.9207,53083.1516,40850.4903,35731.8521,38066.9385,5629.1074,50075.233,44547.1108,55769.5627,-840.4255,-1616.7015,24722.7252
54988.9952,26948.3328,53085.9232,40851.5185,35735.5177,38073.4652,5636.2599,50070.1815,44547.8708,55772.9155,-837.3857,-1612.7676,24725.6309
55007.1448,26957.0053,53087.7113,40860.638,35763.4127,38081.4672,5641.0432,50088.4205,44566.1545,55779.5316,-820.1748,-1593.7239,24731.3529
55022.0758,26962.9061,53086.8173,40872.6633,35781.0259,38088.0833,5641.1773,50107.4195,44581.8007,55784.5384,-807.3449,-1581.3857,24735.9127
55018.5442,26962.4144,53090.2594,40872.4844,35771.9958,38092.196,5644.2618,50110.057,44576.2575,55785.1642,-813.514,-1585.9902,24735.5551
55006.206,26962.5038,53093.6122,40866.5836,35753.0862,38088.3068,5647.8828,50100.8928,44567.3168,55782.6608,-825.8075,-1593.6345,24733.9457
55000.6181,26961.6991,53094.4169,40864.706,35746.3807,38083.3894,5649.671,50089.5381,44570.0884,55784.0466,-830.9036,-1595.7803,24732.1576
55018.9465,26967.3765,53096.3391,40868.7294,35771.6382,38083.0765,5647.6593,50109.8782,44579.789,55784.6725,-821.1583,-1589.2535,24734.1245
55033.5199,26969.9246,53095.0427,40879.1453,35788.4914,38083.3447,5646.8546,50130.5312,44591.6802,55787.6229,-809.8483,-1583.1739,24737.6561
55019.93,26963.8896,53089.9912,40867.3435,35774.5886,38076.4604,5643.4125,50116.8072,44581.0407,55779.7551,-819.0572,-1595.065,24732.2917
55006.3401,26962.325,53091.1982,40860.7274,35755.7684,38080.7966,5643.9489,50089.851,44565.7074,55772.8708,-830.546,-1611.4712,24729.8777
55004.1497,26962.325,53091.3323,40860.4592,35745.4866,38083.747,5645.6029,50091.058,44558.9572,55776.9835,-835.6869,-1612.857,24732.1129
55023.4169,26974.7078,53093.5675,40875.122,35776.2426,38096.3087,5649.0004,50118.3718,44582.2477,55788.517,-818.3867,-1592.9192,24738.1926
55041.4771,26984.1403,53092.4946,40886.2084,35790.1901,38099.9297,5647.8828,50135.7615,44594.6306,55791.2886,-804.8862,-1581.2069,24741.6794
55030.9718,26985.1685,53094.551,40881.3804,35783.3952,38095.9958,5648.3746,50125.2562,44588.2827,55793.1215,-805.378,-1587.823,24743.7358
55007.0107,26973.5456,53093.5675,40869.534,35763.6809,38092.0172,5645.6029,50107.1513,44575.5422,55791.7804,-822.9464,-1598.6413,24738.9525
54998.6959,26967.3318,53094.3722,40865.5107,35758.8083,38093.2242,5645.0665,50106.5701,44569.0602,55787.4441,-828.4003,-1601.4576,24737.5667
55022.2099,26974.6184,53097.7696,40877.0889,35782.9928,38096.4875,5647.3911,50123.8257,44584.2147,55790.9757,-811.1894,-1588.3148,24743.8699
55031.9105,26973.6797,53099.5131,40883.9732,35786.882,38091.9725,5647.1676,50135.6274,44594.8988,55791.8698,-804.5733,-1584.3362,24741.5006
55018.3207,26966.2589,53100.1389,40876.7313,35765.4691,38091.1231,5644.6195,50127.4467,44587.2098,55785.9689,-814.8998,-1594.8862,24732.8281
55005.8931,26963.8002,53100.2283,40872.0821,35745.9337,38092.6877,5645.5135,50109.6547,44569.1943,55778.5034,-825.8522,-1608.029,24729.6095
55006.1166,26967.0635,53094.1486,40869.8469,35743.475,38088.8432,5646.7652,50106.6148,44566.2886,55778.2352,-827.4168,-1612.7676,24730.593
55025.7415,26978.2394,53092.1817,40880.844,35769.0901,38092.643,5649.9392,50132.2299,44584.17,55786.7736,-818.0737,-1600.0718,24731.9341
55033.0281,26980.8769,53093.5675,40883.5709,35780.8024,38093.403,5646.5417,50150.3348,44588.7297,55791.6015,-814.2292,-1590.1476,24732.6493
55020.1982,26976.1831,53093.4781,40878.1171,35766.9443,38087.4127,5643.7254,50134.6886,44581.309,55783.5102,-826.6568,-1594.8415,24729.9671
55008.8882,26974.6184,53098.4849,40870.6516,35750.6275,38085.9375,5644.6642,50111.5322,44567.585,55775.0165,-838.8162,-1608.476,24724.6474
55005.8931,26971.7574,53097.5461,40863.3649,35744.6373,38080.6178,5641.8478,50108.7159,44558.0631,55768.0428,-842.8395,-1615.5392,24721.384
55024.4004,26972.5621,53095.445,40871.5457,35765.6926,38080.0366,5641.8926,50132.4534,44572.9941,55777.3858,-830.4119,-1603.4693,24725.8991
55035.3527,26975.7807,53098.7084,40882.051,35784.1998,38085.4011,5643.9489,50143.4058,44582.6948,55788.3382,-816.7326,-1594.7074,24730.1459
55027.2167,26979.4911,53099.6472,40879.5476,35771.6829,38083.4788,5644.843,50126.195,44569.6861,55782.6608,-820.9795,-1598.7754,24730.5483
55007.3683,26970.5504,53095.0427,40869.7575,35746.2913,38079.2767,5639.7468,50099.9093,44551.1788,55770.1886,-837.2515,-1610.1301,24726.6591
55005.4461,26967.1977,53094.8639,40870.6516,35741.4633,38082.1824,5640.2832,50097.54,44558.3314,55771.6638,-837.3857,-1612.9464,24732.247
55030.8377,26978.0159,53099.2001,40885.6273,35765.3797,38084.6858,5640.1044,50119.8918,44574.7375,55778.5928,-819.0125,-1597.9707,24735.9127
55037.8114,26979.804,53099.7366,40891.6175,35775.0356,38084.06,5637.7351,50128.6536,44577.5986,55778.4587,-813.1564,-1592.3828,24735.5998
55032.1341,26973.1432,53097.3673,40885.359,35762.161,38082.8083,5634.3824,50121.2776,44576.3916,55770.3674,-825.4051,-1600.2953,24728.4919
55017.2478,26966.2589,53098.619,40876.3736,35742.9385,38082.6294,5631.7449,50103.8432,44565.0816,55765.4947,-839.6208,-1609.8619,24727.1061
55008.7094,26963.0402,53094.551,40867.2541,35732.5673,38083.2553,5629.6438,50097.3165,44562.8017,55765.6288,-845.0747,-1612.6335,24724.9603
55031.8211,26975.1549,53098.3508,40877.7148,35758.4506,38093.1348,5631.2084,50125.1668,44576.2128,55771.1273,-831.753,-1599.1777,24726.972
55040.6277,26973.6797,53098.1719,40883.8838,35769.7606,38095.2805,5630.0014,50135.7615,44582.8736,55774.4354,-821.6053,-1592.1593,24725.8544
55032.5811,26971.6233,53096.4732,40884.1521,35764.3068,38092.6877,5627.9004,50129.8159,44575.9892,55771.7085,-832.5577,-1599.4459,24722.0546
55021.0029,26968.1364,53094.8639,40875.7031,35742.9385,38095.1017,5624.5029,50111.6216,44566.0651,55766.4335,-840.1126,-1609.8619,24723.3957
55016.8455,26962.5038,53089.9912,40868.6399,35737.3953,38090.4526,5622.3124,50103.6644,44557.8843,55759.5938,-841.5878,-1614.4216,24716.2879
55032.1788,26963.0402,53092.0923,40874.0938,35753.2203,38089.3797,5626.7828,50124.0492,44566.0204,55762.9466,-833.2282,-1605.4809,24718.7465
55035.5315,26967.4212,53091.8688,40878.7876,35769.9841,38091.4807,5628.3027,50142.1988,44570.5354,55760.5773,-820.8007,-1597.1661,24721.5182
55025.8309,26970.8633,53092.4946,40871.3669,35762.0716,38087.4574,5631.9237,50134.5545,44566.1992,55762.3208,-827.8191,-1600.6529,24724.6027
55005.8484,26968.6282,53093.791,40851.5632,35733.3273,38075.2534,5628.0792,50108.7159,44547.1555,55755.3917,-849.3215,-1618.6684,24719.1489
54995.6113,26966.8847,53093.8804,40843.0248,35727.8734,38073.7782,5624.637,50090.4769,44534.9962,55753.8271,-857.2787,-1625.3293,24715.3044
55002.0486,26975.2443,53089.9018,40851.5185,35746.4254,38079.2767,5626.5593,50105.5866,44544.071,55760.9797,-841.2302,-1612.2758,24721.5629
55009.0224,26982.6651,53090.6618,40856.7041,35760.3282,38078.3826,5632.5942,50122.1269,44550.4189,55767.9981,-828.445,-1604.5421,24725.8991
54993.8679,26978.8206,53089.5889,40846.7352,35754.3826,38065.061,5632.6836,50102.2339,44537.2313,55762.0525,-839.4867,-1619.7413,24718.9701
54972.1867,26974.4396,53088.4266,40837.0793,35733.7743,38056.5673,5632.4154,50065.3535,44513.6279,55753.693,-860.5421,-1637.7568,24709.0906
54967.8057,26976.8536,53088.2478,40843.6507,35729.751,38054.3321,5633.6671,50050.959,44502.0944,55749.8485,-860.1397,-1632.4371,24713.8739
54983.899,26987.6719,53088.2478,40858.1793,35756.1707,38058.0425,5640.5514,50060.4808,44511.6162,55751.9048,-839.5761,-1614.3322,24723.7533
54995.3878,27003.184,53092.3605,40866.4048,35768.5089,38069.3525,5646.5417,50067.4099,44518.5006,55756.9116,-829.8755,-1601.547,24726.9273
54984.2119,27008.4143,53092.4052,40854.7819,35758.4953,38062.1552,5648.3299,50054.4906,44514.0749,55756.7775,-836.8045,-1606.1962,24723.6639
54966.6882,26998.5348,53091.8688,40842.2649,35733.6402,38056.3438,5645.6476,50023.7793,44491.4103,55745.5122,-851.2437,-1623.3176,24716.9137
54961.5473,26994.3774,53091.1535,40851.0268,35732.0309,38054.7792,5642.6078,50001.3381,44480.592,55740.9525,-853.4342,-1629.3079,24715.4385
54967.7163,26996.4337,53088.7842,40858.2687,35751.2981,38051.8287,5640.8197,50006.1661,44491.6785,55744.6182,-842.2583,-1618.9367,24718.7018
54987.1176,27003.0051,53088.9183,40863.9908,35768.2407,38055.9862,5641.3561,50017.342,44500.6192,55749.4909,-831.4401,-1608.2525,24722.8593
54979.1604,27005.1062,53085.7891,40860.2804,35753.7568,38058.6237,5641.7137,49997.7618,44488.9069,55744.9311,-839.5761,-1616.2544,24720.4006
54955.1994,26992.8128,53083.5986,40845.6177,35724.2525,38052.544,5640.7303,49968.2575,44471.5172,55741.1313,-852.5848,-1630.336,24714.4997
54939.5084,26987.7166,53080.067,40839.1356,35709.9473,38047.5819,5633.7118,49948.4539,44466.1528,55736.4821,-855.0882,-1634.5382,24708.5094
54965.7941,26996.8808,53081.0952,40857.2853,35730.8239,38058.4449,5636.3493,49969.0622,44475.2723,55740.8184,-843.0183,-1619.0261,24715.3491
54977.5958,26998.2666,53079.8882,40868.5952,35742.715,38060.9035,5638.4951,49984.6637,44474.6464,55742.4277,-837.2515,-1613.8852,24714.1421
54979.2051,26989.7729,53078.6365,40868.4611,35733.3273,38064.748,5638.9421,49969.8222,44462.7106,55735.8563,-847.2651,-1616.7909,24712.3539
54964.5424,26979.4017,53077.3401,40852.0997,35708.2933,38050.0406,5633.9353,49931.9136,44441.2082,55725.8874,-862.8219,-1632.0795,24708.5541
54962.3072,26976.7195,53080.2011,40849.1045,35703.2865,38045.302,5634.3377,49931.1984,44435.1733,55725.2616,-861.7043,-1637.131,24707.3919
54978.2664,26977.703,53081.1846,40857.3747,35715.8929,38053.4381,5635.6788,49946.5317,44456.6309,55730.4472,-846.2816,-1620.7248,24711.9963
54994.2702,26981.0557,53085.5209,40869.1764,35739.4964,38056.8802,5639.9256,49957.3946,44470.3996,55736.348,-834.4352,-1610.2642,24718.2548
54987.1624,26981.6369,53090.2147,40863.499,35733.9531,38055.3603,5642.1161,49945.9952,44464.0517,55733.5317,-836.4916,-1615.6286,24718.4336
54966.7776,26974.2608,53089.8124,40854.8713,35705.6558,38045.8832,5641.9373,49916.8038,44449.389,55729.3296,-847.9357,-1627.4303,24715.7961
54966.4199,26973.2326,53090.3935,40853.3067,35697.6539,38050.6665,5640.9538,49914.8816,44450.4172,55730.4919,-846.9075,-1627.0727,24719.8641
54981.3956,26977.3453,53090.3488,40856.7935,35725.37,38056.7014,5643.4125,49935.177,44465.1693,55739.7008,-833.3623,-1612.9017,24725.6309
55000.4393,26980.6087,53088.8736,40863.5885,35743.922,38058.4002,5641.8478,49948.8562,44476.5687,55738.6726,-822.857,-1603.2457,24729.6542
54998.6511,26972.428,53090.7065,40851.6526,35725.9512,38053.304,5639.3892,49928.4714,44475.2276,55739.1196,-827.5062,-1607.8055,24729.4307
54983.2731,26965.2754,53091.8688,40843.8295,35705.6111,38044.408,5638.5845,49907.1032,44462.6659,55736.4821,-845.5217,-1625.5081,24722.8593
54980.8592,26965.4095,53093.7016,40844.8577,35705.9687,38044.6315,5638.1375,49911.5735,44460.4754,55737.7785,-843.063,-1625.5975,24724.111
54991.588,26976.7642,53093.3887,40847.7634,35727.8734,38048.8783,5637.3775,49930.5725,44470.7572,55743.6347,-834.7481,-1610.1301,24725.0944
55004.5073,26979.9381,53086.7726,40855.5865,35748.6159,38055.7626,5639.3445,49939.4685,44470.8467,55743.0983,-828.2214,-1602.2176,24724.4239
55001.7357,26975.1549,53087.8901,40853.3067,35735.2942,38054.7792,5638.7186,49928.9185,44470.8467,55743.59,-831.306,-1608.7443,24720.4453
54975.4947,26963.8002,53082.794,40833.5477,35702.9736,38042.3963,5630.0908,49902.3646,44454.3958,55733.7999,-851.5567,-1629.9337,24712.2198
54973.0808,26965.9907,53079.0389,40835.7829,35701.5878,38047.4478,5633.2648,49907.1032,44457.9273,55735.141,-854.0154,-1629.2185,24715.3491
55004.4626,26978.5523,53081.0952,40854.3795,35732.7461,38057.1038,5640.5962,49940.5861,44483.8107,55745.2887,-835.1505,-1610.0407,24722.7252
55012.9116,26978.8206,53078.3236,40861.6215,35750.3146,38061.7082,5642.1608,49957.1264,44491.3208,55749.4015,-823.8405,-1600.4294,24724.2451
55001.8698,26971.1316,53075.0155,40854.4242,35736.3224,38054.958,5642.2055,49941.4355,44480.2344,55745.6911,-831.753,-1609.2807,24718.5677
54988.1011,26966.9741,53076.7143,40849.4622,35711.2437,38049.3701,5643.8595,49919.0837,44467.3598,55737.0186,-842.5266,-1615.8074,24717.2713
54976.7464,26961.6991,53080.0223,40847.1823,35709.545,38044.0056,5643.636,49920.0672,44467.8515,55730.9836,-846.5052,-1619.2943,24716.1537
54989.5316,26964.6496,53082.6151,40856.2571,35726.6217,38045.9279,5647.8381,49937.4121,44478.5357,55735.4093,-832.6918,-1609.3254,24714.4997
55004.5967,26975.0208,53083.8221,40863.2308,35745.2184,38052.097,5653.5602,49952.8348,44490.4268,55745.4228,-820.756,-1598.3731,24719.3724
55001.9592,26979.4911,53086.2361,40862.8285,35741.4633,38054.2427,5658.9693,49940.9437,44483.8107,55750.0273,-827.685,-1602.7093,24724.3792
54989.621,26974.3502,53087.309,40852.0997,35717.0999,38053.3487,5656.9576,49920.4248,44470.6678,55737.8232,-846.3264,-1615.5839,24720.9817
54996.2819,26974.7972,53087.6219,40847.2717,35707.4887,38055.3603,5657.1811,49920.1119,44477.3734,55738.0468,-850.6626,-1618.3555,24719.4171
55012.5092,26989.6388,53093.7016,40862.1579,35729.751,38061.4847,5659.8634,49946.8893,44491.902,55749.2226,-829.652,-1602.2623,24730.0565
55015.5938,26997.1937,53093.1205,40870.4281,35754.5614,38066.268,5660.7574,49976.5724,44503.9719,55756.2411,-819.236,-1592.5169,24733.7669
55003.4344,26993.3045,53089.5442,40865.9577,35751.4322,38064.9716,5656.7788,49970.3586,44502.1391,55755.3023,-829.9649,-1603.7375,24729.073
54985.3742,26988.8341,53085.342,40862.5156,35730.8686,38053.7957,5651.2803,49950.8232,44484.9283,55748.8203,-841.856,-1615.6286,24724.7368
54976.4782,26989.013,53084.1798,40855.1842,35723.0455,38049.7277,5648.5981,49947.0234,44480.9943,55745.1099,-840.8725,-1616.7909,24722.5463
54985.1507,26989.907,53085.1632,40862.7838,35741.4633,38062.3341,5648.6875,49969.0622,44493.4666,55743.8135,-822.5441,-1605.6597,24724.5133
55008.6647,27002.9157,53087.2196,40879.8158,35761.3564,38076.818,5651.3697,49993.1127,44507.9505,55750.7426,-807.3449,-1591.7569,24732.8728
55012.4645,27005.5085,53085.6997,40878.2512,35754.3826,38075.3428,5647.7487,49981.8921,44503.9719,55748.5521,-816.2856,-1600.0718,24730.6377
55002.6298,26994.5115,53085.342,40859.9228,35724.923,38071.4536,5642.2949,49953.1925,44492.4384,55736.1692,-834.0329,-1615.0922,24728.2237
55002.0933,26989.46,53085.5656,40858.3134,35723.3584,38077.5779,5642.3843,49954.3995,44488.5045,55727.9438,-836.8045,-1616.0756,24725.8991
55026.4567,26988.4318,53087.309,40874.0938,35750.1358,38085.8034,5643.2784,49981.6686,44499.6804,55733.7999,-819.2807,-1604.6762,24730.0565
55032.3129,26988.5659,53089.5889,40880.7993,35763.4127,38090.6761,5643.3678,50003.5733,44513.315,55746.8534,-810.653,-1594.618,24736.1809
55012.5539,26989.2365,53087.3984,40872.5739,35750.8957,38083.8811,5636.9305,49988.3294,44508.3082,55741.5783,-823.4829,-1603.1563,24730.1012
55001.3334,26982.2627,53084.9844,40861.398,35730.8686,38076.4604,5638.4057,49970.2245,44491.9467,55736.2586,-843.51,-1615.3157,24723.0828
55005.4908,26977.4348,53084.6715,40858.8946,35733.9978,38076.3263,5639.8809,49972.0573,44493.3325,55739.969,-844.4041,-1616.2992,24723.0828
55028.0213,26989.46,53090.8853,40876.9101,35768.5536,38086.5186,5648.0616,49992.9339,44514.522,55751.9943,-822.1418,-1596.2273,24732.3811
55037.8561,26999.1606,53092.0029,40878.0277,35779.3719,38090.989,5649.2239,50008.4013,44528.9612,55757.1799,-812.7093,-1584.7385,24730.28
55034.0116,27002.6475,53091.9135,40870.1152,35764.7985,38082.1377,5646.8546,50009.9212,44523.2391,55755.4364,-821.4712,-1592.1146,24728.0002
55017.516,26995.0032,53092.6734,40853.3514,35739.6752,38068.7267,5646.05,49991.3245,44504.4637,55748.418,-843.1077,-1609.5936,24723.2169
55011.3469,26994.8244,53095.0874,40846.6458,35727.2029,38068.7267,5650.4756,49987.48,44502.3626,55753.3354,-844.9405,-1608.2972,24723.0828
55035.1739,26998.6242,53099.2448,40857.7323,35756.7966,38078.025,5655.4377,50009.3848,44516.3548,55761.6055,-828.2214,-1590.8629,24731.04
55046.8415,27009.0848,53100.3177,40868.8188,35779.0142,38082.8083,5661.9644,50021.3653,44525.3849,55769.5627,-815.6598,-1582.4139,24736.6279
55035.9339,27014.3598,53100.6306,40871.4563,35776.6002,38080.4837,5662.6797,50010.9494,44521.9427,55765.9864,-819.8172,-1586.169,24737.8796
55020.9582,27009.5766,53102.5082,40863.6332,35759.3894,38074.3593,5661.2045,49988.4188,44515.1478,55760.3091,-829.9649,-1592.6063,24736.2703
55023.0145,27004.3463,53097.9484,40858.4923,35754.7849,38071.0512,5662.0538,49984.7084,44509.2469,55757.1799,-834.6587,-1598.3731,24735.0633
55040.5383,27008.146,53094.4616,40864.3037,35768.8218,38075.5663,5661.0256,50004.4674,44520.4675,55760.7114,-825.4498,-1586.1243,24736.0021
55052.4741,27012.527,53093.2099,40868.9082,35780.8471,38078.5614,5660.0869,50017.8784,44530.4364,55768.9816,-815.2574,-1577.7647,24738.729
55036.7385,27005.285,53091.7346,40861.7109,35771.817,38068.5031,5657.4941,50004.2886,44527.4413,55770.9038,-823.2594,-1589.0747,24737.2985
55020.7347,26996.6125,53090.7512,40851.1162,35743.8773,38060.8141,5656.6447,49983.0991,44511.1692,55759.7727,-840.6043,-1601.1447,24731.8894
55013.7609,26987.1354,53089.0077,40842.3543,35736.3224,38057.1038,5650.0286,49971.5209,44507.3247,55754.6765,-848.338,-1606.375,24729.8777
55031.9999,26993.5727,53089.3654,40857.9558,35766.7655,38068.0561,5658.1646,49999.103,44521.3616,55767.0593,-829.8308,-1590.5052,24737.522
55046.6627,26996.7914,53093.3887,40869.4893,35780.5789,38069.7101,5662.322,50014.3915,44531.8222,55771.5744,-814.5422,-1580.134,24743.6017
55038.482,26991.0246,53096.5626,40867.7012,35772.4428,38075.2981,5661.5174,50000.2205,44531.7328,55770.0992,-820.0854,-1585.722,24744.1828
55022.5675,26991.3375,53097.1885,40864.4378,35755.9919,38076.371,5663.6184,49983.3226,44520.0205,55769.5627,-830.9931,-1594.7521,24745.1663
55016.0408,26990.8011,53102.4188,40865.7789,35748.2135,38073.8676,5666.7924,49984.5296,44516.5336,55771.0826,-827.9085,-1588.9853,24747.6697
55028.5131,26998.2666,53105.3245,40878.3853,35777.8966,38084.6411,5669.8769,50008.0884,44529.1847,55778.2352,-811.3682,-1569.0476,24756.1634
55036.068,27000.2782,53103.134,40885.1802,35795.3757,38093.6265,5666.703,50023.824,44538.3042,55786.6842,-803.4557,-1564.0855,24759.0691
55027.6637,26990.5776,53098.1272,40876.1054,35776.8685,38083.7917,5662.7691,50003.4392,44529.9894,55781.0068,-814.3634,-1574.1885,24752.9
55011.0787,26981.9498,53095.6686,40868.6399,35754.472,38077.2203,5660.8468,49981.8027,44512.9573,55771.4403,-826.5674,-1585.722,24746.7309
55001.7357,26970.014,53092.6287,40866.4942,35746.9171,38076.0133,5655.4377,49969.2857,44507.727,55765.9864,-832.3789,-1591.9805,24743.4229
55006.4296,26966.1695,53086.5043,40870.4281,35761.8481,38076.7733,5648.3299,49975.0972,44512.555,55757.2693,-824.064,-1586.7949,24738.4608
55013.448,26970.908,53090.93,40878.6088,35782.2776,38076.9968,5650.9227,49992.1739,44523.5968,55764.4218,-813.067,-1580.7152,24738.4161
55004.4179,26963.0402,53086.862,40870.3387,35762.7422,38070.8724,5650.8332,49983.5014,44514.6561,55761.9631,-822.9911,-1590.0582,24731.8
54986.5812,26961.7438,53084.448,40859.7887,35740.7928,38064.748,5650.7438,49961.1944,44495.4336,55752.039,-834.5693,-1602.3964,24725.9885
54992.6162,26964.739,53093.8357,40864.5719,35744.1455,38065.2845,5654.6777,49961.4626,44493.6007,55747.9262,-834.1223,-1600.0718,24725.9885
55018.276,26977.1218,53098.7978,40872.7974,35772.5322,38082.2718,5659.2375,49992.6209,44505.9836,55756.0176,-814.5869,-1582.3692,24733.3199
55040.0466,26987.0013,53101.3906,40881.9616,35789.8772,38090.8102,5664.289,50011.4411,44517.0254,55765.0924,-800.0582,-1570.2993,24739.3996
55033.9669,26985.8837,53104.9222,40880.0393,35781.8753,38090.6761,5669.2064,50006.2108,44521.1381,55762.0525,-809.0883,-1574.5461,24740.696
55020.7347,26982.9333,53106.3527,40874.2279,35764.4856,38091.8831,5670.6816,49985.4684,44508.6211,55758.6104,-822.1418,-1587.2419,24741.9477
55022.4334,26990.0858,53108.5432,40874.5408,35761.0881,38092.8665,5672.2909,49986.0048,44515.0137,55764.9136,-818.342,-1587.5101,24747.3568
55038.3925,27001.3511,53112.4771,40879.8158,35778.746,38095.1464,5672.6485,50007.5519,44527.0389,55771.2615,-809.2225,-1575.1719,24752.8106
55045.9027,27001.3958,53111.8959,40884.2415,35786.3009,38095.5487,5673.4979,50014.0339,44539.3771,55772.8261,-801.8911,-1569.2711,24753.5706
55047.1991,26998.5348,53113.3711,40873.2891,35770.8782,38085.1775,5668.804,50005.0038,44540.0029,55772.5579,-811.1447,-1574.9484,24752.6765
55031.1059,26989.1024,53105.1904,40858.3581,35746.4254,38075.6557,5663.3055,49990.207,44520.4675,55767.7746,-831.1719,-1588.136,24742.5288
55019.4383,26984.7661,53101.1224,40852.5914,35740.1669,38072.5712,5658.3881,49978.3605,44511.3033,55762.8572,-837.1621,-1594.3497,24736.3597
55026.1885,26986.3307,53099.5131,40852.5914,35755.7237,38073.4652,5652.532,49993.1574,44520.7357,55763.483,-822.8123,-1588.3148,24738.9972
55032.0446,26981.2793,53097.7249,40858.2687,35770.6547,38073.2417,5651.5485,50006.1661,44533.208,55770.7697,-816.0174,-1579.9105,24739.3548
55020.5112,26977.6136,53097.3673,40851.3397,35762.2951,38064.0328,5648.5087,49994.722,44529.5423,55775.7765,-824.4663,-1589.3877,24738.1479
55010.4976,26973.0985,53093.3887,40841.952,35741.508,38055.0474,5645.4241,49974.1584,44517.5171,55768.2216,-842.3924,-1599.7142,24733.1411
55008.7094,26965.4095,53088.6054,40836.677,35729.3487,38053.4381,5641.4902,49973.7114,44514.2984,55764.3324,-846.2816,-1599.4906,24730.9953
55019.1253,26966.7506,53085.2079,40845.4388,35748.9735,38061.0377,5643.5466,49993.7832,44529.4082,55768.9816,-830.4119,-1586.7054,24734.3034
55027.0826,26975.6019,53087.5772,40847.8975,35767.2125,38064.748,5648.3299,50008.7142,44535.175,55772.0214,-821.2924,-1577.2283,24737.075
55026.4567,26973.3667,53088.9183,40850.6691,35765.7373,38062.3788,5647.9275,50006.6131,44533.8786,55771.5744,-825.4498,-1580.3128,24735.4656
55014.7891,26970.014,53091.1088,40844.8577,35743.0726,38066.715,5652.0402,49986.8095,44523.2391,55762.589,-834.927,-1592.7851,24732.5599
55011.3022,26968.3152,53093.9698,40840.0744,35736.4565,38064.6139,5651.325,49988.0165,44522.5686,55760.8008,-838.4138,-1590.997,24731.3976
55022.4334,26970.8186,53092.584,40846.7352,35760.4623,38070.1572,5652.4873,50005.3167,44534.1915,55764.3771,-828.6685,-1578.8376,24732.6046
55031.9105,26977.6136,53095.8474,40852.2338,35776.3767,38071.5877,5656.3765,50021.5441,44547.8708,55770.5462,-814.9892,-1569.137,24734.7951
55027.619,26979.9381,53100.0942,40847.674,35766.3184,38067.9667,5657.807,50014.3468,44547.2896,55767.5511,-824.064,-1570.2099,24735.0186
55016.1749,26980.1617,53101.9717,40845.0812,35747.99,38071.2301,5662.5009,50008.4013,44536.829,55764.1536,-831.2166,-1575.9766,24734.6163
55011.3022,26983.8721,53106.3974,40845.0812,35748.2135,38075.0299,5668.9829,50008.4907,44532.4033,55763.8407,-830.9036,-1572.3556,24735.9574
55030.9271,26988.5659,53102.6423,40855.81,35767.1678,38080.1708,5669.6534,50028.9649,44537.8125,55768.8475,-818.6996,-1559.9728,24741.0983
55055.6034,26999.2501,53105.9951,40869.6234,35790.1454,38089.1114,5672.4697,50048.6344,44555.1127,55781.6327,-804.7521,-1545.4441,24746.2392
55050.5072,26997.9984,53110.1078,40869.1317,35781.8753,38091.2572,5673.9002,50046.8016,44555.0233,55787.4888,-807.5237,-1546.1147,24746.9097
55020.377,26984.3191,53102.5976,40854.2007,35757.9142,38083.6576,5667.3288,50021.5441,44537.3654,55779.3528,-826.6568,-1560.9115,24739.489
55011.3469,26980.9663,53100.0942,40851.9208,35751.9239,38084.5964,5663.6184,50018.996,44538.3489,55776.3577,-830.8142,-1563.2808,24735.2868
55031.687,26989.8623,53100.3177,40857.017,35776.2426,38087.5915,5662.9032,50038.5314,44554.5763,55780.2916,-815.2127,-1550.1827,24739.6678
55047.9144,26997.6407,53099.2001,40869.2211,35798.8626,38095.3699,5666.5242,50052.6577,44557.8843,55786.0583,-803.1428,-1542.449,24745.7474
55040.4042,26992.5892,53095.445,40869.3999,35786.3009,38092.7324,5662.0538,50047.7403,44554.5316,55782.3032,-813.4246,-1550.0933,24745.6133
55015.9961,26980.4299,53093.031,40856.0336,35754.472,38081.8248,5656.0636,50022.9299,44537.4548,55775.4636,-831.9765,-1566.0524,24737.9243
55015.2361,26979.0441,53094.3722,40850.4456,35749.644,38074.3146,5653.1578,50014.7939,44529.0506,55770.9485,-840.9619,-1575.619,24733.6328
55026.412,26980.2958,53093.2546,40859.3863,35769.8947,38074.6275,5650.3862,50037.0115,44543.8921,55778.7269,-824.824,-1563.9067,24736.0468
55034.861,26980.9663,53094.2827,40863.1414,35780.8471,38076.6839,5651.772,50055.3846,44552.4752,55783.242,-813.9163,-1559.5257,24738.8184
55028.6025,26979.2676,53091.4664,40854.3348,35765.9161,38077.6674,5653.3813,50054.5353,44550.9553,55782.6161,-823.7958,-1569.0923,24737.522
55013.4033,26972.7409,53091.0194,40840.6109,35748.3029,38073.5546,5651.6379,50034.1952,44533.8339,55773.4519,-840.0679,-1582.2798,24731.6211
55007.7707,26974.0373,53093.7463,40841.5496,35745.0396,38080.126,5653.2472,50023.2875,44534.0127,55771.4403,-842.7054,-1579.9999,24732.247
55031.0165,26981.2793,53096.3838,40856.6594,35767.2125,38086.7422,5655.5271,50053.4177,44556.9456,55775.106,-826.2545,-1564.8007,24740.2042
55048.9426,26988.253,53097.7249,40871.188,35779.1483,38089.7373,5659.8186,50068.5275,44561.6841,55775.5977,-811.1,-1553.8931,24743.1099
55048.1826,26986.8672,53103.6705,40869.4446,35775.7062,38091.3466,5665.6748,50062.716,44564.1428,55788.517,-815.4809,-1554.206,24746.5968
55031.0165,26979.7593,53102.5529,40856.8829,35756.0366,38080.7519,5662.3667,50044.477,44554.9786,55785.7901,-829.6072,-1565.8289,24742.5735
55027.2167,26982.4415,53102.5976,40856.9276,35753.3097,38083.747,5662.4115,50044.7899,44560.0748,55790.0369,-831.5295,-1563.549,24744.451
55045.2322,26992.1422,53102.6423,40865.0637,35772.3087,38089.8714,5665.0043,50064.4594,44568.7473,55790.3498,-818.9231,-1547.6793,24748.385
55055.0669,26995.495,53103.1787,40869.2211,35783.3952,38088.0833,5662.2326,50082.2961,44580.0573,55792.6744,-812.5305,-1541.9126,24751.4248
55039.0631,26986.5096,53104.654,40866.5389,35774.0074,38081.7801,5660.8915,50074.7859,44574.4693,55789.3664,-823.3935,-1550.1827,24746.9544
55018.0525,26982.3968,53102.3294,40854.2007,35751.8792,38081.0201,5656.8235,50051.3613,44559.6725,55783.8678,-842.1689,-1565.4713,24738.8631
55013.3586,26981.2793,53098.0378,40850.6691,35745.576,38079.9025,5653.4708,50044.1641,44556.5879,55781.8562,-842.4819,-1570.5228,24736.4491
55031.7317,26989.907,53099.0213,40856.57,35773.024,38084.8646,5653.5602,50064.0124,44568.2108,55783.6443,-826.3886,-1557.6482,24739.6231
55052.9659,26996.6125,53105.4139,40866.4048,35790.4583,38096.4428,5661.0703,50082.7879,44581.8007,55789.4558,-815.8386,-1544.4607,24746.4627
55043.1758,26993.4833,53106.8444,40864.5272,35779.506,38098.9015,5662.8585,50075.1883,44573.7988,55791.4674,-817.4926,-1550.7191,24744.0487
55030.3012,26986.0625,53108.6326,40860.2804,35760.2388,38097.7392,5662.1432,50061.5537,44564.0981,55787.31,-828.9367,-1559.2128,24742.4841
55022.1205,26984.5426,53107.4256,40857.6876,35753.8909,38091.9725,5660.0422,50069.1086,44561.2371,55786.0583,-833.3623,-1561.1351,24743.9593
55039.0631,26996.1208,53110.0184,40871.0092,35775.7956,38100.1532,5664.1549,50089.3146,44579.3867,55795.446,-816.0174,-1543.7901,24753.4811
55054.5752,27003.7651,53107.0232,40875.7925,35793.9005,38103.2825,5666.3454,50098.4341,44593.3342,55795.5801,-805.065,-1535.0729,24757.2362
55045.5451,27005.0168,53109.169,40873.4679,35790.5477,38100.0638,5668.1782,50085.2913,44582.6054,55794.7755,-811.0106,-1540.6609,24752.0506
55023.4616,26995.6738,53108.5879,40858.0005,35762.7869,38090.6761,5663.842,50071.7461,44572.6812,55799.2458,-825.9863,-1554.0272,24747.3121
55020.9582,26996.1655,53104.4304,40855.3183,35750.0464,38087.7256,5657.4494,50072.9531,44570.3566,55795.0437,-832.2001,-1561.6268,24746.5521
55045.3663,26998.2219,53105.9057,40866.9859,35777.4496,38099.7956,5659.1928,50095.126,44583.3206,55801.481,-818.029,-1550.4956,24749.9943
55057.0339,27002.2899,53103.3128,40868.4611,35782.7693,38101.0473,5659.1928,50109.3864,44585.5558,55801.2575,-813.3352,-1548.6181,24747.178
55042.1029,26999.5183,53102.7764,40855.81,35765.4691,38092.8665,5656.6894,50089.9404,44575.9892,55794.5967,-826.5227,-1561.3139,24738.7737
55029.8095,26992.321,53105.1904,40854.0666,35746.336,38087.3233,5656.7341,50078.0046,44566.9591,55783.8678,-840.7831,-1570.9698,24733.0517
55022.6569,26987.7613,53102.4188,40853.8431,35744.4584,38086.0269,5654.5883,50070.7626,44563.0252,55783.6443,-843.823,-1572.7133,24731.9341
55041.79,26991.4269,53101.1224,40859.2075,35768.4642,38090.0055,5655.1248,50086.5877,44576.2575,55789.6793,-832.6471,-1562.5656,24734.0798
55054.0835,26992.3657,53097.4567,40867.5671,35786.0774,38090.9443,5651.8167,50096.646,44579.8337,55788.0253,-826.4333,-1557.9611,24735.2421
55044.0699,26992.5892,53097.412,40861.7109,35770.6547,38086.4292,5649.7604,50081.8938,44572.4577,55784.9854,-832.1553,-1566.1418,24733.6328
55031.7317,26980.9663,53096.965,40850.4009,35749.7782,38080.0366,5650.9674,50062.716,44569.3284,55776.8941,-839.8443,-1575.8872,24732.2917
55028.1554,26979.4017,53098.0378,40846.4223,35745.8889,38082.9424,5651.4591,50066.9628,44569.9543,55777.0282,-840.2914,-1574.859,24731.6211
55040.0019,26982.531,53094.551,40856.8382,35767.6148,38085.6246,5650.878,50087.1688,44572.5471,55778.5928,-830.9484,-1563.3255,24734.4822
55040.9853,26982.6204,53090.17,40859.4757,35781.1153,38084.4176,5649.8051,50097.5847,44575.8551,55776.2235,-824.6899,-1557.5588,24735.1527
55034.9057,26976.6301,53090.7512,40852.4573,35766.1396,38079.7237,5648.151,50079.7927,44565.0369,55768.4451,-833.1388,-1562.1632,24731.3082
55017.9183,26967.1082,53093.7463,40842.9354,35745.6207,38075.3875,5643.3231,50061.2408,44559.896,55772.4684,-848.5168,-1570.2099,24730.4589
55007.9048,26966.7059,53092.2264,40845.1706,35744.2796,38074.4934,5645.9159,50055.787,44560.8348,55778.8163,-849.9026,-1569.6287,24732.3811
55017.1137,26975.1102,53093.0758,40856.9276,35762.161,38080.0366,5647.7934,50085.2913,44576.6598,55783.8678,-833.6753,-1557.6035,24737.5667
55029.0495,26970.9527,53087.7113,40858.224,35770.2523,38083.8364,5643.9936,50106.9278,44582.3818,55786.9524,-825.3604,-1555.1895,24740.6065
55025.4285,26962.2356,53085.9232,40858.7605,35757.333,38081.6907,5641.7137,50091.6839,44578.8056,55787.8911,-829.1155,-1563.0126,24735.9127
55002.5851,26954.2336,53083.8668,40848.3446,35734.4002,38069.7995,5637.7798,50061.5984,44562.4888,55780.6939,-847.8016,-1580.7599,24728.4025
55000.5734,26960.0451,53086.3702,40846.9588,35735.2942,38066.4468,5641.9373,50055.2952,44554.8892,55780.5151,-845.8346,-1581.6092,24726.8826
55017.4266,26964.2919,53088.3372,40853.3067,35755.8131,38070.6042,5646.7205,50076.7529,44565.8416,55783.6443,-837.4751,-1570.1652,24728.8048
55033.4305,26971.221,53092.8075,40861.7556,35781.6517,38077.4885,5652.0402,50091.6392,44573.3964,55789.7687,-825.9416,-1558.1399,24728.7601
55030.3459,26972.0256,53089.5442,40860.8615,35770.0735,38081.4672,5654.6777,50085.4701,44565.7521,55783.2867,-828.132,-1564.0408,24724.9603
55009.4694,26966.7506,53085.7891,40848.5681,35742.0892,38074.9851,5650.3415,50067.1864,44557.6608,55772.3343,-840.2914,-1577.6306,24721.5182
54994.3596,26960.4027,53082.794,40840.2532,35729.2593,38066.9832,5643.5019,50053.4624,44547.2449,55766.6123,-850.752,-1586.7949,24714.4103
55010.8552,26959.151,53083.5092,40853.9772,35751.2087,38072.5712,5644.2618,50068.8404,44554.7551,55770.7697,-837.788,-1574.2779,24718.8359
55029.1836,26957.6311,53081.8999,40862.2473,35770.7441,38072.3029,5645.8265,50079.3457,44563.4723,55768.9369,-826.478,-1560.688,24726.972
55018.3654,26949.8527,53083.2857,40855.5418,35755.4555,38067.6985,5644.6195,50072.9978,44561.1477,55768.5792,-832.4683,-1564.4878,24726.972
54999.0088,26943.1472,53085.2526,40849.7304,35731.5391,38066.715,5645.2453,50064.2806,44545.8591,55762.4102,-845.8346,-1578.3012,24726.7485
54997.8018,26948.5116,53085.6997,40849.8198,35733.3273,38071.9453,5646.9887,50069.2874,44551.0,55766.8805,-842.9289,-1573.7414,24731.1294
55019.0806,26955.1277,53088.2031,40861.0404,35762.4739,38075.3875,5650.878,50094.1873,44576.5257,55776.0,-821.7841,-1556.3071,24740.383
55028.3343,26964.0684,53089.1418,40876.0607,35783.7528,38085.1775,5656.4659,50110.3699,44590.4732,55790.4392,-806.5403,-1543.5666,24748.072
55014.1633,26961.7438,53088.1584,40875.3455,35769.2242,38086.7869,5659.0587,50104.3797,44581.756,55787.9806,-811.5023,-1546.7405,24750.7095
54993.9126,26955.6195,53084.448,40860.7274,35746.4254,38078.3826,5655.8847,50082.4749,44562.8464,55775.9106,-830.6801,-1563.9067,24744.6299
54993.0185,26946.7235,53083.4198,40856.1677,35744.6373,38078.8296,5650.6991,50084.9336,44564.1875,55771.7979,-838.9056,-1569.8969,24740.1595
55011.794,26944.6671,53079.7541,40866.4048,35758.4953,38079.0085,5647.9722,50102.5915,44573.8882,55773.3178,-829.2943,-1560.688,24738.8631
55023.2828,26945.8741,53079.7541,40872.6633,35768.2854,38082.4953,5648.6875,50113.3204,44575.1399,55772.9155,-819.9066,-1554.9213,24735.9574
55017.7842,26942.0296,53077.4742,40876.2395,35763.6362,38085.2669,5644.5301,50094.8578,44566.2439,55766.2994,-825.718,-1558.4975,24731.3976
54993.8232,26930.0044,53074.0768,40863.7673,35732.9696,38070.8277,5638.808,50058.648,44546.3061,55753.3354,-839.5314,-1575.3508,24722.144
54986.6706,26930.0491,53075.3732,40860.6827,35727.3817,38068.1902,5639.5233,50049.1709,44549.9718,55753.9165,-837.7433,-1577.9883,24724.111
55010.4082,26939.6156,53077.0272,40873.915,35756.0813,38078.6061,5641.0879,50081.0444,44562.5782,55762.2313,-823.7511,-1562.5209,24729.9224
55025.1156,26942.879,53077.966,40882.9898,35770.2971,38082.1824,5641.7137,50097.4506,44565.9757,55762.0078,-812.1729,-1554.4742,24732.6046
55014.1186,26936.5758,53073.0486,40871.9033,35757.2436,38077.0415,5636.7069,50083.7266,44563.2935,55753.6483,-823.3935,-1563.6384,24728.5366
54994.6278,26930.6302,53070.9028,40856.3465,35729.9745,38072.9735,5629.6438,50057.6645,44543.6239,55745.244,-842.7501,-1582.101,24724.5133
54991.7668,26929.5126,53067.5501,40851.742,35721.3467,38071.2301,5625.084,50055.1164,44537.2313,55745.1993,-850.2156,-1586.0796,24727.5531
55006.2954,26940.152,53067.9971,40868.4611,35743.2514,38083.1212,5628.5262,50091.6392,44559.0913,55753.1118,-835.5975,-1572.9368,24734.5269
55019.3042,26940.0626,53064.9126,40877.4465,35759.1212,38086.8763,5625.844,50109.4759,44564.7687,55754.9894,-826.7462,-1562.655,24732.7834
55011.3469,26936.4864,53062.8562,40867.9247,35746.4701,38085.3117,5620.569,50088.5546,44558.242,55751.0108,-836.0445,-1574.412,24729.833
54993.3314,26928.6633,53061.2469,40844.4107,35718.7986,38074.3146,5617.3056,50066.6946,44540.0476,55739.7902,-856.5634,-1594.3944,24721.1158
54983.2284,26923.7012,53062.9456,40838.6886,35708.6509,38075.3428,5615.4281,50070.8967,44536.6502,55739.3432,-858.1281,-1597.7919,24718.1654
55005.5802,26937.1122,53067.6842,40858.6711,35737.6635,38087.5468,5623.7429,50090.7004,44552.3411,55745.6911,-836.4469,-1582.0563,24726.7932
55019.0359,26941.7167,53066.656,40867.7459,35757.333,38084.6411,5628.4368,50097.3612,44561.9524,55749.0885,-827.2827,-1567.7065,24730.9953
55000.5287,26929.1997,53059.727,40856.1677,35743.8326,38078.4273,5623.4747,50076.9317,44542.2381,55737.7785,-839.9785,-1581.654,24721.1605
54975.4947,26924.8635,53065.002,40842.846,35721.5703,38072.7053,5625.5311,50056.6363,44523.0603,55744.037,-853.5683,-1598.0154,24718.9701
54964.8553,26918.605,53062.9903,40834.0394,35712.8978,38067.475,5624.7711,50046.9357,44517.4724,55741.1313,-859.0668,-1599.8036,24716.4667
54980.9933,26921.466,53056.0613,40838.1522,35733.5061,38072.3476,5627.7663,50064.5489,44523.1944,55738.4938,-847.578,-1583.5315,24717.4948
54993.2867,26929.915,53055.2566,40846.9141,35754.2038,38070.1125,5626.291,50064.683,44524.5355,55740.1031,-837.6539,-1576.2001,24718.7018
54977.5511,26921.8683,53053.2002,40839.2251,35747.543,38059.9201,5622.9383,50042.1971,44505.313,55737.1527,-846.6393,-1585.8561,24715.3938
54955.3782,26914.4922,53050.071,40823.5341,35722.7325,38051.1582,5621.1948,50014.3468,44489.7562,55729.4637,-861.5255,-1600.9212,24710.6552
54944.0682,26910.1113,53044.2595,40818.885,35713.8813,38045.3467,5620.9713,49996.0631,44474.4229,55724.5016,-866.3982,-1606.1515,24709.94
54959.625,26915.2969,53040.8174,40831.8937,35738.6917,38048.0289,5626.1122,50006.1214,44480.2344,55734.0682,-848.5615,-1594.8862,24714.7679
54964.1401,26925.534,53040.5492,40834.1736,35751.4769,38048.923,5629.1968,50007.3731,44492.4384,55738.0468,-837.0727,-1582.6821,24719.5959
54946.8845,26924.8635,53037.0623,40825.6352,35740.1669,38042.0387,5629.0179,49985.3343,44487.9234,55734.7834,-841.9007,-1587.376,24720.4006
54922.5658,26921.3319,53034.693,40816.2475,35714.5518,38034.6626,5627.6321,49959.4957,44462.3977,55723.0264,-856.6976,-1607.269,24715.4385
54910.8982,26914.7158,53036.6153,40809.4972,35709.5897,38030.2817,5625.6652,49946.0846,44457.7485,55716.9914,-858.3963,-1609.6383,24713.6503
54923.1023,26922.4495,53037.2858,40813.4758,35732.165,38035.4673,5628.0345,49957.4393,44463.2024,55722.2664,-842.2136,-1595.065,24717.5843
54925.4268,26925.9363,53033.7542,40817.5886,35748.3029,38033.9026,5631.7002,49965.3965,44467.6727,55725.3063,-837.341,-1588.4042,24720.1771
54912.9099,26924.2376,53031.3402,40817.0968,35734.266,38027.6889,5629.6438,49949.9291,44456.6756,55720.3889,-849.7238,-1596.4061,24713.0245
54882.6903,26908.1891,53025.5288,40800.333,35692.066,38007.1253,5617.2609,49910.2324,44428.6466,55705.5026,-875.3836,-1620.6801,24698.8088
54888.6806,26908.502,53023.8301,40801.4059,35691.753,38006.9911,5614.6234,49903.1246,44425.3385,55702.6863,-877.2612,-1626.4468,24694.3831
54913.491,26911.8547,53022.2654,40814.8617,35711.7802,38012.6238,5612.0306,49905.1809,44432.6252,55703.3569,-857.5022,-1612.4547,24692.8185
54921.8506,26912.8829,53020.522,40824.4729,35718.1281,38014.546,5608.5438,49911.9312,44438.2131,55700.8088,-844.0018,-1604.0504,24696.1713
54914.5639,26913.5535,53015.9175,40825.1435,35710.6179,38016.7365,5607.9179,49905.9856,44434.5027,55701.8369,-848.9192,-1613.8852,24694.3384
54898.6942,26909.9772,53021.6396,40815.1299,35691.1719,38010.2992,5608.4991,49876.973,44414.3862,55699.5571,-867.4711,-1623.9434,24690.6281
54894.805,26910.6477,53027.7193,40813.9676,35683.2594,38019.2399,5614.3105,49861.9527,44410.2734,55700.1382,-864.2972,-1615.4051,24696.8865
54913.7145,26916.8168,53032.5919,40824.5623,35703.2865,38030.2817,5622.8489,49887.3889,44427.0819,55707.6484,-845.5664,-1595.2438,24705.4249
54931.0148,26921.6001,53031.5638,40835.2911,35722.2855,38036.6743,5628.6603,49906.8797,44440.5377,55712.1187,-832.0212,-1582.8609,24709.8953
54927.4385,26922.0918,53029.418,40835.7382,35712.4507,38034.752,5630.2696,49896.8661,44434.2792,55713.0128,-832.3342,-1584.6044,24717.1819
54910.6747,26918.8732,53031.3402,40827.1551,35686.0757,38030.8628,5631.1637,49865.4395,44423.0139,55702.5969,-844.4041,-1593.6792,24718.4336
54914.251,26921.9577,53040.5939,40823.4894,35691.3954,38031.8463,5633.4883,49860.0304,44423.7739,55700.5405,-844.4041,-1589.8347,24722.5016
54935.5745,26924.9529,53036.4811,40836.3193,35713.0766,38039.58,5633.8906,49876.0343,44431.9993,55702.3287,-827.1039,-1578.5694,24725.2285
54943.8894,26930.0491,53034.246,40843.2931,35724.2525,38041.9493,5633.7565,49892.9769,44437.3637,55705.3238,-819.4149,-1574.7249,24724.9156
54936.7815,26923.6118,53033.7095,40836.4534,35718.7986,38039.8929,5628.4815,49887.2548,44429.8536,55698.5289,-826.8803,-1583.4421,24721.1605
54913.2228,26906.535,53027.004,40822.193,35682.4994,38025.9007,5621.1501,49850.7768,44410.2287,55690.6611,-846.6393,-1600.0718,24713.0245
54903.2092,26895.8062,53026.4229,40823.2659,35674.5422,38020.8492,5620.0325,49834.5941,44404.1938,55689.5882,-854.1942,-1602.3517,24708.0624
54919.9283,26898.9354,53023.0254,40829.6585,35694.5246,38027.0183,5619.5855,49846.4406,44417.4707,55694.9526,-846.4158,-1589.9241,24708.9118
54930.7019,26904.9704,53019.8514,40825.5905,35706.1476,38027.823,5615.2493,49856.4094,44425.8302,55695.2655,-841.9007,-1585.4985,24706.766
54925.2927,26899.159,53017.7951,40815.9345,35694.9717,38017.8988,5611.2707,49846.4853,44413.4921,55687.8,-856.2058,-1598.1048,24699.3899
54917.2908,26893.0793,53023.1148,40805.0716,35670.2954,38008.6452,5608.2755,49830.9284,44402.1821,55686.7719,-868.1864,-1610.2195,24695.456
54916.7097,26892.7664,53023.6512,40807.4409,35668.3731,38011.2827,5610.6448,49836.0246,44401.8245,55695.7126,-865.1465,-1609.2807,24697.3336
54935.798,26896.3426,53022.8466,40819.3767,35698.5927,38022.7715,5618.0656,49851.2238,44425.115,55705.5026,-848.1145,-1589.7453,24706.5425
54947.1527,26906.7585,53024.9029,40828.4962,35714.9541,38030.4158,5621.1054,49867.8535,44437.632,55715.8291,-831.7083,-1577.5412,24714.008
54942.7271,26910.3348,53025.797,40823.3106,35698.0115,38033.0086,5624.637,49869.5076,44433.5639,55714.488,-834.7481,-1580.2234,24715.0362
54932.8029,26912.8829,53026.9593,40823.8471,35687.9532,38032.6509,5630.1355,49852.8779,44423.0139,55711.6717,-844.0465,-1590.4158,24713.2927
54929.7184,26911.0948,53025.7523,40815.7557,35683.3488,38028.3147,5629.8673,49848.9887,44427.8419,55709.213,-849.1874,-1592.5616,24714.7232
54947.5104,26921.3319,53032.5025,40823.2212,35704.4935,38036.7637,5630.5379,49873.0391,44449.6125,55715.1139,-838.0562,-1577.4965,24717.629
54954.5735,26921.6448,53035.14,40833.6818,35719.3351,38032.5615,5629.1968,49889.1324,44457.078,55717.7067,-832.4683,-1575.3955,24715.3938
54944.9623,26917.3533,53036.9729,40833.1007,35707.131,38023.7997,5629.8673,49878.0906,44448.2714,55717.1255,-837.9221,-1578.3012,24713.1586
54932.8029,26913.7323,53038.9398,40821.2543,35685.8522,38013.5626,5629.9567,49860.2092,44440.3142,55712.074,-850.3497,-1591.9805,24707.526
54930.0313,26915.4757,53042.2032,40820.9413,35684.1981,38012.892,5631.6108,49848.1393,44439.0178,55712.1634,-848.6509,-1592.4275,24706.9895
54950.3267,26927.8139,53045.9583,40831.2678,35700.8278,38026.616,5631.9684,49869.597,44456.1392,55722.8476,-835.9998,-1575.9766,24715.1703
54971.6949,26936.8887,53048.1935,40837.7051,35709.545,38033.3662,5634.4271,49897.4472,44465.974,55729.2402,-830.4119,-1568.1535,24719.2383
54975.7183,26941.359,53049.5793,40844.4554,35709.7238,38042.3069,5637.601,49899.2801,44461.8165,55728.659,-833.8094,-1573.3838,24720.8029
54961.5473,26942.566,53050.6521,40838.1075,35695.0164,38045.6597,5640.5514,49888.9983,44455.7369,55724.5463,-843.7335,-1581.8775,24720.7135
54953.2324,26946.0976,53054.5861,40839.0015,35699.9785,38042.1728,5643.3231,49894.7203,44464.2752,55727.765,-843.1524,-1581.1175,24724.8262
54974.5113,26968.0023,53059.1458,40859.7887,35738.9599,38056.2991,5652.7108,49934.4617,44490.6503,55739.5667,-816.4644,-1560.2857,24735.7339
54991.588,26977.7924,53061.2469,40865.1978,35754.4273,38064.8375,5653.1578,49952.0302,44509.4258,55746.0934,-802.2934,-1549.7804,24740.7407
54989.6657,26972.8303,53063.0797,40861.0404,35739.9434,38066.1339,5651.5038,49933.2547,44502.2285,55744.1264,-810.2953,-1558.8105,24733.901
54974.9583,26967.0635,53059.6375,40856.3465,35715.6694,38059.3389,5648.5534,49910.5006,44485.2859,55730.0001,-826.2098,-1574.7249,24727.7766
54972.4549,26971.4892,53061.5151,40859.0287,35712.4507,38062.6917,5647.5699,49912.8252,44470.3549,55725.1275,-833.9882,-1578.4353,24728.3578
54993.0185,26988.8788,53062.1856,40866.8071,35739.0493,38071.99,5649.3133,49938.6191,44486.1352,55728.9273,-821.2477,-1562.2526,24735.108
54997.9359,26987.9848,53060.3081,40867.8353,35746.336,38071.6324,5643.7254,49953.9077,44497.5346,55729.9554,-817.2244,-1559.1681,24729.2072
54994.3596,26983.6485,53061.7833,40867.7459,35734.3107,38072.6606,5640.1491,49945.5482,44492.662,55734.6493,-824.5558,-1568.6005,24719.8194
54978.9369,26976.6748,53066.7454,40857.2406,35713.5236,38075.2534,5637.2881,49922.4365,44476.6581,55730.3131,-841.5431,-1584.3362,24714.0527
54976.1653,26971.8021,53067.103,40852.0103,35712.6296,38074.6722,5637.6457,49925.3422,44475.1829,55729.866,-848.0698,-1585.9455,24714.3656
54998.9194,26978.5076,53069.6064,40865.6001,35738.3341,38084.1494,5643.0548,49959.9874,44498.1605,55739.3879,-823.0805,-1567.1253,24722.144
55012.7774,26986.1072,53074.3003,40875.4349,35757.7801,38090.542,5650.2074,49980.104,44506.7883,55741.936,-811.9494,-1555.9494,24726.4355
55000.7522,26978.8206,53073.3615,40868.6399,35747.543,38081.2883,5646.7205,49976.4383,44497.177,55742.1595,-822.9464,-1567.0359,24721.2946
54983.0049,26975.1102,53072.378,40855.4077,35727.2923,38069.2184,5643.0548,49950.7338,44482.7825,55740.6396,-838.9056,-1582.6821,24714.8126
54981.4403,26975.289,53069.6511,40857.1512,35722.2855,38068.9502,5641.8478,49943.7153,44487.2528,55737.8232,-839.5314,-1578.6588,24717.1372
55000.8863,26976.3619,53066.4325,40863.2755,35743.6985,38070.9618,5641.2667,49966.4247,44502.0497,55744.1711,-821.6947,-1560.1069,24724.8709
55014.5656,26983.425,53070.0088,40869.4893,35757.5566,38072.3029,5645.0665,49981.6686,44512.8679,55754.7212,-807.5684,-1551.9708,24731.1741
55007.5918,26976.5854,53073.0486,40869.534,35757.7801,38066.7597,5647.4805,49970.3586,44505.7154,55756.9563,-812.9328,-1558.7658,24734.3034
54984.9719,26969.5669,53075.8202,40858.4923,35741.508,38059.1601,5647.7487,49949.8397,44494.8524,55751.4131,-828.3108,-1568.9135,24735.8233
54976.4782,26973.0985,53073.8533,40850.3115,35740.0775,38056.1203,5651.2356,49954.3101,44493.4219,55753.1565,-832.1106,-1569.2264,24736.7173
55009.5588,26982.7098,53077.0719,40862.9179,35771.2358,38063.6752,5656.2424,49980.9533,44509.1575,55763.2148,-814.8998,-1551.5685,24739.2207
55015.5938,26984.3191,53075.5073,40866.7624,35775.438,38064.1669,5653.739,49986.7648,44513.4938,55769.1157,-810.2506,-1548.3946,24737.522
55002.9874,26980.3852,53070.277,40853.6643,35762.0269,38054.3321,5650.3415,49971.1186,44498.6522,55758.4763,-827.6403,-1562.1632,24728.626
54988.0564,26975.5572,53071.8863,40842.3543,35741.061,38048.6548,5645.6029,49947.3363,44488.8175,55754.14,-841.409,-1575.4849,24722.9487
54983.0049,26970.1928,53070.0088,40839.4039,35737.1271,38049.0124,5647.6593,49947.8281,44494.8077,55753.9612,-841.4537,-1573.6073,24723.2616
54998.07,26975.6019,53072.2439,40847.8975,35757.2436,38056.165,5655.4377,49971.4315,44512.8679,55763.036,-836.1787,-1561.8056,24726.7485
55018.3207,26990.2647,53072.691,40863.9908,35769.3136,38064.8375,5659.9528,50002.1428,44526.726,55768.7581,-823.617,-1551.0768,24728.2237
55012.0175,26989.7729,53075.7755,40859.8334,35766.7208,38059.3836,5659.9528,49990.9222,44514.7455,55764.6006,-828.3556,-1555.7259,24728.7601
54987.6988,26978.1053,53071.7075,40841.5943,35738.6917,38048.2972,5650.4309,49968.0787,44492.6172,55754.0059,-847.9804,-1579.1506,24718.4783
54994.6278,26977.0771,53076.5802,40846.3329,35738.2447,38051.5158,5651.9061,49962.4461,44498.384,55758.2527,-842.0795,-1579.0164,24718.6124
55011.7493,26986.5543,53084.5374,40861.7109,35768.5983,38061.7976,5659.7292,49987.793,44515.416,55765.8523,-820.0854,-1557.2011,24726.5249
55027.9319,26995.2714,53085.2079,40871.3222,35788.7596,38068.9055,5665.1384,50007.0155,44514.6561,55765.2712,-809.2225,-1544.5948,24728.3131
55025.8756,26998.9371,53092.5393,40867.8353,35776.5555,38070.2019,5667.2841,50005.8532,44514.9243,55776.3577,-815.4809,-1550.9874,24729.6989
55014.9232,26994.8244,53096.0709,40862.4709,35752.9968,38073.7782,5667.0159,49986.8095,44507.28,55775.3742,-827.9532,-1563.102,24730.9059
55006.8766,26992.4998,53096.4285,40858.1346,35748.8394,38074.2252,5666.3007,49974.2925,44502.7202,55767.104,-830.0543,-1565.7395,24730.9059
55012.5092,26999.2054,53100.4071,40868.9082,35769.0006,38075.8345,5669.4299,49990.1175,44518.4559,55775.3295,-813.5587,-1554.7872,24734.2587
55029.4518,27007.6543,53102.1059,40885.1355,35787.5973,38088.4856,5676.8954,50006.1214,44528.7377,55781.8562,-800.4606,-1541.1079,24739.7572
55022.3887,27003.0051,53100.8095,40885.3143,35773.5604,38088.2174,5678.9517,49994.9902,44528.3353,55778.9505,-806.9873,-1545.8912,24737.1197
55006.5637,27000.0994,53102.1953,40878.1171,35745.4419,38085.3564,5681.4104,49978.7629,44515.2372,55774.793,-816.4644,-1555.7706,24735.0633
54999.277,26997.2384,53102.3294,40868.5952,35740.5692,38087.0551,5677.7447,49969.4645,44518.5453,55770.2333,-818.9678,-1558.6764,24735.4656
55009.3353,26995.942,53105.8162,40874.362,35761.1775,38095.7723,5674.9731,49989.3129,44533.0292,55773.7648,-805.5121,-1547.0535,24738.0584
55030.3459,27010.2918,53111.4042,40892.3775,35787.4185,38098.7674,5681.0975,50020.9183,44550.1506,55785.2089,-790.3576,-1531.7202,24747.8932
55021.1817,27011.6776,53106.8891,40891.1258,35777.8519,38091.0784,5678.5941,50007.5966,44540.9417,55782.3032,-803.9922,-1538.8727,24745.1663
55002.4956,27001.7087,53099.1554,40876.1054,35753.0862,38082.8083,5670.3687,49980.998,44527.173,55774.8824,-816.9562,-1556.0836,24737.2985
55001.9592,26995.2714,53094.5957,40871.188,35746.2019,38079.9472,5665.8089,49977.4218,44522.5686,55770.9038,-818.342,-1562.2526,24735.9127
55015.862,26997.2831,53090.1253,40874.2726,35762.9657,38078.6508,5664.5572,49990.0281,44528.2012,55773.0943,-806.6744,-1556.9329,24740.2936
55029.6754,26994.4221,53090.1253,40880.6205,35778.299,38079.9025,5664.9595,50000.8911,44533.8786,55773.0943,-799.9688,-1552.5073,24744.4063
55020.0194,26988.3871,53088.4266,40876.2395,35769.2242,38075.6557,5661.9197,49990.0281,44527.486,55773.7648,-808.7307,-1557.3353,24740.2042
55003.0768,26983.425,53087.5325,40867.9247,35749.0629,38075.8792,5660.9809,49971.2974,44517.1148,55778.1458,-822.5888,-1569.1817,24737.4773
55004.5073,26978.9547,53086.0126,40860.4592,35742.9385,38072.75,5658.4328,49967.5423,44514.522,55768.7581,-833.6753,-1575.2167,24730.0565
55021.8076,26987.6719,53094.9086,40870.741,35760.5964,38076.3263,5664.2443,49990.6093,44533.968,55776.6259,-819.5937,-1555.86,24733.2305
55031.3741,26993.1257,53098.9319,40878.1618,35774.8121,38076.0133,5670.771,50008.2225,44542.6852,55784.896,-810.5636,-1545.9359,24738.1032
55029.4518,26996.3443,53100.3177,40873.6467,35768.9559,38076.5051,5671.1286,49997.0466,44534.2809,55782.1691,-818.0737,-1550.138,24735.8233
55015.6832,26991.7846,53102.9999,40866.9859,35749.2417,38076.2368,5669.0276,49976.4383,44528.2906,55776.2682,-832.9153,-1563.6384,24731.8
55015.0126,26985.8837,53100.3177,40859.4757,35741.1504,38068.682,5664.5572,49968.3917,44525.4743,55776.2682,-838.8162,-1568.0194,24729.6989
55035.5762,26999.3395,53105.3245,40871.6351,35765.8267,38078.472,5672.5144,49988.6423,44542.6852,55788.4276,-815.5704,-1550.3615,24739.8913
55046.4392,27006.9391,53106.0845,40879.5029,35783.7975,38083.7023,5676.9848,50005.1826,44551.0894,55793.2556,-802.651,-1543.5219,24741.2771
55038.6608,27008.7272,53103.1787,40871.2327,35778.0755,38079.5449,5675.5543,50008.893,44552.6987,55792.585,-810.9659,-1550.898,24738.6396
55022.791,27002.6028,53103.1787,40855.3183,35751.5663,38073.5099,5673.7214,49995.9737,44543.4004,55789.9028,-824.9134,-1559.2128,24738.4608
55015.2808,26996.1208,53101.1671,40853.3514,35739.8987,38072.4818,5671.4863,49993.4703,44540.2265,55785.5666,-826.2098,-1558.4081,24738.8631
55037.5432,27003.7204,53105.9951,40861.9344,35768.5089,38078.5614,5674.2579,50017.789,44548.0049,55787.4888,-811.5917,-1542.896,24743.7358
55053.4129,27006.7155,53107.6044,40880.1287,35797.6109,38084.1494,5676.493,50033.0329,44559.2701,55790.0816,-802.6063,-1534.6259,24746.4627
55039.9125,26999.3842,53106.0398,40874.5408,35775.3485,38074.2699,5670.6816,50026.5956,44559.1807,55786.863,-813.4693,-1545.2653,24745.4345
55027.2167,26989.6388,53103.1787,40862.1132,35744.2796,38066.7597,5664.4231,50008.6248,44547.5131,55777.7882,-830.6354,-1560.4198,24737.0303
55023.0145,26982.8439,53101.2118,40856.4806,35737.0824,38061.7976,5659.3716,50002.3216,44537.0525,55769.7415,-832.9153,-1562.6103,24730.593
55039.1078,26992.0081,53104.341,40861.3533,35760.2388,38067.8326,5661.2939,50026.9532,44558.242,55777.3858,-816.7773,-1549.1545,24736.0468
55044.0252,26998.4454,53103.0446,40868.6399,35782.9481,38076.9074,5662.0538,50045.2816,44566.5121,55783.7337,-808.9542,-1546.0253,24737.1644
55034.861,26993.8409,53097.8143,40866.1366,35766.1843,38073.8229,5659.0587,50028.2943,44555.0233,55776.5365,-816.6432,-1554.5189,24730.7718
55013.0904,26987.8954,53098.6637,40856.57,35743.922,38070.0231,5656.0189,50014.5257,44536.8737,55769.518,-835.5975,-1570.2546,24724.2004
55008.7094,26990.9799,53104.7434,40858.3134,35745.6654,38073.8229,5661.6515,50006.9261,44540.897,55773.3625,-838.4138,-1565.8289,24727.2402
55026.7696,26994.3327,53102.8658,40870.294,35773.1134,38084.3282,5665.8983,50024.1369,44556.0068,55782.035,-819.996,-1547.3664,24733.4987
55043.5334,27000.1441,53105.6821,40885.5379,35792.0229,38091.6595,5671.4416,50053.2836,44566.4227,55790.8863,-803.2322,-1533.3742,24742.0818
55036.9173,27001.4852,53110.4654,40884.8226,35783.0375,38091.2572,5673.5426,50050.6461,44563.8299,55787.7123,-802.2487,-1539.9456,24741.2771
55012.5539,26983.6485,53104.341,40865.5107,35757.2436,38083.9705,5670.2346,50023.4216,44547.2896,55778.0564,-824.2875,-1560.0175,24736.0021
55016.7114,26983.1568,53100.7648,40867.3882,35752.7286,38083.5235,5668.7146,50019.3089,44552.0729,55775.6871,-829.7861,-1560.0175,24735.2868
55037.0514,26999.9653,53105.548,40882.7662,35781.2941,38091.2125,5671.7992,50049.7073,44563.0252,55784.0019,-807.479,-1543.2984,24741.0089
55047.0203,27006.4026,53106.755,40884.7332,35793.4088,38093.0901,5671.5757,50070.7179,44566.6462,55787.2206,-795.9902,-1535.1623,24741.4112
55036.4256,26997.6854,53104.6093,40876.776,35780.4,38088.8432,5667.4629,50057.3069,44561.8182,55782.2138,-809.2225,-1546.3829,24738.1479
55010.8105,26986.7331,53103.3128,40859.8334,35754.9191,38078.6955,5660.4892,50029.7695,44548.4072,55770.7697,-829.7414,-1564.6666,24728.0896
55010.8999,26985.7496,53107.0232,40859.3863,35748.9735,38079.9472,5657.047,50023.064,44540.3606,55769.3839,-836.3575,-1568.2429,24722.9934
55033.4305,26988.7447,53106.4421,40873.915,35778.0308,38090.8549,5659.4163,50044.1641,44546.2167,55771.7532,-821.65,-1554.6083,24725.765
55041.1195,26985.7943,53101.2118,40875.8819,35787.9996,38089.7373,5659.3716,50063.0736,44557.1691,55778.9505,-815.3468,-1548.6181,24730.593
55033.0728,26987.8507,53101.48,40870.3387,35775.9744,38087.1892,5660.221,50056.1893,44556.4538,55785.6113,-821.4712,-1556.0389,24729.0283
55022.0311,26981.9051,53098.3061,40860.191,35751.3428,38077.7568,5655.5271,50027.9367,44544.1604,55778.5928,-833.5412,-1569.2711,24724.558
55024.9815,26974.2608,53093.3887,40861.3533,35750.9404,38081.333,5656.4659,50023.7793,44539.3771,55773.5413,-835.7763,-1566.8571,24726.8826
55037.722,26982.3074,53098.7531,40881.1569,35777.8966,38091.749,5661.2939,50053.1942,44561.8629,55781.3644,-814.2292,-1546.3829,24737.8349
55050.8201,26991.4716,53102.9552,40888.7565,35793.2299,38094.7888,5663.1714,50073.3107,44577.1962,55789.4111,-802.1593,-1539.4092,24743.6464
55042.5947,26988.0295,53101.6141,40880.1734,35784.2892,38090.4526,5663.4843,50071.7461,44574.6928,55786.3712,-809.893,-1548.0816,24741.6794
55025.6968,26985.6155,53100.6306,40867.0753,35765.3797,38089.5585,5660.3104,50049.4838,44563.8299,55780.2916,-821.1583,-1559.0787,24738.8631
55018.1866,26981.5922,53100.5859,40866.8071,35762.0716,38089.335,5660.5786,50048.5003,44561.1477,55779.0846,-822.2759,-1555.9047,24739.6231
55031.3741,26982.7992,53102.0164,40875.3008,35782.8587,38098.7227,5666.6136,50071.4779,44569.5519,55784.8066,-807.4343,-1542.1808,24744.764
55046.4839,26984.632,53100.4071,40881.3804,35797.6109,38100.1532,5665.3619,50084.6654,44571.7871,55788.8746,-801.9358,-1540.1691,24742.9758
55043.9358,26981.4134,53100.273,40878.3853,35783.3952,38095.5487,5662.4115,50075.4565,44569.4178,55785.8795,-809.2225,-1546.9193,24739.2654
55024.6686,26975.289,53098.4849,40864.1696,35760.6411,38085.714,5657.5388,50054.3118,44553.4587,55777.7882,-834.4352,-1564.3537,24729.8777
55022.1652,26969.9246,53093.7463,40858.1346,35751.9686,38080.0366,5654.4989,50053.9541,44550.553,55774.5695,-845.1641,-1571.8192,24723.351
55035.6656,26978.6865,53096.7861,40868.9976,35775.0356,38089.5138,5658.567,50073.2213,44561.103,55781.5433,-828.892,-1557.7823,24727.0167
55045.9474,26987.5377,53098.9319,40876.5972,35795.6886,38090.0502,5660.2657,50084.9783,44573.307,55784.0914,-815.2574,-1548.3946,24730.8612
55031.1506,26983.8274,53102.0612,40868.0141,35777.0473,38083.6576,5658.9693,50080.9103,44569.1943,55779.7551,-817.8055,-1554.6083,24731.487
55020.4664,26978.3288,53104.9222,40865.2872,35752.1027,38086.3845,5660.4892,50071.9696,44548.7201,55779.7104,-831.4401,-1563.7279,24728.8942
55018.1866,26977.8818,53104.5645,40862.9179,35754.5167,38087.1892,5658.6117,50067.8122,44547.6472,55781.0515,-831.4401,-1562.655,24729.5648
55033.9222,26985.6155,53104.8328,40867.6565,35780.0424,38091.7937,5660.7127,50083.1455,44561.9524,55786.5053,-817.8949,-1549.8251,24730.28
55048.3614,26991.874,53104.8775,40877.5806,35791.8888,38099.5721,5662.8585,50096.2436,44571.7424,55790.931,-811.4129,-1545.6229,24730.1459
55043.444,26989.9964,53103.5364,40881.8275,35780.8024,38099.6168,5659.1481,50085.2466,44568.3002,55785.2089,-817.8055,-1556.3965,24731.2188
55013.895,26974.842,53097.412,40865.7342,35755.9919,38087.4127,5653.9178,50059.4527,44556.1856,55777.5199,-841.1855,-1576.6025,24723.1722
55011.5705,26975.4678,53098.8872,40862.3815,35748.6606,38085.4905,5650.565,50059.3185,44556.8115,55778.4587,-847.2204,-1578.9717,24722.7252
55030.5694,26983.425,53096.7414,40871.188,35772.9346,38091.1231,5651.3697,50080.1057,44566.5568,55785.5219,-831.306,-1565.2478,24729.7883
55040.0019,26982.1733,53092.5393,40876.1948,35788.9831,38095.3252,5649.9839,50092.2203,44568.6132,55786.5947,-822.3653,-1556.5306,24731.5764
55030.033,26980.7428,53094.8192,40870.6963,35777.8519,38089.4691,5649.9839,50084.9783,44566.5568,55785.6113,-828.7579,-1564.6666,24729.4307
55012.1516,26971.8915,53094.7298,40858.224,35745.129,38081.8248,5648.464,50065.4876,44555.4256,55777.8329,-848.4274,-1579.24,24723.6192
55010.8999,26973.322,53092.2264,40856.8382,35746.0231,38084.3729,5648.7769,50063.8783,44555.5151,55777.3858,-847.4439,-1572.7133,24723.1722
55026.9932,26975.9148,53091.1982,40873.0209,35774.8121,38091.3019,5651.6379,50092.8909,44576.4363,55784.9407,-824.1534,-1553.8931,24729.8777
55034.6822,26981.011,53095.5791,40887.4154,35793.364,38102.2543,5655.84,50111.264,44582.6501,55789.6793,-812.1282,-1543.4772,24734.2587
55022.5228,26977.703,53093.1652,40876.9101,35778.6119,38094.2076,5652.6661,50094.8131,44575.6316,55785.656,-822.857,-1555.5471,24726.7485
55007.2342,26976.2725,53094.2827,40867.1647,35756.1707,38090.989,5655.4824,50070.8967,44557.035,55781.0068,-839.3079,-1568.2876,24722.1887
55000.3499,26976.5407,53091.9135,40862.7391,35744.8608,38090.3631,5651.4591,50066.7393,44549.3907,55778.1905,-845.8346,-1573.8308,24723.2169
55023.4169,26978.0159,53096.1156,40873.2891,35771.1017,38097.0687,5654.2754,50087.8841,44566.8697,55789.4111,-830.6354,-1559.1234,24731.6658
55041.9688,26985.392,53098.7084,40883.1239,35787.0162,38098.3651,5659.014,50111.5769,44588.685,55801.3022,-814.4528,-1544.7289,24737.6114
55044.4275,26986.286,53100.8542,40886.0743,35784.8257,38097.7839,5665.0043,50107.5983,44588.2827,55799.7376,-819.4149,-1547.4558,24734.7057
55018.7677,26980.7428,53101.1224,40869.087,35763.5915,38091.4807,5661.8303,50083.2796,44572.413,55792.0933,-839.6208,-1562.2973,24729.9671
55008.2177,26976.943,53105.3245,40866.3154,35754.8296,38090.4078,5661.0256,50078.3622,44568.4344,55794.1496,-838.8162,-1563.2361,24729.7436
55025.5626,26980.6981,53107.7832,40876.5972,35782.1882,38096.1299,5663.6184,50097.1377,44580.4596,55796.0719,-824.064,-1546.6958,24733.1411
55041.4324,26991.0246,53106.9785,40885.6273,35798.3708,38098.231,5666.9265,50120.16,44593.2001,55796.0272,-812.5752,-1537.4422,24733.9904
55035.1739,26987.4036,53109.6607,40880.2181,35784.8257,38102.5225,5669.564,50114.7509,44596.0164,55798.62,-818.789,-1541.3314,24732.9175
55024.5792,26979.6252,53105.8162,40864.3037,35763.0998,38093.5371,5666.5689,50091.3709,44580.5043,55795.0437,-837.6092,-1559.3469,24728.8048
55024.0427,26979.0441,53106.2633,40864.0355,35763.4127,38090.4078,5667.2394,50086.6324,44578.8503,55795.8484,-834.4799,-1563.1467,24730.8165
55042.997,26989.2365,53110.1078,40879.3241,35785.2727,38099.438,5668.8935,50110.3699,44601.1573,55804.2973,-814.0504,-1547.3217,24734.8398
55054.0388,26990.3094,53111.3595,40883.7497,35801.2319,38098.2757,5665.4513,50125.8373,44606.9241,55807.2031,-808.1496,-1539.7668,24738.4608
55040.0466,26982.5757,53109.7949,40873.4232,35786.9267,38088.0386,5660.1763,50109.8782,44598.8327,55804.7444,-821.0242,-1545.8912,24738.282
55020.0194,26979.1782,53109.3031,40860.0569,35757.6013,38083.0765,5659.8186,50090.7004,44587.6569,55801.7492,-835.5528,-1558.6764,24730.8165
55020.0641,26986.0178,53112.8347,40867.88,35754.2485,38088.8879,5663.6631,50087.3029,44592.8872,55802.8221,-829.652,-1555.5471,24734.7951
55044.0252,26989.6388,53112.03,40884.3309,35774.0968,38095.7723,5665.0043,50108.403,44610.6791,55810.6452,-810.4295,-1541.3314,24743.9593
55056.5869,26991.9187,53108.5879,40888.8459,35787.9996,38090.8549,5664.6466,50115.5108,44612.7355,55808.6336,-804.9309,-1538.0234,24744.4063
55052.1165,26986.6437,53113.6394,40889.4718,35784.0657,38091.7937,5670.1899,50115.332,44607.3264,55812.031,-810.9659,-1540.3032,24744.451
55032.0446,26979.1335,53114.2205,40880.2629,35766.6314,38091.749,5673.1403,50097.9424,44599.9503,55806.4431,-825.4945,-1552.1944,24741.8582
55034.548,26987.5377,53113.3711,40883.3921,35762.6081,38098.9462,5673.0062,50103.4409,44593.4683,55805.7278,-827.5062,-1553.4908,24740.4277
55053.5023,26997.149,53114.2652,40900.0218,35792.4253,38112.4914,5674.839,50137.3261,44606.4323,55814.3556,-806.0485,-1540.0797,24744.451
55055.2458,26994.1092,53112.2088,40904.2686,35807.7139,38112.3573,5673.8555,50146.9374,44616.0436,55815.6967,-804.618,-1537.4422,24742.8864
55045.9027,26995.5397,53106.5315,40899.6642,35797.8791,38107.9763,5673.9002,50138.6672,44614.1213,55812.6569,-812.8434,-1545.3994,24739.0866
55025.0262,26992.3657,53103.5364,40881.7828,35767.0784,38099.125,5667.8206,50112.7839,44594.1389,55799.6929,-832.0212,-1558.3187,24730.9953
55021.0029,26987.9848,53108.6773,40883.8391,35762.2057,38102.0308,5669.3852,50108.403,44592.0825,55801.2575,-832.1106,-1555.5024,24730.0118
55029.273,26986.2413,53106.6209,40893.5398,35774.4992,38103.6848,5669.2511,50126.7761,44603.5713,55801.7045,-817.3585,-1546.4723,24732.2917
55041.2089,26986.6437,53107.4256,40897.6972,35787.5079,38102.0755,5668.1782,50135.8956,44611.1709,55805.9961,-810.1165,-1538.6045,24736.0468
55035.0398,26982.0839,53108.6773,40895.4173,35781.9647,38101.4943,5666.9712,50120.1153,44596.9999,55803.4927,-819.1913,-1542.7619,24735.3762
55014.6997,26971.8915,53106.8891,40880.0393,35761.4905,38098.3651,5664.9595,50097.0483,44580.8619,55796.7871,-834.167,-1556.4412,24734.1245
55013.3586,26974.7078,53107.3809,40873.915,35755.5896,38098.0521,5666.8818,50098.8364,44584.9746,55797.413,-836.2681,-1554.653,24733.8563
55037.9902,26991.9187,53114.3546,40892.7798,35784.6469,38111.6867,5669.6981,50121.0541,44600.6656,55811.6734,-817.9843,-1536.6822,24741.0089
55048.0485,26998.4007,53112.1194,40899.6195,35791.2183,38112.9831,5668.1335,50140.9471,44606.5217,55812.8804,-811.0553,-1534.0447,24741.2324
55037.6773,26995.2267,53110.5101,40896.1326,35777.8966,38107.1717,5664.7807,50142.3329,44604.1524,55809.5723,-815.928,-1538.7386,24742.6182
55021.0029,26992.321,53106.1739,40885.2696,35746.6042,38102.8354,5658.1646,50114.7509,44586.271,55798.4412,-828.9814,-1555.3683,24737.1644
55021.6734,26987.9848,53100.5859,40883.8391,35743.0726,38103.0589,5656.0636,50113.9015,44582.8289,55793.7026,-829.4284,-1560.7774,24738.5949
55047.9591,26990.4882,53099.8707,40896.9373,35763.815,38111.1503,5658.1646,50137.5943,44596.9999,55803.0009,-814.5869,-1542.3596,24745.3004
55055.0222,26993.7515,53098.0378,40902.704,35781.607,38111.9102,5660.3998,50143.9422,44601.5596,55801.2575,-806.4955,-1533.106,24745.211
55047.8697,26996.1655,53099.0213,40896.669,35775.0803,38107.8422,5661.428,50135.985,44593.6918,55796.0272,-814.4081,-1538.381,24741.4559
55030.8377,26988.3871,53096.8755,40882.051,35748.75,38098.3204,5659.9528,50112.2475,44571.6977,55786.55,-829.9649,-1548.8416,24734.661
55018.2313,26980.2511,53093.8357,40872.9315,35747.1853,38093.0901,5657.0917,50103.7538,44562.3994,55779.621,-833.0047,-1555.0554,24729.2072
55028.2001,26980.4299,53096.1603,40876.5525,35766.4078,38097.6945,5655.84,50126.8208,44577.0174,55785.1195,-817.2244,-1546.6064,24731.1741
55038.0796,26977.1218,53096.3838,40880.5311,35781.0706,38095.1017,5656.1083,50133.9287,44576.928,55790.3051,-818.029,-1543.4325,24733.1411
55023.6851,26972.8303,53097.5908,40874.8984,35770.5653,38089.335,5658.6117,50121.1435,44563.8299,55789.9922,-824.824,-1550.9874,24732.5599
55003.0768,26970.1481,53094.6404,40859.7887,35750.0464,38079.3214,5661.428,50093.6508,44553.3246,55783.8231,-836.3575,-1561.5821,24731.4423
54994.3596,26968.4941,53095.1768,40858.4923,35748.8841,38075.4769,5662.2773,50065.1747,44545.0544,55780.381,-841.6325,-1562.8785,24732.4705
55003.8815,26973.0985,53099.6472,40867.3882,35770.5653,38084.3729,5663.7079,50070.3603,44547.4237,55792.138,-825.9416,-1551.2109,24735.9127
55008.7541,26976.4513,53102.0164,40871.4116,35778.5672,38083.3,5667.1053,50083.2349,44548.3178,55798.9329,-817.135,-1546.2488,24739.489
54994.8514,26976.8089,53097.1438,40865.6448,35765.782,38075.611,5668.2676,50068.3933,44535.3091,55788.7405,-825.3604,-1553.3119,24738.2373
54979.8757,26981.8157,53099.2448,40858.8052,35751.9686,38067.4303,5674.2132,50044.2535,44525.7872,55784.1808,-837.341,-1565.7395,24736.4491
54976.9253,26990.7564,53106.3527,40863.1414,35752.9074,38068.9949,5682.7515,50028.0708,44525.2955,55786.9971,-833.8094,-1561.4033,24740.7407
54981.7532,26994.9138,53105.4139,40870.0705,35770.8782,38077.5779,5685.9702,50036.2962,44531.8222,55784.7619,-817.4926,-1544.2371,24746.1945
54998.6511,27005.9556,53104.4304,40885.4932,35793.1405,38084.4176,5691.7816,50050.1543,44530.4364,55782.7055,-803.5004,-1534.5365,24751.0225
54993.242,27011.9011,53106.755,40883.8391,35785.8986,38078.9638,5690.8876,50028.339,44527.173,55782.1244,-807.6131,-1541.1526,24748.9214
54969.0127,27010.4259,53104.2963,40871.3669,35761.4458,38076.1474,5686.6407,49991.5928,44510.2751,55772.692,-824.6452,-1554.5189,24741.1877
54958.865,27009.2636,53104.7881,40868.2823,35759.9705,38077.7121,5688.4289,49987.2118,44502.2285,55767.7746,-828.892,-1556.0836,24737.6114
54983.2731,27019.2772,53109.0796,40877.983,35777.4049,38086.2951,5691.9605,50006.6131,44507.9505,55775.5083,-814.8998,-1543.5219,24739.3101
54998.2041,27028.2626,53108.4538,40884.1521,35793.9899,38086.7422,5692.0499,50012.961,44506.6094,55778.0117,-805.6462,-1538.4257,24739.8466
54983.899,27030.3637,53107.0232,40884.6438,35778.7907,38086.6528,5691.2452,49996.4207,44498.0264,55768.311,-810.7424,-1547.9028,24738.7737
54969.3704,27018.249,53107.3809,40868.8188,35750.9851,38076.9968,5687.9818,49968.9281,44486.0458,55759.2362,-827.7297,-1563.9067,24734.0351
54966.4646,27016.3715,53113.5947,40866.7624,35747.4983,38080.5731,5689.2782,49962.9825,44487.074,55761.7396,-830.1437,-1562.5656,24736.2703
54985.3295,27023.3899,53113.9523,40885.0461,35767.9725,38089.7373,5692.5863,49984.2614,44503.2567,55770.4121,-815.1233,-1543.7901,24741.3218
54989.7552,27019.5007,53110.5995,40890.2317,35777.4496,38091.6595,5687.5348,49992.8445,44499.2334,55765.3159,-809.3119,-1541.242,24739.489
54981.1721,27011.5435,53112.79,40881.2463,35762.6528,38086.2057,5682.8409,49983.1885,44486.8058,55760.2644,-816.8221,-1549.3333,24736.9856
54963.9165,27001.8429,53106.1292,40876.776,35740.1222,38081.1542,5682.8409,49951.762,44469.8185,55753.0671,-824.6452,-1559.3469,24736.7173
54967.0905,27002.6475,53101.7929,40879.0112,35735.2048,38081.5119,5686.1043,49936.384,44472.1878,55752.3072,-819.6831,-1560.5092,24740.0254
54982.6473,27010.2024,53100.1389,40885.4932,35758.8977,38088.4856,5687.0878,49953.7736,44484.6153,55751.6813,-805.6015,-1549.6016,24743.7358
54999.5005,27017.5785,53105.548,40898.5913,35779.5954,38098.0074,5692.0499,49970.7162,44492.0808,55754.9,-796.2584,-1537.4422,24746.3286
54994.6278,27010.0683,53105.9951,40894.7021,35767.749,38094.9229,5691.6922,49962.4461,44486.8058,55754.5871,-801.0864,-1539.6774,24746.6862
54973.0808,26998.9818,53100.0048,40877.2677,35737.4847,38085.5352,5686.6407,49939.2003,44469.1926,55748.0603,-817.4926,-1555.1001,24737.6561
54972.142,27000.5465,53101.48,40875.4796,35732.6567,38082.4506,5686.149,49927.7115,44467.2704,55749.625,-817.9396,-1554.1613,24738.9078
54992.348,27007.7437,53105.2351,40888.533,35749.6887,38088.6197,5687.9371,49944.073,44483.4083,55758.1186,-802.7405,-1542.002,24744.8981
55013.1798,27011.5435,53104.9669,40896.7137,35766.0502,38089.7373,5688.1607,49957.8863,44491.455,55763.0807,-796.7055,-1537.621,24747.3121
55005.4908,27011.5435,53107.4703,40891.2152,35755.8131,38084.06,5686.6407,49946.5317,44491.3208,55762.9466,-804.3051,-1543.5219,24749.5919
54977.7746,26994.3774,53106.0398,40875.122,35723.0455,38074.9851,5680.3375,49915.1498,44483.3636,55757.001,-820.9795,-1557.2459,24743.6464
54978.9816,26993.0363,53104.654,40868.2823,35719.1116,38074.0017,5679.7117,49906.0303,44480.1897,55756.8222,-822.7676,-1557.7823,24743.9593
55003.5238,26997.0149,53104.3857,40877.8936,35738.0211,38077.3097,5679.6223,49925.8786,44486.8952,55764.2877,-813.4246,-1547.2323,24745.7922
55013.7162,27004.4804,53104.7881,40882.498,35749.197,38079.8131,5680.7846,49942.106,44498.6522,55771.0826,-808.2837,-1539.9903,24747.3568
55017.6054,27008.7719,53107.4703,40881.7828,35745.7548,38080.0366,5685.1655,49938.3509,44499.2334,55768.7134,-807.7919,-1543.2537,24748.1167
54999.8581,26998.7583,53106.755,40867.3882,35721.3467,38070.8277,5681.5892,49913.1382,44484.973,55763.036,-825.271,-1561.0904,24740.2042
55002.0933,26996.5678,53111.136,40873.2891,35725.9512,38077.6674,5684.5844,49918.4132,44486.4929,55768.0875,-826.5227,-1559.4363,24743.1099
55021.9864,27003.4522,53108.2302,40880.7099,35752.9074,38086.4739,5682.7515,49942.6425,44504.1507,55773.3178,-806.272,-1544.416,24748.4297
55027.4849,27001.7534,53105.3245,40880.3523,35761.2669,38079.1873,5682.2151,49949.3033,44506.3412,55767.3723,-799.6112,-1538.3363,24747.5356
55024.1768,26999.4289,53102.687,40870.8751,35747.2748,38078.9638,5680.2928,49946.9787,44501.1109,55763.2148,-813.2458,-1546.1594,24743.1099
55009.3353,27001.3064,53106.9785,40861.6215,35728.097,38076.2815,5678.6388,49927.5774,44493.109,55767.6405,-826.4333,-1557.38,24743.3782
55007.1001,26998.4454,53106.3527,40865.3766,35724.3866,38075.2534,5682.7962,49926.7727,44489.5774,55765.0477,-826.3886,-1558.7658,24745.4792
55020.8688,26998.5795,53103.894,40870.7857,35743.922,38075.4769,5679.7564,49939.9602,44502.2285,55768.2216,-816.8221,-1545.0865,24745.3004
55025.965,26998.4007,53100.6306,40873.4679,35750.3146,38074.3593,5675.8225,49951.2702,44502.5861,55772.8261,-811.86,-1542.3149,24744.1828
55016.5325,26993.5727,53100.6306,40870.3387,35748.2582,38072.0794,5674.6155,49935.177,44491.3208,55765.0477,-820.1748,-1549.0204,24738.3714
54998.2488,26982.8439,53101.1671,40862.1579,35729.7957,38066.9385,5676.0013,49905.315,44481.039,55757.1352,-837.0727,-1560.1516,24733.2752
54985.1507,26981.8157,53099.9154,40857.9111,35721.2573,38067.162,5675.3308,49906.7456,44482.6484,55758.8339,-835.1505,-1555.5471,24736.7173
55001.7357,26985.1685,53096.5179,40867.1647,35743.162,38074.3146,5675.0625,49935.7134,44496.7747,55761.6055,-820.3983,-1544.863,24740.0701
55012.7774,26991.9634,53094.238,40874.0044,35756.1707,38078.6061,5674.2132,49958.1099,44500.6192,55762.9019,-809.4013,-1536.5034,24741.3218
55006.1613,26992.768,53094.9086,40873.5126,35745.7548,38082.4059,5674.7049,49959.2274,44497.4452,55763.7513,-814.0057,-1544.1477,24737.9243
54979.9204,26985.6155,53094.5957,40860.5933,35719.4245,38079.2767,5669.117,49951.4937,44488.5045,55760.3538,-829.7414,-1558.5423,24735.7786
54976.4335,26986.5543,53091.1982,40857.017,35720.0056,38076.9968,5665.3172,49945.9952,44489.8456,55755.8835,-833.8988,-1560.6433,24737.1197
54993.7785,26989.013,53088.5607,40863.8567,35749.7334,38076.7733,5667.6865,49968.7493,44501.1556,55757.6716,-818.029,-1548.7075,24737.969
55000.2605,26999.0265,53092.137,40874.2279,35756.2602,38083.0765,5672.2015,49984.8872,44504.8213,55755.3917,-805.6462,-1542.4937,24737.969
54994.9855,26997.0149,53090.2594,40869.6234,35740.1669,38078.472,5668.804,49972.1467,44497.3558,55751.4131,-817.6267,-1550.7191,24735.7786
54984.3013,26990.22,53087.4431,40861.5321,35718.0387,38076.9074,5664.1549,49942.553,44495.7018,55751.5472,-836.0893,-1557.7376,24733.454
54984.659,26995.0032,53086.102,40862.3815,35714.373,38082.9871,5661.5621,49937.0545,44487.1634,55745.557,-841.8113,-1563.8173,24732.694
55006.9213,27004.9274,53088.6501,40869.3105,35742.4468,38089.7373,5662.8585,49961.9991,44501.1556,55753.1118,-828.3108,-1556.5306,24733.9457
55012.7774,27004.7486,53085.1185,40871.3222,35752.9074,38084.954,5657.4494,49979.1205,44508.3976,55751.1002,-828.132,-1556.0836,24728.8048
55001.1992,26999.6971,53082.3469,40862.9179,35739.7199,38083.1659,5649.9839,49975.4995,44499.9039,55745.8252,-837.7433,-1564.4878,24722.7252
54983.6308,26990.0858,53084.9844,40855.3183,35718.441,38078.6061,5653.0684,49953.1031,44490.0244,55743.4112,-845.2088,-1574.0991,24721.9205
54985.6424,26987.0013,53086.9961,40856.0783,35715.8035,38073.2864,5656.6,49951.8514,44491.5444,55746.5404,-842.4819,-1570.7016,24725.6309
54996.5948,26989.0577,53088.1137,40868.327,35739.2281,38076.6839,5656.7341,49975.9465,44508.1741,55753.1118,-830.6354,-1560.7774,24728.2237
55007.9942,26990.1305,53086.7279,40874.1385,35758.7636,38076.9074,5661.3833,49986.8989,44520.2887,55759.2362,-820.8901,-1552.6414,24732.5599
55000.3052,26981.5475,53082.5704,40859.9675,35748.1688,38068.9949,5660.1763,49972.3703,44507.1459,55753.0671,-829.4284,-1561.8056,24729.2519
54987.6541,26978.7312,53085.7891,40856.4806,35733.372,38065.2845,5663.082,49951.8514,44493.7348,55746.8086,-841.8113,-1571.1486,24729.1625
54982.5579,26977.2112,53087.8007,40850.2668,35731.1815,38057.819,5661.3386,49943.6706,44494.9418,55748.3733,-841.5878,-1573.0709,24730.3694
54994.2255,26977.2112,53087.1302,40852.2338,35738.0211,38056.7014,5657.5388,49962.8931,44514.7455,55760.3538,-831.3507,-1559.4363,24732.4705
55002.4062,26978.8206,53088.6054,40851.742,35756.9754,38055.6732,5655.9294,49979.1205,44519.797,55764.5112,-825.8522,-1555.1895,24732.5599
54989.4869,26976.1831,53084.7609,40840.7003,35747.99,38049.9512,5652.7108,49965.5306,44514.0749,55759.1468,-833.2729,-1562.2079,24728.3131
54977.1488,26972.3386,53084.6715,40833.6371,35722.7325,38047.0902,5656.153,49940.3179,44506.2071,55756.4646,-847.4886,-1570.9251,24726.3014
54978.0875,26965.5883,53086.6832,40829.3009,35713.8813,38048.1631,5660.7574,49943.0895,44508.487,55763.7066,-850.1709,-1567.7065,24729.2966
54994.0467,26970.3716,53084.3139,40833.0113,35740.4798,38054.3321,5660.6233,49965.7989,44517.6959,55768.311,-839.3973,-1559.7939,24727.1061
55001.7804,26976.1384,53084.1798,40842.6225,35761.5799,38061.1271,5667.3288,49984.4402,44531.5093,55776.0447,-824.7346,-1546.2488,24732.7387
54993.8232,26979.9381,53086.4596,40844.053,35755.5449,38059.3389,5673.1403,49978.8523,44533.5209,55776.4024,-823.8405,-1550.6297,24737.3879
54981.2615,26974.6631,53088.3372,40834.3077,35736.233,38055.9415,5675.4649,49956.5452,44520.3781,55771.3062,-837.9221,-1560.4198,24734.3928
54983.8096,26973.5008,53092.4499,40833.1454,35737.7529,38064.0775,5678.9964,49960.345,44516.8912,55773.7648,-839.3973,-1559.0787,24736.315
55001.7357,26982.3074,53097.0097,40846.6458,35766.7208,38069.129,5682.1704,49985.6919,44525.2061,55780.8727,-822.8123,-1542.449,24739.6678
55017.8736,26992.321,53100.8989,40860.5933,35782.6799,38073.9123,5686.0149,50001.1146,44536.5608,55786.0136,-807.3002,-1531.139,24744.764
55013.5821,26993.8856,53100.3177,40862.7838,35773.2922,38081.6013,5689.9935,50001.651,44533.0739,55784.9407,-815.7492,-1536.2799,24744.6299
54991.141,26987.0907,53098.7531,40853.5302,35749.3758,38078.6061,5688.2501,49981.9815,44524.1779,55779.174,-832.4683,-1551.2556,24739.2654
54987.8776,26984.4085,53096.7861,40847.3611,35739.4964,38074.7616,5684.0032,49970.2692,44515.8184,55767.9981,-839.7102,-1562.4762,24733.1411
55002.7192,26986.7778,53097.6355,40855.4524,35761.3564,38080.4837,5682.6174,49996.2866,44530.5258,55773.0496,-822.6335,-1547.6793,24737.2538
55016.2643,26988.0742,53095.7133,40868.8188,35778.6119,38081.2436,5682.528,50011.9776,44536.4714,55771.7532,-811.4576,-1538.4704,24741.0983
55003.0768,26981.0557,53088.6948,40863.6332,35762.5186,38074.7169,5678.5047,50001.0252,44522.2557,55766.9699,-820.2642,-1547.8134,24736.4044
54979.3839,26975.8254,53083.7327,40851.2503,35734.1319,38067.8773,5674.6155,49976.8406,44510.6328,55764.8242,-837.2515,-1562.4315,24729.5648
54977.5511,26972.0256,53082.9728,40848.1658,35731.405,38065.6421,5670.8157,49961.4626,44508.3082,55755.1682,-835.5528,-1564.9348,24727.8661
54992.4821,26980.0276,53084.0904,40854.4242,35758.8977,38071.9006,5670.011,49983.3673,44521.898,55759.0574,-818.2526,-1551.2109,24731.7553
55001.2439,26984.5873,53084.1798,40862.8285,35774.0968,38077.8462,5669.117,49999.3265,44532.4481,55765.003,-812.4858,-1547.9028,24729.9224
54984.8378,26985.4367,53085.2526,40856.4806,35761.8481,38072.6606,5668.8935,49995.4373,44524.8932,55762.1419,-826.1651,-1554.966,24727.5531
54969.3257,26984.0956,53082.794,40847.1823,35733.0143,38067.7879,5668.0888,49971.5209,44511.2139,55753.2459,-845.2088,-1566.8124,24723.2169
54968.0293,26979.4464,53081.0505,40841.3708,35726.0406,38064.6586,5664.0208,49961.2391,44506.7883,55750.2508,-850.305,-1572.0427,24721.2946
54994.1361,26983.0227,53085.4762,40854.8266,35754.2038,38072.1241,5666.1218,49982.8756,44523.4179,55761.9184,-833.3176,-1555.2342,24723.9321
55012.241,26990.8458,53087.9349,40867.0306,35767.8831,38077.9803,5669.6534,50005.9426,44535.0856,55767.9534,-816.7326,-1549.0651,24726.1226
55002.0933,26992.4551,53090.6618,40867.0306,35763.9045,38077.7568,5671.5757,50000.6229,44534.415,55765.9864,-825.3157,-1554.206,24725.2285
54982.0662,26984.4085,53090.7959,40854.7819,35742.6703,38070.783,5670.4581,49979.8805,44525.966,55764.0642,-840.9172,-1562.4762,24724.7368
54979.071,26984.7661,53089.7677,40846.3776,35734.1319,38068.5031,5667.0606,49971.7444,44525.2955,55761.1138,-843.8677,-1566.1865,24723.3063
54992.3927,26985.4367,53088.2031,40855.3183,35749.0629,38074.0464,5666.5689,49988.1506,44533.6998,55762.8572,-826.2992,-1556.3071,24726.1673
55001.3781,26984.9449,53085.7891,40862.2921,35763.3233,38072.1688,5664.5572,50002.4557,44536.0243,55759.9962,-820.5771,-1550.5403,24726.5249
55002.3168,26978.6865,53091.8688,40857.777,35763.5915,38068.9502,5666.8818,49997.6277,44536.9631,55762.4102,-825.271,-1556.2624,24728.5813
54987.2518,26971.7127,53091.2429,40840.9685,35740.0328,38058.9813,5668.2229,49982.2497,44526.9495,55763.7066,-842.7501,-1569.0029,24724.4686
54979.4286,26966.4377,53085.7444,40832.4748,35729.9745,38060.0095,5664.736,49975.8124,44521.5851,55759.728,-848.6509,-1571.6851,24720.7135
54998.0253,26973.0985,53086.9961,40849.8645,35756.7072,38069.576,5671.1286,49997.8513,44539.6453,55764.6453,-831.5742,-1558.0058,24725.2285
55007.2342,26977.3901,53090.1253,40856.7935,35767.9725,38071.0959,5670.5475,50003.8862,44547.5131,55774.8377,-822.857,-1545.5782,24728.7154
55004.6414,26978.9547,53091.7794,40849.9539,35755.1873,38065.508,5665.0937,49997.5383,44540.897,55778.5034,-830.099,-1550.2721,24726.9273
54991.9456,26978.9547,53092.5393,40841.0132,35734.3554,38061.3506,5664.5572,49982.9203,44538.1254,55774.2119,-844.2253,-1558.274,24726.0779
54985.3295,26973.4561,53090.483,40838.331,35729.8404,38060.0542,5665.2278,49976.6171,44535.3538,55775.5083,-846.8628,-1562.2526,24727.1508
54994.3149,26975.4678,53086.6385,40852.1891,35759.3447,38068.1902,5666.3454,49999.3712,44546.2614,55775.7765,-829.5178,-1551.2556,24725.8991
55001.2887,26976.0489,53080.6035,40853.2619,35773.7839,38068.1008,5661.6068,50018.0125,44549.9271,55777.2517,-823.1699,-1548.8416,24725.318
54989.0846,26971.4445,53077.3848,40844.1424,35761.8928,38056.2991,5657.5835,50000.2205,44537.4995,55777.6093,-834.6587,-1561.895,24719.5065
54966.554,26959.2851,53077.2507,40829.8373,35732.3438,38047.4031,5652.6661,49975.0525,44515.0137,55768.6687,-850.5285,-1576.2895,24713.5162
54961.9943,26957.2288,53079.173,40829.7479,35729.0804,38054.5557,5653.3813,49969.241,44517.5618,55769.1157,-854.5071,-1576.066,24714.4997
54982.3791,26962.4591,53080.38,40843.5613,35752.1474,38059.1601,5655.3483,49994.4091,44530.5258,55774.1225,-844.5382,-1562.4315,24717.8078
54999.0088,26966.6165,53080.4247,40849.3727,35769.0454,38059.4283,5656.5553,50011.307,44537.8572,55771.7085,-829.7414,-1556.3518,24716.0196
54984.5248,26958.9275,53077.8319,40844.5001,35755.0979,38055.0027,5653.5155,50011.307,44534.1468,55767.6852,-832.96,-1563.102,24714.7679
54960.9661,26952.8031,53070.9028,40828.988,35733.2826,38052.4099,5649.4474,49991.7269,44524.4461,55759.3256,-851.0202,-1580.5364,24709.4482
54960.7426,26951.4173,53070.6793,40826.6187,35724.6995,38056.9249,5651.1909,49980.9086,44529.9447,55760.0856,-856.0717,-1583.4868,24708.8671
54981.8873,26958.7934,53076.6249,40839.985,35747.99,38064.0328,5654.4989,50009.3848,44546.0379,55767.0593,-837.8327,-1568.6005,24717.8078
54985.866,26961.0286,53081.8105,40851.1162,35765.5138,38066.5362,5656.3765,50030.1719,44550.0612,55769.0263,-827.7297,-1558.2293,24721.8758
54971.8738,26955.53,53081.4976,40846.2435,35752.2368,38060.2777,5653.2472,50022.3488,44536.7843,55761.9184,-842.1242,-1564.8901,24717.6737
54962.5754,26959.5981,53086.0126,40843.6507,35745.6207,38063.4069,5657.6729,50012.7375,44531.6881,55767.864,-852.7637,-1569.0029,24718.1654
54963.5589,26959.4193,53086.0573,40838.3757,35738.3788,38067.8773,5656.9576,50009.8318,44537.7231,55768.0875,-854.5518,-1568.2876,24713.8292
54983.0943,26965.8566,53084.6268,40848.0316,35762.1163,38070.9618,5656.8235,50031.2001,44555.6492,55772.4684,-836.8939,-1559.1234,24715.8855
54992.8844,26978.1053,53085.8338,40860.8615,35782.367,38075.7004,5661.7409,50048.1874,44571.206,55776.1341,-828.9814,-1552.552,24718.7465
54988.5482,26974.4843,53087.309,40856.3018,35767.4807,38074.1358,5661.428,50045.0134,44565.3945,55771.5744,-833.8094,-1556.62,24717.4054
54972.9466,26968.7623,53088.8736,40844.9471,35739.4516,38071.0959,5662.635,50026.685,44550.0165,55767.8193,-847.0863,-1573.5179,24714.9467
54969.0574,26963.5767,53090.93,40843.6954,35730.6451,38068.3243,5661.2045,50029.1884,44545.5909,55761.9631,-851.4673,-1576.2448,24713.1139
54989.7999,26972.428,53092.0029,40856.8829,35763.6362,38080.9307,5663.842,50057.5751,44567.4956,55767.9981,-834.4352,-1561.2245,24719.2383
55001.8698,26974.6184,53086.9961,40863.2755,35779.3719,38085.8034,5663.9761,50066.7393,44568.032,55772.379,-825.3157,-1556.5306,24719.3277
54997.7571,26977.0324,53087.309,40855.9889,35770.2523,38081.6907,5663.4396,50057.0387,44553.861,55772.0214,-830.8589,-1565.8289,24715.8408
54976.97,26974.7525,53086.549,40844.813,35749.5099,38075.2981,5661.5174,50033.0776,44544.7415,55764.6453,-849.2321,-1574.5014,24712.8904
54971.1585,26969.7458,53081.7211,40842.0861,35745.9784,38073.4205,5658.3434,50015.9115,44545.7697,55758.6104,-850.4391,-1574.3226,24711.9963
54995.2537,26980.9663,53082.8834,40857.2406,35772.2193,38083.8364,5657.8964,50047.8297,44563.0252,55766.8805,-832.8706,-1560.688,24719.8194
55004.2838,26978.9994,53082.2575,40861.2639,35777.0026,38086.7422,5656.6,50060.1232,44566.7356,55769.2945,-825.6286,-1553.9825,24723.7533
54997.6677,26972.3386,53077.5636,40852.1891,35756.4837,38074.5381,5648.9557,50048.3662,44548.9436,55759.9068,-839.1738,-1572.445,24714.7679
54981.7532,26959.464,53073.0039,40834.9335,35730.958,38065.7315,5639.3892,50024.9416,44530.0788,55750.7873,-856.9658,-1585.9455,24708.5541
54973.796,26952.5796,53073.0039,40829.0774,35723.9842,38063.854,5638.361,50020.0689,44528.6483,55746.7192,-861.302,-1581.5645,24708.3306
54997.6677,26955.7983,53073.0486,40845.4835,35747.4983,38069.6654,5639.6127,50046.3992,44546.4402,55752.6648,-849.0086,-1571.0592,24711.7728
55001.7357,26956.6029,53075.8202,40843.6954,35760.0152,38066.5362,5642.3396,50062.2243,44557.929,55765.1818,-842.5266,-1569.8522,24711.1917
54996.416,26956.4688,53076.4014,40840.5215,35760.507,38062.9599,5643.6807,50048.5003,44554.9339,55759.9515,-847.8463,-1580.3576,24704.7991
54981.8873,26942.6107,53070.0982,40824.8305,35733.7743,38054.7792,5636.2599,50027.5791,44533.968,55751.1449,-870.8239,-1597.7025,24695.6348
54973.0361,26942.4319,53072.3333,40822.0142,35722.2408,38057.4614,5634.4718,50025.6121,44535.8902,55750.4296,-873.1484,-1597.8366,24696.6183
54984.659,26950.8809,53075.6414,40838.9121,35751.2534,38058.266,5638.1822,50043.4488,44550.4189,55760.3985,-851.1096,-1575.3955,24705.7378
55002.8533,26954.2336,53075.8202,40849.9986,35759.1659,38057.4167,5636.394,50060.302,44558.3314,55766.3888,-844.8064,-1569.2264,24707.526
54996.9524,26948.0199,53070.724,40842.4884,35743.922,38060.0095,5633.7118,50059.1397,44550.2847,55763.6172,-855.7141,-1578.3906,24704.8885
54970.0856,26940.8673,53065.9407,40829.6585,35717.9493,38057.2379,5630.0014,50042.2865,44539.3771,55754.8106,-871.9862,-1596.0038,24701.1781
54959.9379,26934.6088,53062.2303,40821.5672,35712.2272,38051.7393,5626.6487,50035.0893,44538.6618,55748.2839,-875.0707,-1600.3847,24700.6416
54980.725,26940.2415,53068.8018,40835.8723,35745.1737,38058.3555,5631.2531,50056.8599,44554.6657,55758.5657,-857.1893,-1586.7054,24708.4647
54992.9738,26935.9946,53067.3712,40843.606,35755.3661,38058.1319,5631.119,50074.1154,44555.6492,55761.4714,-851.2884,-1579.3294,24708.2412
54977.3276,26923.1647,53058.9223,40835.4253,35736.8588,38048.2078,5626.0228,50064.5489,44551.6258,55751.1002,-860.0503,-1584.7832,24703.1897
54956.004,26920.7954,53063.4373,40819.1532,35717.6363,38043.2457,5624.5029,50040.2302,44530.8387,55743.59,-878.2893,-1599.1777,24696.3054
54967.0905,26934.5641,53069.8746,40823.1765,35717.4575,38051.7393,5629.1074,50043.9852,44535.622,55744.037,-879.0493,-1598.0601,24695.769
54986.5365,26938.8109,53068.1312,40841.8626,35742.1339,38064.0775,5633.9353,50062.4925,44556.4091,55749.1779,-857.681,-1582.8162,24704.0391
54990.2022,26947.8858,53064.3314,40854.1113,35754.1591,38070.1125,5636.1705,50081.1785,44559.7172,55750.832,-844.0465,-1569.0476,24706.4978
54977.864,26948.8245,53065.7172,40851.2056,35747.1853,38066.8938,5638.5845,50075.0095,44552.8328,55753.3354,-848.0698,-1573.1603,24708.0177
54968.2975,26950.1209,53068.1312,40842.5778,35731.405,38062.0658,5639.7468,50061.7772,44543.6686,55753.4248,-868.3205,-1584.9173,24706.1402
54967.3587,26949.0927,53066.8348,40836.5875,35726.8453,38059.0707,5636.5728,50062.6713,44536.6502,55746.5404,-874.8025,-1587.9124,24700.3287
54983.0049,26955.4406,53068.1312,40849.2833,35748.8841,38066.8044,5641.0432,50078.9881,44551.6706,55754.9894,-854.2389,-1574.1438,24706.8107
54986.8047,26954.7701,53068.5335,40851.7867,35757.9142,38068.9502,5641.4902,50085.7383,44562.6229,55763.5725,-846.4158,-1567.7065,24710.4317
54975.5841,26944.7565,53065.5384,40842.4884,35740.6139,38060.9035,5639.4786,50073.7578,44554.3081,55757.4034,-858.0387,-1572.9368,24708.0624
54967.0011,26936.084,53067.103,40830.2397,35720.4974,38055.2709,5637.8692,50058.5586,44544.6968,55754.4529,-869.0357,-1585.0961,24704.1732
54962.2178,26935.8158,53071.8863,40827.4233,35723.8501,38053.5722,5637.2881,50056.5022,44545.1885,55758.208,-870.4215,-1586.3925,24705.0673
54977.9087,26940.152,53068.6229,40843.2931,35743.2514,38060.68,5638.7633,50080.0163,44559.7172,55761.4267,-854.1495,-1576.2448,24708.7777
54994.2702,26949.8974,53070.0535,40858.8946,35757.6907,38068.369,5640.5962,50095.7966,44561.4606,55762.9466,-840.2467,-1566.6783,24714.455
54983.1837,26946.0976,53066.6113,40861.1745,35750.3593,38063.1387,5638.808,50085.1125,44553.7269,55759.0574,-846.1922,-1570.2546,24710.6999
54958.6415,26940.5991,53062.9456,40850.6244,35725.8618,38055.2709,5636.8411,50068.0357,44548.8542,55751.726,-862.6431,-1583.4421,24707.213
54968.6998,26946.0976,53066.5219,40851.0715,35732.2991,38063.7199,5642.9654,50059.5421,44547.7813,55753.1118,-859.5139,-1582.1457,24709.3588
54991.0069,26947.9752,53064.0632,40856.6594,35752.6839,38065.2845,5641.7137,50077.6023,44563.8746,55760.2644,-845.0747,-1575.1719,24710.8787
55007.4577,26952.4008,53064.4208,40864.7954,35760.4623,38066.1786,5642.5184,50093.3826,44579.4314,55765.8076,-840.0232,-1567.1253,24711.3258
54989.934,26950.0762,53061.1575,40857.9111,35751.164,38061.2612,5640.1938,50087.0347,44571.4295,55761.1585,-845.6558,-1576.5578,24707.8836
54972.7231,26945.6059,53059.7717,40844.2765,35728.4099,38058.4002,5638.6292,50070.4497,44552.654,55754.0953,-858.9774,-1589.2982,24703.7709
54968.3869,26935.8158,53057.2683,40837.2581,35723.6266,38054.4662,5637.0646,50060.4361,44549.0777,55749.312,-865.9512,-1588.0466,24700.9546
54987.3412,26941.4932,53061.6492,40849.5963,35751.8345,38059.9201,5641.7137,50087.2582,44569.999,55755.8835,-849.0086,-1573.6073,24707.213
55002.8533,26951.9985,53069.2488,40866.4495,35765.5138,38072.75,5647.9722,50105.4972,44584.7064,55773.4072,-835.5081,-1563.3702,24715.8855
54990.9621,26941.9402,53065.0914,40854.7372,35752.0133,38068.682,5645.4241,50093.6508,44572.6812,55766.3888,-848.4274,-1571.2827,24714.2315
54978.4452,26945.74,53067.7736,40843.3825,35736.3671,38064.7033,5646.8546,50083.5925,44564.5899,55760.7114,-864.8783,-1581.3857,24711.7728
54972.3655,26946.9917,53073.138,40841.3708,35733.9978,38070.2466,5646.3182,50085.2019,44570.8483,55764.1536,-863.7607,-1578.3012,24713.9186
54992.3033,26957.8993,53079.9776,40856.2124,35756.3496,38081.646,5653.6943,50110.8617,44589.6685,55776.2235,-844.717,-1560.688,24723.4404
55009.1565,26964.0684,53079.1283,40866.8071,35772.5322,38078.0697,5654.5883,50126.1503,44595.8823,55779.6657,-835.6869,-1555.2789,24723.9769
55001.6463,26957.2288,53079.9329,40861.9344,35759.5682,38069.3972,5651.8167,50113.0074,44592.3507,55776.8047,-839.5314,-1559.1234,24722.1887
54983.0049,26954.5019,53081.274,40851.2056,35731.0027,38061.2612,5652.8896,50092.7567,44578.4032,55772.0214,-859.3798,-1572.3556,24716.4667
54982.1109,26951.6855,53083.0175,40857.1064,35726.7559,38062.2894,5659.461,50086.9453,44578.895,55773.8096,-858.4857,-1570.2546,24717.1372
54998.6511,26950.255,53080.8717,40857.777,35751.0746,38067.7879,5658.9246,50106.0784,44586.6287,55775.6871,-844.6276,-1558.8105,24720.6241
55010.9446,26955.2171,53083.1516,40862.0685,35768.643,38069.6207,5656.153,50121.6352,44587.1651,55776.6706,-841.9454,-1561.7609,24719.6853
55005.0437,26952.3114,53082.1234,40862.0685,35761.6693,38070.0678,5652.4873,50114.2144,44585.1535,55772.7367,-849.7685,-1568.6005,24716.9584
54995.1196,26944.7565,53082.0787,40861.1298,35738.7811,38069.8442,5654.186,50100.6693,44569.9543,55765.6288,-858.3069,-1576.066,24713.248
54984.7037,26946.4105,53079.9776,40858.1346,35734.8919,38067.9667,5653.7837,50103.1727,44565.7074,55761.4267,-859.9609,-1581.0281,24708.4647
54991.7221,26945.3824,53073.9427,40859.431,35752.7733,38068.3243,5649.5816,50124.7197,44580.2808,55762.1866,-848.2039,-1568.377,24707.8836
54994.6278,26947.5281,53068.3994,40865.6448,35773.2475,38070.5595,5646.6311,50144.0763,44586.4052,55765.897,-842.303,-1562.5656,24708.4647
54993.6891,26947.8858,53070.6793,40874.5855,35769.7159,38069.6207,5649.5816,50139.1143,44590.205,55775.9553,-847.7122,-1564.0408,24712.8457
54974.3772,26938.051,53070.1429,40858.8499,35740.7033,38059.5177,5646.4523,50115.0638,44577.7774,55765.0477,-865.9512,-1577.5412,24707.4813
54975.0477,26936.3523,53066.0748,40855.8995,35732.2544,38054.7345,5644.8877,50103.2621,44573.4859,55763.1254,-867.7393,-1581.9222,24705.3355
54994.3596,26943.5942,53067.2371,40874.0938,35754.5167,38063.4516,5646.8099,50119.0424,44585.0641,55769.1157,-845.9687,-1568.5111,24711.5493
55003.5238,26946.947,53065.8513,40877.6253,35766.9443,38065.1504,5644.3959,50128.0278,44590.2944,55769.7862,-841.0066,-1562.5656,24713.248
54993.2867,26948.7798,53069.9641,40871.6351,35754.7849,38062.7364,5645.29,50120.8305,44581.5772,55774.0331,-846.9522,-1570.344,24712.3092
54974.2877,26939.8391,53063.1691,40855.2289,35735.3389,38055.2262,5638.361,50097.7188,44566.9591,55765.0477,-863.9842,-1586.929,24705.9166
54973.349,26940.1968,53057.6706,40847.6293,35722.2408,38053.2146,5634.2483,50087.6606,44564.0087,55759.5491,-870.7345,-1589.6112,24700.6863
54992.2138,26947.2152,53056.4189,40857.8217,35741.1057,38055.7626,5633.8012,50107.5983,44572.9047,55762.0525,-857.8598,-1580.4023,24705.112
54999.1429,26948.7351,53055.3907,40862.3815,35758.1377,38055.5391,5631.6555,50123.6022,44578.1797,55758.6551,-851.8249,-1578.3906,24704.2179
54988.1905,26948.6457,53057.8494,40852.5467,35739.7646,38052.7675,5628.3921,50107.5536,44571.5189,55756.5987,-865.7724,-1588.5383,24700.1499
54973.3937,26945.6953,53056.0166,40840.7897,35717.2787,38052.0076,5627.811,50086.8559,44559.8066,55757.0457,-881.061,-1597.5237,24696.8865
54980.4121,26948.2881,53057.0894,40839.6721,35718.3963,38051.6946,5629.0179,50082.5197,44556.3197,55752.8883,-877.7529,-1597.3002,24697.2442
55000.4393,26953.2502,53061.6045,40847.9422,35743.4303,38064.301,5631.3872,50102.815,44566.1992,55758.2974,-857.8151,-1580.5364,24702.6533
55010.7211,26961.7438,53061.9174,40854.2007,35761.8034,38067.2067,5631.119,50116.1367,44572.0106,55755.347,-844.8958,-1568.0641,24704.9332
54996.6842,26959.0169,53062.8562,40851.8761,35751.7898,38063.4069,5630.8955,50108.1795,44565.7074,55749.8038,-852.3613,-1571.2827,24704.4414
54972.7678,26952.3561,53065.1808,40843.6954,35729.8851,38060.5459,5631.119,50086.4536,44548.7201,55752.3072,-862.509,-1580.8046,24706.7213
54965.8835,26950.6574,53067.6842,40843.8295,35729.9298,38065.8656,5635.5894,50091.5498,44551.76,55764.1536,-859.6033,-1576.2001,24709.3141
54976.3441,26953.6078,53070.3217,40845.3047,35754.7402,38068.3243,5642.7866,50104.3797,44557.2585,55766.5676,-850.305,-1565.1137,24713.0245
54984.346,26960.8498,53069.7852,40851.9655,35772.6663,38069.8442,5644.4854,50103.4856,44559.3148,55769.0263,-838.5926,-1554.966,24715.8855
54966.6435,26957.9887,53070.5452,40849.7751,35754.3379,38062.5129,5643.0995,50087.2582,44552.7881,55767.7299,-842.7054,-1561.7162,24714.3209
54950.2373,26949.3163,53072.2886,40831.9384,35724.476,38049.7724,5638.4057,50063.6548,44534.9067,55761.8737,-863.9395,-1581.2963,24708.42
54948.5385,26951.462,53076.6249,40831.4019,35722.3749,38051.2029,5642.3843,50061.4196,44531.3752,55765.0477,-864.0736,-1581.3857,24708.733
54962.6201,26965.0072,53074.7026,40840.8791,35756.2155,38050.8453,5646.0053,50075.5459,44540.9417,55771.3956,-850.5285,-1568.7346,24712.2645
54972.0526,26968.5388,53074.2556,40849.9539,35777.0473,38050.8006,5648.6428,50074.0707,44532.0904,55771.2168,-840.2914,-1564.5325,24712.8904
54959.9379,26964.4707,53075.3285,40845.1706,35763.368,38041.4575,5648.6875,50046.578,44518.9029,55765.7629,-848.338,-1578.2118,24710.6105
54931.7747,26963.8896,53071.3499,40826.4846,35735.3389,38034.3497,5649.2239,50010.4576,44501.6921,55757.8057,-867.8734,-1592.7404,24703.3238
54924.1751,26966.84,53073.3615,40830.0608,35731.6732,38036.1825,5653.2472,50002.9474,44503.8825,55758.9233,-863.9395,-1587.376,24709.8953
54938.972,26971.668,53072.691,40838.5545,35749.8229,38039.9823,5654.946,50021.6782,44508.487,55763.8407,-849.3662,-1575.7084,24714.1421
54947.9574,26977.1218,53069.07,40849.9539,35770.2971,38042.3963,5656.4659,50037.7268,44512.1974,55765.3159,-842.9289,-1568.0194,24711.594
54934.6805,26971.0869,53068.5335,40847.9422,35754.7849,38038.0154,5653.6943,50016.4479,44505.8942,55759.1021,-851.4225,-1571.238,24712.1304
54920.6436,26973.2326,53071.3499,40838.778,35730.2874,38038.4624,5653.4708,49987.48,44485.7776,55748.5968,-865.6383,-1581.5198,24707.8836
54906.7408,26967.1082,53067.0136,40832.2513,35723.0455,38033.6344,5652.7108,49972.102,44478.5357,55742.1595,-871.0921,-1588.4936,24706.0508
54931.8194,26973.9032,53069.6511,40846.5564,35746.6489,38040.6082,5656.1083,49991.2798,44490.9185,55750.7873,-851.5567,-1572.758,24708.1518
54941.833,26979.0888,53067.863,40852.5467,35754.2485,38044.0503,5655.7059,49997.8065,44487.4763,55750.8767,-838.7715,-1567.8406,24707.3472
54927.5279,26977.1218,53069.3382,40847.3611,35745.2631,38046.1961,5654.0519,49988.5082,44482.6931,55751.9495,-845.7452,-1573.1603,24709.3141
54912.7758,26968.6282,53067.863,40839.9403,35721.3467,38037.8366,5651.9061,49959.9427,44471.9642,55742.4724,-862.9113,-1588.6724,24705.8272
54913.8039,26965.7224,53065.3596,40842.9354,35717.0105,38038.5965,5648.3746,49958.1099,44467.8068,55736.0351,-864.6101,-1590.5946,24704.6202
54934.2781,26965.2754,53064.1079,40856.3018,35736.5012,38046.3749,5650.2074,49970.9398,44478.7145,55739.4773,-848.5168,-1577.7647,24705.3802
54943.9788,26968.9411,53062.588,40861.3533,35748.8394,38046.1961,5650.1627,49977.1088,44487.4316,55739.4773,-837.4751,-1575.4402,24706.0508
54932.043,26966.3036,53064.9573,40851.8761,35734.3107,38037.9707,5646.4076,49961.9544,44481.2626,55739.3432,-847.6228,-1583.6209,24705.2461
54912.5969,26961.2521,53069.6064,40840.6556,35711.4226,38035.0202,5646.9887,49942.9107,44470.6231,55736.8398,-861.0785,-1591.5781,24705.2014
54927.0809,26963.0849,53072.691,40848.0763,35710.9755,38045.302,5656.3765,49939.3791,44473.2159,55742.7853,-853.7918,-1583.2186,24713.248
54944.5152,26969.0305,53072.378,40861.2639,35735.8754,38046.1067,5658.0752,49955.2488,44483.0954,55748.5968,-834.7481,-1568.6899,24719.1936
54954.5735,26970.908,53074.1662,40868.8635,35749.7334,38045.4808,5656.8235,49966.6035,44485.5094,55748.5074,-823.4829,-1560.1516,24718.523
54946.9739,26966.1695,53072.691,40865.6448,35735.1601,38041.9046,5656.6894,49954.7124,44477.2393,55744.797,-830.3672,-1564.2643,24718.4783
54935.7086,26959.2404,53073.2721,40854.916,35701.2749,38039.0882,5654.5883,49926.9962,44464.5882,55730.7154,-846.0134,-1578.3906,24713.8292
54934.6805,26961.0286,53076.1331,40847.4058,35696.7151,38039.4459,5656.6894,49924.1799,44461.593,55728.4802,-847.7569,-1579.6423,24711.1917
54952.5619,26965.5436,53078.3236,40856.2571,35718.2175,38045.8385,5663.7526,49942.553,44481.4861,55740.9078,-831.3507,-1565.2925,24718.9701
54967.0011,26965.8566,53076.9378,40865.0637,35732.2991,38047.0902,5664.736,49955.8747,44490.2033,55743.9476,-821.4265,-1554.5189,24721.2052
54963.246,26961.2521,53074.792,40857.1512,35725.6383,38039.5353,5658.6117,49935.8028,44473.0371,55740.9078,-834.8376,-1565.2031,24716.3773
54949.2538,26955.2618,53072.6463,40848.7916,35705.6111,38033.4109,5657.4047,49903.7504,44463.0235,55735.8116,-850.1709,-1578.3012,24713.695
54946.4375,26955.2618,53072.378,40847.7634,35700.5149,38030.6393,5655.0354,49898.2519,44460.6543,55737.555,-851.2884,-1577.6306,24714.3656
54963.1566,26958.9275,53065.5384,40849.0598,35721.8385,38034.5285,5653.9178,49913.0487,44469.1479,55739.2091,-841.9007,-1566.723,24713.9186
54976.8358,26963.6214,53068.4441,40854.3795,35736.4118,38041.2787,5657.4941,49930.5725,44478.5357,55748.6415,-833.2282,-1558.6764,24720.7135
54965.0788,26956.2006,53067.3712,40849.2833,35721.7938,38035.5567,5656.9129,49919.3072,44471.249,55745.8699,-843.1524,-1568.1535,24719.5512
54947.5998,26949.0033,53067.4607,40839.2251,35701.4984,38032.9192,5657.2706,49901.7388,44461.6377,55740.8631,-860.2291,-1581.2069,24714.8573
54953.6794,26949.0927,53069.5617,40835.6935,35699.4867,38033.9473,5654.633,49909.1148,44461.7271,55743.2771,-863.1796,-1580.6258,24714.5891
54967.761,26960.2239,53066.7901,40843.4272,35720.7209,38040.8317,5653.7837,49933.9253,44472.3219,55747.5239,-851.6461,-1568.6005,24713.7398
54975.5841,26966.1248,53067.9077,40849.3727,35732.2991,38045.5256,5653.4708,49950.9573,44487.4763,55749.5803,-841.1855,-1562.0291,24716.5561
54971.6055,26957.2288,53066.8348,40842.846,35718.1281,38037.0319,5650.4309,49939.0662,44487.074,55745.4228,-848.4274,-1569.3158,24713.695
54952.3383,26950.7915,53063.5267,40832.4301,35699.755,38028.7617,5645.6029,49912.0653,44474.7806,55739.2985,-864.476,-1582.548,24706.6319
54941.386,26944.1307,53060.1293,40823.1765,35688.0426,38018.5694,5640.9538,49897.7602,44469.0585,55732.5482,-869.9745,-1584.8279,24701.0887
54954.7076,26949.0033,53062.0068,40838.0628,35712.1378,38019.8658,5644.5748,49925.9233,44476.6581,55733.04,-853.2107,-1567.4382,24704.7544
54972.0079,26951.4173,53064.7337,40849.0151,35730.7345,38024.0679,5648.2404,49949.8397,44479.5638,55744.8417,-845.8793,-1562.4762,24710.2529
54956.3617,26944.0413,53065.6278,40840.745,35716.8317,38021.788,5644.2171,49931.1984,44472.3219,55740.8184,-852.8084,-1572.7133,24705.7825
54936.6921,26936.1734,53066.1643,40821.1201,35691.0825,38022.7715,5640.6409,49915.8651,44463.9623,55732.9059,-874.266,-1587.1972,24699.9264
54945.3646,26942.5213,53069.9193,40826.3952,35689.7861,38032.6062,5646.2288,49925.7892,44468.5668,55735.2751,-871.5391,-1586.616,24702.8768
54972.9019,26954.1442,53069.4723,40849.2386,35723.8054,38040.8764,5651.6826,49961.0603,44488.7727,55748.9991,-851.7355,-1571.238,24707.973
54976.2994,26960.5815,53065.002,40857.33,35733.9978,38046.9561,5653.2472,49974.4266,44490.8738,55749.625,-840.1126,-1563.0126,24708.733
54974.0195,26967.5106,53063.9291,40856.1677,35725.6383,38048.3419,5653.6049,49969.6881,44485.0177,55743.2324,-845.7899,-1566.0077,24708.4647
54956.4511,26964.8284,53069.7852,40843.606,35700.8725,38039.8929,5655.2589,49942.5977,44479.8768,55738.5385,-861.2126,-1578.4353,24704.8885
54952.7407,26962.0568,53067.5948,40839.1356,35697.028,38038.9541,5657.1364,49929.1867,44472.9477,55736.2139,-864.163,-1584.6491,24703.5474
54974.2877,26967.5106,53068.2206,40853.3067,35725.5936,38052.1864,5658.1646,49954.2654,44485.7329,55746.1828,-846.2816,-1568.4217,24711.147
54986.4471,26976.9877,53074.1215,40863.9461,35751.8792,38066.0892,5658.0305,49982.4733,44499.4569,55758.1186,-829.2943,-1552.9543,24715.9302
54980.8592,26974.529,53078.5471,40860.6827,35741.8209,38071.0959,5654.0519,49984.4849,44491.8126,55753.2907,-833.1388,-1562.1185,24712.2645
54968.5657,26968.4047,53081.0505,40851.5185,35724.3419,38069.4866,5651.9508,49972.7279,44486.627,55747.3004,-847.2204,-1576.826,24712.5328
54972.6784,26970.8186,53079.6647,40846.7352,35721.1679,38070.6042,5649.4027,49968.9728,44491.8573,55746.4063,-853.4342,-1580.0893,24712.8904
54986.76,26975.1102,53082.794,40855.1395,35743.6091,38071.8112,5653.1131,49987.1671,44503.3908,55750.4296,-838.6821,-1567.3935,24715.5726
54994.8514,26979.9381,53084.7609,40865.8236,35757.6013,38076.5498,5655.393,50000.8017,44512.1974,55754.5871,-829.7414,-1558.1846,24719.6406
54990.4704,26977.3453,53085.342,40861.3533,35745.7101,38072.1688,5655.8847,49996.9125,44508.4423,55761.6055,-834.2564,-1564.3537,24718.9254
54965.5706,26970.5057,53082.6151,40848.6128,35718.1728,38056.5226,5649.5816,49976.3936,44497.6687,55753.4695,-854.2836,-1579.4635,24712.3092
54963.0672,26971.9362,53081.9446,40844.2318,35720.4527,38056.9249,5650.0286,49969.5092,44493.3325,55750.072,-857.1446,-1581.9669,24711.594
54983.6308,26976.2278,53079.7541,40854.2454,35747.0959,38057.7296,5654.8119,49982.5627,44501.9156,55758.7892,-838.5032,-1568.8241,24713.9186
54990.1575,26973.3667,53072.9145,40857.017,35759.7917,38057.6849,5652.4873,50001.0252,44507.7717,55763.1701,-827.9085,-1559.0787,24713.7398
54977.3723,26967.153,53068.3994,40849.7751,35740.748,38048.5654,5649.5368,50000.3994,44502.2285,55754.5871,-838.5926,-1567.3488,24708.9118
54959.4462,26961.0733,53070.2323,40844.7683,35718.6645,38042.5751,5652.3532,49982.3391,44492.4831,55745.8699,-852.6742,-1578.927,24706.8554
54960.1614,26963.0402,53074.3897,40839.6274,35714.7753,38040.6529,5653.4261,49974.3819,44493.6454,55749.8485,-857.1446,-1576.7813,24709.627
54973.9301,26971.3104,53073.0486,40845.7071,35736.8588,38043.0669,5653.0237,49992.1292,44504.3743,55755.2576,-844.717,-1565.963,24708.8671
54979.5181,26975.3784,53072.9145,40850.8927,35747.1853,38044.8997,5653.2919,50002.9922,44510.5433,55761.2926,-840.5149,-1565.3819,24710.2529
54965.5706,26972.7856,53074.0768,40844.3213,35741.2398,38042.2622,5652.8449,49986.0942,44509.694,55759.7727,-848.4274,-1575.5743,24709.8953
54944.5152,26966.5271,53069.6511,40826.7528,35713.9707,38031.0863,5649.358,49965.3518,44500.038,55751.4578,-863.716,-1588.2701,24702.8768
54950.2373,26964.2919,53068.9359,40819.1085,35709.3662,38023.7997,5649.5368,49965.933,44493.0196,55751.6366,-865.8618,-1591.7122,24700.0605
54977.1488,26967.2871,53069.5617,40832.4748,35737.2612,38032.1145,5653.5602,49997.0913,44501.1109,55759.1468,-849.2768,-1582.3692,24703.145
54980.725,26967.2871,53066.2984,40836.6323,35747.2748,38036.0484,5656.0189,50004.378,44508.3529,55759.8174,-841.8113,-1575.5296,24707.973
54974.0195,26966.3036,53066.8795,40829.882,35730.198,38032.9192,5651.8167,49988.8659,44507.9952,55758.7445,-851.6908,-1579.1953,24705.6037
54958.0604,26958.4805,53063.7503,40819.6449,35703.5995,38027.063,5646.9887,49963.6978,44493.2878,55750.6979,-867.0241,-1590.1923,24701.4016
54964.7659,26962.6379,53066.3431,40822.7742,35702.8395,38032.5168,5652.0849,49969.8222,44499.0098,55755.6599,-865.1912,-1587.4654,24707.5707
54985.866,26968.4941,53071.931,40838.2416,35736.2777,38046.2855,5657.6729,49993.3809,44513.3597,55763.9301,-847.131,-1568.9582,24715.9302
54990.5598,26969.0752,53072.2886,40845.7071,35750.3146,38053.304,5661.1151,50008.7142,44529.2741,55773.6754,-837.8774,-1560.5539,24720.5347
54977.5511,26972.6515,53077.206,40847.4952,35744.5031,38056.3438,5663.7526,49996.689,44528.2906,55772.2002,-838.3691,-1563.2361,24723.3957
54955.3782,26965.8566,53079.173,40834.8888,35716.6976,38052.4099,5663.1267,49981.8027,44510.0069,55764.7347,-856.2505,-1581.7434,24716.6902
54952.5619,26963.1296,53078.8153,40826.5293,35711.0649,38049.0571,5661.5174,49979.791,44510.0516,55760.3091,-861.0785,-1583.6656,24711.5493
54978.2664,26969.4775,53075.3732,40845.26,35741.061,38054.1086,5663.529,50006.1661,44523.0603,55765.9417,-844.0912,-1568.5558,24715.5279
54979.8757,26964.9625,53071.3946,40852.4126,35755.9472,38055.8074,5661.9644,50014.5257,44521.8533,55765.9417,-839.3526,-1561.7162,24715.8408
54971.6949,26959.9557,53072.9145,40846.7352,35745.6207,38052.2311,5660.4445,50006.2555,44519.5735,55764.6453,-845.5217,-1567.3935,24715.1703
54951.3549,26947.6622,53072.4674,40836.0064,35720.1844,38046.4196,5654.9907,49974.1584,44506.7883,55753.693,-860.1397,-1584.3362,24707.1236
54945.6328,26942.9684,53071.5287,40832.0278,35714.5518,38047.9842,5653.6496,49973.4879,44508.8446,55754.4529,-860.9891,-1585.1855,24706.5425
54958.1051,26950.5233,53070.724,40848.2105,35739.6305,38055.6732,5656.3765,50004.065,44522.211,55759.4597,-843.4206,-1569.8969,24711.2811
54968.2081,26954.7701,53069.0253,40856.2571,35759.6129,38060.1436,5660.668,50020.7841,44529.3188,55760.8008,-831.5742,-1562.4762,24714.9467
54961.5026,26951.2385,53068.8465,40848.2105,35750.0911,38050.9794,5657.36,50008.0436,44516.8912,55760.3538,-839.0397,-1568.4664,24712.4881
54947.6892,26945.9635,53070.2323,40840.3426,35720.8997,38047.5372,5655.1695,49984.1273,44501.7368,55756.7775,-856.6082,-1581.4304,24708.9118
54946.4822,26942.6554,53068.0865,40838.331,35712.6296,38049.6383,5654.5883,49976.9747,44499.2334,55752.3519,-860.8997,-1578.7929,24710.4317
54961.4131,26948.6904,53067.103,40843.7401,35733.7296,38051.0688,5653.9178,49990.8328,44516.8018,55755.0341,-848.9192,-1565.1137,24713.5609
54970.6668,26954.5466,53067.6842,40846.2435,35753.0862,38052.4546,5650.2074,50003.2157,44525.072,55761.829,-841.856,-1559.2575,24714.0527
54964.2295,26954.5466,53065.896,40845.4835,35741.1504,38043.7374,5646.3629,49991.5481,44512.0633,55751.1896,-849.6791,-1573.0262,24710.2976
54944.0235,26946.4999,53064.4655,40835.4253,35718.0387,38035.8696,5646.8993,49970.5821,44501.9603,55743.2324,-865.4594,-1586.4819,24705.559
54940.7154,26948.8245,53066.5219,40834.6653,35716.1611,38039.2224,5647.2123,49968.7046,44512.4656,55756.2858,-865.6383,-1583.5762,24707.3472
54954.797,26954.3678,53068.1312,40839.7615,35735.8754,38045.7044,5647.2123,49992.1739,44522.8368,55763.796,-852.0037,-1570.9698,24710.6105
54971.8291,26957.6311,53067.3712,40843.6954,35745.9784,38050.1747,5645.6476,50008.3119,44523.9544,55763.5278,-850.3497,-1570.5675,24708.9118
54965.0341,26952.4008,53069.3382,40836.5428,35734.6684,38043.4245,5644.6642,49996.8678,44523.3732,55760.3985,-861.9726,-1577.9883,24706.4978
54947.9127,26944.9353,53067.863,40822.9977,35713.7024,38036.0484,5640.8644,49975.4995,44513.5385,55753.693,-874.579,-1591.9805,24700.8651
54952.2936,26942.9237,53069.3829,40821.7013,35710.5285,38035.7802,5639.8362,49971.5209,44510.1857,55753.5589,-875.2942,-1594.3944,24700.8204
54975.8077,26950.3444,53067.2371,40831.8937,35733.8637,38037.7024,5642.2055,49997.3148,44520.691,55759.2809,-857.5022,-1578.3459,24707.0789
54986.76,26956.9606,53066.7454,40834.7547,35748.3923,38040.027,5643.5913,50016.4479,44526.9942,55766.4335,-853.3448,-1571.3722,24709.0012
54976.97,26949.0033,53063.4373,40827.1551,35733.9084,38038.2389,5641.1326,50006.3449,44521.4063,55763.9748,-861.7938,-1581.4304,24705.8719
54956.1828,26942.7449,53060.174,40818.572,35707.1757,38034.7967,5639.6574,49977.7347,44510.7669,55755.5705,-874.8025,-1594.9309,24697.4677
54949.1644,26941.4037,53059.7717,40812.8947,35702.9289,38028.5829,5638.2269,49970.1798,44504.7766,55753.4695,-879.3622,-1598.3731,24696.1713
54972.6784,26947.7069,53061.6492,40823.3106,35723.9395,38036.8978,5639.2103,50001.7405,44525.3849,55761.0244,-860.3632,-1583.4868,24700.9099
54991.9456,26958.8381,53065.2702,40829.5244,35743.6985,38041.3681,5643.5466,50018.9066,44536.8737,55765.1818,-849.0086,-1573.2497,24705.9613
54979.071,26952.5796,53069.3382,40825.9034,35733.2379,38039.4906,5645.4241,50008.5801,44533.0739,55765.1818,-858.7092,-1577.273,24704.9779
