FC3,FCz,FC4,C5,C3,C1,Cz,C2,C4,C6,CP3,CPz,CP4
51367.2978,24090.1709,50653.3384,37457.4512,33343.7026,34897.6851,4546.4784,48451.7366,44085.6814,54605.6181,-3922.3284,-3691.4796,21752.3128
51364.3473,24094.9094,50652.9361,37464.0226,33334.7619,34898.7132,4549.8312,48437.9679,44081.2558,54598.5103,-3925.994,-3698.051,21751.3293
51357.016,24094.0154,50652.0867,37463.9779,33322.5578,34901.4401,4548.6242,48432.6035,44069.4094,54595.7386,-3933.5489,-3705.8294,21749.0941
51360.7711,24089.1874,50653.4278,37468.8506,33338.7852,34901.8872,4545.0479,48451.066,44073.835,54600.5219,-3926.307,-3696.4864,21750.2564
51373.5563,24094.9988,50657.1382,37483.6922,33361.5839,34906.581,4545.4055,48474.4906,44084.5191,54604.2323,-3908.9173,-3683.2541,21755.7102
51378.1607,24098.7092,50660.491,37482.1275,33365.6967,34911.5431,4545.5843,48476.5023,44086.9778,54608.7474,-3907.8444,-3682.0471,21758.0348
51365.1967,24097.7705,50657.2723,37472.5163,33346.3401,34905.9999,4542.2316,48466.2205,44080.6746,54603.9641,-3920.8978,-3693.9383,21752.6257
51348.8352,24090.4391,50649.8963,37460.8487,33328.7269,34904.0776,4539.8176,48446.551,44077.0537,54599.2255,-3931.3585,-3706.7235,21747.4848
51361.5757,24092.5401,50648.3763,37463.7097,33342.585,34907.2963,4542.3657,48455.134,44089.4812,54607.7639,-3926.3964,-3701.9402,21750.4352
51372.0363,24102.7325,50647.9293,37469.2529,33358.1418,34908.3245,4542.0527,48476.0553,44101.7747,54608.4344,-3921.7025,-3687.9927,21751.7316
51366.5825,24104.5207,50648.9575,37471.6222,33355.9066,34908.9056,4541.7398,48481.3303,44099.3607,54607.138,-3921.3449,-3689.7808,21751.0164
51352.9927,24099.2457,50651.7738,37467.5542,33341.2886,34907.0728,4541.7845,48472.5684,44083.938,54604.9923,-3931.6267,-3699.3921,21748.3789
51334.2172,24090.9755,50648.3316,37456.9148,33319.5627,34902.826,4541.114,48447.8027,44076.696,54602.8018,-3943.9201,-3708.0199,21742.7015
51345.4825,24092.6743,50646.4541,37463.218,33331.3644,34905.9552,4540.5328,48455.5811,44082.0605,54603.5618,-3937.5722,-3703.5942,21743.8638
51367.9236,24095.3565,50650.1198,37479.6689,33359.4382,34917.0417,4543.9303,48481.0621,44097.9302,54607.2274,-3920.1379,-3687.9927,21751.8657
51366.4484,24097.1893,50648.0634,37473.2763,33351.3469,34914.0018,4539.8176,48478.961,44105.5298,54605.037,-3925.9493,-3688.4397,21749.9882
51347.36,24097.9046,50646.6329,37462.2345,33328.9951,34907.341,4536.1072,48461.2137,44096.3656,54602.0865,-3938.4216,-3695.7264,21745.9649
51336.363,24088.1145,50648.1975,37460.4464,33324.7483,34903.3624,4536.1966,48448.652,44086.7096,54597.4374,-3939.1369,-3701.8508,21744.3556
51343.739,24087.3545,50648.0634,37465.9449,33334.3595,34902.826,4533.9614,48452.8095,44091.4035,54600.0749,-3931.1796,-3700.6438,21743.4168
51364.1238,24092.0037,50645.2918,37479.5794,33351.1233,34907.6986,4535.1684,48473.0154,44100.0313,54604.9923,-3917.2769,-3686.5622,21749.8541
51363.3192,24088.9639,50647.6611,37479.4453,33347.1894,34906.1787,4536.5542,48482.4032,44104.6357,54609.9991,-3916.3381,-3681.8236,21753.8774
51349.4611,24089.098,50647.6611,37478.8642,33341.0203,34901.0378,4536.2413,48462.6442,44092.7893,54603.9641,-3924.4741,-3693.223,21752.3128
51334.9324,24076.7598,50643.6378,37470.7282,33321.6637,34896.4334,4534.1402,48444.4946,44085.1897,54598.6444,-3929.615,-3708.2434,21748.7812
51346.1083,24077.5645,50646.767,37475.9585,33336.3712,34898.5344,4532.8438,48453.8823,44088.766,54602.3995,-3922.8201,-3703.6389,21749.8988
51364.4814,24083.1971,50646.6329,37487.0449,33362.0757,34904.6141,4533.7379,48477.0387,44098.7796,54605.6181,-3911.6442,-3690.3173,21753.4304
51360.4581,24086.3264,50647.3035,37482.8875,33361.1369,34905.1058,4533.2015,48478.8716,44099.6736,54608.7921,-3914.6394,-3688.6632,21752.3128
51351.2492,24076.8939,50643.1907,37470.7282,33344.8201,34901.5296,4530.6534,48463.2254,44086.1285,54601.2372,-3932.0737,-3703.2813,21743.238
51339.4475,24069.6967,50642.1626,37464.3803,33330.9621,34895.8075,4532.1286,48444.2264,44081.1664,54598.0185,-3943.9201,-3715.1277,21739.3935
51346.4212,24070.0543,50642.8331,37469.4765,33336.2371,34894.7793,4530.5192,48452.8095,44089.4812,54598.7785,-3932.9231,-3709.2268,21742.2098
51359.877,24075.0164,50637.8263,37472.0246,33345.7142,34896.2545,4525.6019,48470.3332,44095.0245,54598.555,-3924.1612,-3700.8226,21741.5839
51366.3143,24082.1242,50638.8992,37481.904,33348.4858,34899.7861,4526.0936,48472.926,44096.9467,54600.1643,-3922.2389,-3699.7944,21742.1651
51355.9431,24075.5975,50636.0382,37476.2267,33328.2799,34893.6617,4522.5173,48454.7317,44082.0605,54591.5812,-3933.7724,-3714.0995,21734.3867
51337.7041,24064.6005,50636.3511,37467.5989,33317.7745,34886.1068,4519.7904,48445.7016,44074.0138,54582.864,-3943.5178,-3722.4591,21729.7375
51349.8187,24068.0873,50636.1276,37471.4881,33327.2517,34890.1749,4522.0256,48458.7997,44079.1994,54582.9982,-3938.0193,-3714.8595,21731.7492
51364.1238,24080.7831,50642.8778,37482.217,33342.8532,34899.6967,4527.837,48479.1398,44097.8855,54592.7435,-3922.4178,-3694.7876,21738.4994
51364.8391,24083.3759,50645.8282,37480.8758,33347.3235,34900.5908,4527.7923,48480.1233,44097.8408,54591.9836,-3921.7025,-3693.9383,21738.9464
51349.2376,24081.9901,50648.0187,37472.8739,33330.515,34897.5509,4522.9197,48467.9192,44087.7378,54587.8708,-3933.2807,-3707.3493,21735.9513
51337.7935,24077.341,50646.6329,37468.2248,33316.0758,34895.7181,4521.9362,48455.8493,44085.1003,54584.6969,-3937.9746,-3713.6525,21737.1583
51345.8401,24079.0844,50646.2306,37482.0381,33330.068,34902.6471,4526.7195,48473.0154,44097.1255,54591.0448,-3925.3682,-3706.6787,21743.1486
51367.3425,24089.1874,50651.1927,37498.2208,33360.2428,34913.2419,4534.632,48497.7365,44112.1012,54603.6959,-3911.5548,-3690.809,21753.4751
51374.048,24089.3215,50652.802,37497.9973,33360.0193,34911.3196,4539.0129,48500.6869,44112.9953,54609.8202,-3915.4887,-3689.2444,21754.548
51360.0111,24089.5897,50654.2772,37489.6824,33336.8182,34907.7433,4538.7,48487.2311,44099.5842,54609.0603,-3926.3517,-3701.2696,21752.3575
51345.0354,24083.6889,50650.5221,37475.1091,33317.7745,34903.0495,4536.4648,48473.9095,44094.1751,54603.5618,-3939.271,-3709.9868,21750.8376
51351.3833,24084.8064,50646.3647,37474.0809,33324.5248,34900.7696,4533.2015,48484.683,44097.1702,54599.1361,-3934.2195,-3706.6787,21747.5742
51361.2181,24085.7452,50645.0236,37480.2947,33341.5121,34902.826,4531.7262,48506.3195,44104.3675,54602.5783,-3922.3731,-3699.5262,21746.5907
51361.9781,24083.2865,50645.4706,37480.2947,33343.8367,34904.48,4530.6981,48504.7996,44109.3743,54609.3285,-3915.6228,-3692.7313,21748.8259
51342.8003,24075.1952,50645.9624,37467.5989,33320.0097,34893.2147,4525.4678,48483.2525,44092.6999,54601.4607,-3929.8832,-3703.5495,21743.6403
51338.017,24067.1486,50647.8399,37468.4036,33310.0855,34896.5228,4527.39,48473.0154,44078.663,54593.1906,-3937.6169,-3712.3561,21742.1651
51351.6068,24067.5062,50645.5153,37474.2597,33319.7862,34902.6471,4526.5853,48490.6286,44088.3189,54598.3315,-3930.0621,-3705.0694,21747.4401
51366.1355,24075.9104,50640.8662,37486.7767,33349.7375,34907.5198,4530.3851,48515.3943,44103.6075,54605.484,-3912.7618,-3692.5077,21754.235
51366.9401,24078.1456,50643.5037,37488.699,33352.688,34908.9056,4534.4085,48513.2933,44112.9059,54613.173,-3905.9669,-3688.1715,21758.303
51354.8702,24072.96,50645.0236,37482.7087,33337.31,34903.273,4534.4085,48497.1553,44113.5317,54607.0486,-3918.1262,-3696.7993,21754.235
51336.4971,24058.7443,50636.1276,37463.8438,33311.9631,34889.4149,4526.943,48480.9726,44094.9798,54597.8844,-3939.5839,-3713.2055,21745.9649
51339.0005,24060.5772,50633.2666,37464.3356,33321.5743,34892.8124,4522.1597,48483.2078,44098.3772,54604.3664,-3932.1631,-3706.3211,21749.4071
51366.3143,24076.3128,50637.9604,37482.7981,33350.3187,34902.2448,4530.4298,48506.7666,44113.8893,54617.4198,-3910.616,-3687.4115,21755.3973
51368.6836,24080.8278,50636.4405,37481.3676,33346.1612,34900.7249,4528.9546,48509.7617,44107.6756,54612.8601,-3912.8959,-3691.0325,21750.0329
51349.7293,24074.3458,50632.3725,37467.3754,33329.0398,34892.41,4526.0489,48495.5907,44094.7562,54604.0982,-3935.1135,-3707.4387,21744.2214
51336.4077,24069.3837,50625.8011,37455.4843,33310.9349,34882.9329,4521.7574,48483.6549,44084.1168,54594.5317,-3953.5314,-3722.8614,21737.7841
51349.1929,24071.4401,50629.1986,37463.4415,33326.3576,34882.9329,4522.7855,48502.7432,44092.2081,54599.002,-3940.4333,-3711.9538,21737.5606
51364.1685,24080.1573,50635.1441,37472.5163,33347.0106,34889.549,4526.6747,48512.7568,44108.3461,54608.9709,-3926.2176,-3702.4766,21742.0757
51351.9645,24080.8278,50631.5231,37463.7097,33340.2604,34886.7327,4522.3385,48503.9949,44114.5152,54608.9262,-3929.7044,-3706.0976,21737.5606
51339.8051,24071.9765,50628.081,37453.6961,33314.2877,34877.2556,4515.9459,48484.3701,44103.8311,54597.795,-3940.3886,-3722.9508,21732.2856
51328.1375,24063.4829,50627.7233,37446.3648,33288.4938,34871.2206,4512.5932,48468.2322,44091.8058,54595.0234,-3952.6373,-3730.2822,21729.4246
51335.6477,24062.7229,50626.2034,37451.8186,33301.1001,34874.5286,4513.666,48482.4032,44095.5609,54596.9009,-3946.7365,-3720.5368,21732.1515
51346.5554,24068.2662,50626.2034,37456.423,33319.1603,34877.345,4515.7671,48498.0941,44103.7416,54601.7736,-3934.7559,-3708.8692,21736.8901
51346.1083,24067.6403,50627.768,37456.2889,33321.2167,34879.1778,4516.08,48500.7763,44104.2781,54600.969,-3932.6996,-3711.7749,21737.1583
51336.6312,24063.2594,50627.2763,37455.4396,33313.3489,34875.3333,4515.2754,48486.4712,44099.1372,54598.5997,-3941.1038,-3719.151,21736.6666
51328.0034,24060.5325,50624.7282,37447.84,33301.7707,34873.7687,4512.1014,48474.2671,44088.5425,54594.487,-3951.8774,-3728.0917,21734.4314
51336.8547,24062.2312,50625.8905,37447.5718,33310.3985,34874.2157,4510.7156,48484.9066,44094.3539,54595.9175,-3948.2564,-3724.0684,21734.6996
51350.4893,24071.0825,50635.9488,37455.976,33328.8163,34881.1448,4515.7224,48509.4935,44116.4821,54607.4957,-3936.2311,-3708.7798,21739.1253
51349.014,24075.9999,50637.2452,37466.7048,33327.3858,34883.9611,4519.254,48515.2602,44117.3315,54605.7075,-3929.8385,-3705.3376,21740.6899
51328.2269,24069.7414,50632.596,37465.2743,33311.2031,34884.9446,4519.254,48499.0776,44100.7912,54597.3927,-3941.9085,-3720.2686,21734.342
51315.1735,24058.0291,50627.0081,37449.3599,33292.1594,34876.7191,4513.4425,48485.3536,44088.4978,54590.4636,-3958.0464,-3732.7856,21725.9377
51322.9072,24057.8055,50623.4318,37448.0635,33296.1828,34878.9543,4511.0732,48498.5411,44093.4598,54590.9554,-3952.2797,-3723.7555,21727.0553
51329.121,24059.9513,50617.4415,37454.5008,33314.0194,34878.0155,4510.805,48506.7219,44103.9205,54593.1458,-3941.5956,-3717.2288,21729.1564
51344.0073,24061.1583,50619.3191,37461.8769,33322.826,34879.2225,4513.0402,48502.2962,44110.9836,54595.2022,-3940.9697,-3719.5086,21727.9494
51332.4738,24050.653,50621.1072,37453.4279,33298.5967,34875.2439,4509.2851,48487.3205,44103.5628,54588.5861,-3955.856,-3731.8021,21721.0203
51315.7099,24038.9854,50616.7263,37448.1529,33280.76,34866.9738,4502.8478,48474.1777,44096.3656,54581.3441,-3963.4556,-3743.6038,21715.343
51323.5331,24036.3479,50616.2792,37452.7127,33290.1031,34862.414,4498.288,48479.6315,44094.8904,54583.6687,-3958.0017,-3738.5523,21716.9076
51341.1909,24044.3498,50619.8555,37455.9313,33312.8572,34866.6608,4500.2997,48496.9318,44099.0925,54587.5579,-3948.8822,-3725.4989,21718.5616
51340.2969,24054.3187,50623.0295,37450.2987,33309.3703,34871.4441,4501.1938,48505.0231,44091.3141,54585.1886,-3954.0231,-3726.0354,21716.4606
51327.6458,24056.8668,50622.9401,37448.9576,33296.4063,34871.6676,4499.7185,48495.0989,44084.3403,54579.1537,-3965.5119,-3734.4843,21717.0864
51321.5661,24051.0106,50623.3871,37450.1646,33289.7455,34875.0204,4500.6573,48481.5985,44085.7708,54580.5842,-3965.7354,-3735.0655,21722.8085
51333.8149,24060.3089,50624.9517,37450.9692,33299.4908,34880.7424,4505.2171,48501.8492,44104.1887,54589.1672,-3952.0115,-3727.1529,21728.8435
51355.0937,24070.6354,50625.0858,37455.6184,33311.7843,34885.6598,4507.0499,48518.8812,44113.04,54592.9223,-3941.1485,-3716.4688,21729.961
51355.049,24074.8376,50625.1305,37457.6747,33309.0127,34889.0126,4504.1442,48515.3496,44106.6474,54587.0215,-3943.6966,-3718.1675,21729.2011
51350.9363,24075.3293,50631.7914,37455.9313,33297.5686,34888.2526,4510.9391,48502.5197,44101.9535,54592.5647,-3952.1903,-3727.8682,21728.9329
51338.0617,24076.7151,50632.5513,37454.4114,33290.9524,34891.5607,4516.7506,48496.2612,44097.8408,54593.2353,-3956.9736,-3729.8352,21731.3915
51357.3736,24083.7783,50635.457,37468.4036,33317.1487,34906.2234,4523.4561,48511.5945,44105.3063,54599.8961,-3939.9862,-3712.8925,21738.1865
51373.6457,24086.7287,50637.4687,37479.6689,33335.7453,34910.4702,4524.7078,48526.8384,44112.0118,54605.6628,-3923.9377,-3700.1967,21740.824
51361.5757,24077.028,50633.3113,37465.4979,33324.3906,34903.9882,4518.3599,48528.6713,44105.9768,54598.0185,-3929.5703,-3707.0811,21734.2973
51339.0452,24062.1865,50628.3045,37444.666,33303.827,34896.5675,4511.4309,48502.8774,44082.2393,54583.8922,-3947.0941,-3723.5767,21726.0718
51327.5564,24057.5373,50624.2365,37431.702,33288.1808,34884.721,4508.391,48482.9396,44069.9905,54575.3092,-3957.9123,-3737.8371,21723.1214
51334.9324,24060.6219,50625.4882,37439.4804,33304.0506,34883.6482,4511.9673,48486.4265,44075.042,54582.864,-3946.96,-3726.6165,21728.4858
51346.0189,24064.7346,50628.8856,37447.84,33327.4305,34884.6316,4515.6777,48498.9434,44086.3073,54594.1293,-3930.7773,-3710.255,21737.203
51331.3562,24058.6102,50623.1636,37434.876,33314.4218,34876.8979,4513.979,48488.1252,44081.6581,54586.0827,-3937.7064,-3716.0218,21736.1301
51317.811,24059.5937,50624.8623,37434.9654,33298.552,34879.8484,4520.9974,48461.8396,44065.8331,54581.1206,-3944.1437,-3720.2686,21736.7113
51307.8868,24059.1466,50625.8458,37432.7302,33296.2275,34879.6695,4525.6019,48443.1535,44052.9585,54575.5774,-3948.0776,-3724.0237,21735.549
51310.1667,24062.9017,50625.0858,37433.0431,33306.8222,34876.0039,4527.3453,48451.6919,44060.3793,54576.7844,-3941.1485,-3716.9605,21734.9678
51321.7896,24075.9999,50633.356,37440.9109,33327.8328,34880.4295,4532.7544,48469.0368,44063.5979,54584.831,-3925.4576,-3699.0792,21740.3769
51318.3028,24081.0513,50634.4736,37441.7603,33329.9339,34883.067,4536.2413,48465.7735,44061.4074,54584.8757,-3928.3633,-3696.3522,21740.5558
51301.8966,24082.616,50631.2549,37431.9255,33309.6832,34876.2721,4533.6485,48442.5724,44045.046,54578.3937,-3944.546,-3710.3444,21737.5606
51298.7673,24087.8463,50634.0712,37434.6524,33298.9544,34876.0039,4538.1188,48424.0204,44029.5339,54578.1255,-3946.0212,-3716.3794,21737.7841
51306.9928,24095.6694,50634.6524,37440.4192,33312.6783,34880.4295,4543.3939,48422.6346,44030.8303,54585.0098,-3933.5489,-3707.7963,21742.8356
51325.8576,24099.4692,50633.356,37447.4823,33332.8396,34882.3965,4543.1256,48438.0573,44038.2063,54586.2168,-3923.4906,-3698.9897,21743.8191
51317.811,24096.6082,50627.0975,37444.7554,33327.6093,34879.1778,4538.1188,48427.8202,44033.7807,54578.1702,-3929.0786,-3707.2152,21738.6335
51296.711,24098.8433,50626.1587,37440.9556,33302.4412,34878.2837,4537.9847,48396.2148,44014.8711,54571.6882,-3942.7131,-3719.8216,21735.3255
51288.262,24096.2505,50629.7797,37441.8944,33287.5997,34879.7143,4541.6951,48377.1265,44008.6573,54567.7096,-3946.8259,-3725.9012,21732.7774
51294.744,24099.8715,50632.0149,37453.2044,33303.9165,34878.1049,4540.4881,48389.0176,44010.669,54570.6153,-3934.3983,-3717.8993,21734.789
51302.2542,24105.37,50631.2996,37462.5921,33319.6968,34875.3333,4538.5659,48400.9087,44010.669,54576.9632,-3924.9212,-3708.8692,21734.2973
51294.2523,24103.5819,50627.9916,37458.4794,33309.5938,34869.4324,4531.4133,48391.0292,43999.359,54568.1119,-3930.9561,-3717.1394,21729.4246
51274.9851,24092.6296,50624.7282,37450.1646,33285.8115,34862.5928,4527.6582,48366.0847,43983.4446,54560.7358,-3947.4517,-3729.3434,21726.7424
51255.4944,24078.1009,50622.3589,37442.0732,33261.7611,34859.4189,4525.6913,48338.6368,43976.4261,54556.8019,-3955.7666,-3737.39,21722.8532
51268.3243,24082.1689,50624.7282,37449.6281,33278.0331,34862.0564,4526.63,48347.0857,43986.9314,54560.0206,-3943.7413,-3729.7457,21726.6083
51288.2173,24085.3429,50627.1422,37458.5241,33301.726,34866.2138,4527.4794,48359.558,43999.806,54567.3519,-3929.7044,-3716.2453,21734.9678
51286.9209,24086.9969,50623.5212,37458.1218,33300.6978,34866.3926,4530.3404,48350.4385,43992.9664,54562.4346,-3929.3915,-3715.2171,21735.1466
51279.5895,24082.3925,50621.6884,37453.3832,33284.6493,34862.5034,4526.7642,48323.3035,43980.4494,54550.2305,-3942.892,-3727.1529,21730.9445
51268.5031,24077.4751,50623.7894,37447.1247,33260.5541,34858.9718,4527.0771,48303.3657,43974.3698,54546.7883,-3954.649,-3733.2326,21726.9212
51280.3942,24083.063,50626.114,37451.5504,33268.556,34858.6142,4531.1451,48320.0848,43980.4494,54552.6892,-3943.3837,-3724.0684,21731.2127
51302.7012,24087.9804,50625.8011,37457.183,33285.588,34864.1574,4535.4366,48344.627,43998.2414,54562.3451,-3926.3517,-3712.1326,21735.4149
51303.6847,24087.9804,50622.4036,37457.1383,33287.2868,34868.9407,4534.7661,48342.526,43994.531,54561.0934,-3930.5091,-3710.568,21736.5772
51300.9578,24083.9124,50627.321,37458.4347,33274.4122,34874.3051,4539.5046,48322.0071,43989.9266,54556.5337,-3936.0523,-3713.0266,21738.2759
51290.8101,24079.2185,50628.3045,37448.8235,33255.4579,34869.4324,4538.8341,48313.7816,43981.7458,54552.3316,-3943.7413,-3720.6709,21734.8784
51294.1629,24078.9503,50630.942,37443.3249,33264.2645,34869.0748,4536.4648,48322.2753,43985.9927,54555.5055,-3934.89,-3714.0101,21734.4314
51315.7994,24084.717,50635.457,37452.4891,33285.4986,34874.5286,4542.2316,48338.0109,44004.9022,54566.8155,-3918.305,-3699.3027,21741.3604
51319.6439,24085.6558,50636.3511,37462.3686,33291.623,34877.345,4547.596,48335.5969,44001.0577,54569.2295,-3915.444,-3699.3027,21746.9931
51314.4583,24083.9571,50634.6524,37456.1548,33274.8592,34870.103,4547.4172,48320.2189,43992.2512,54567.4413,-3926.7093,-3706.3211,21744.4897
51305.4729,24073.0494,50627.8574,37440.0616,33249.7805,34861.8776,4539.7729,48308.8642,43982.5058,54563.9545,-3943.339,-3715.5747,21738.8123
51311.8207,24073.5412,50629.1986,37440.1063,33265.6056,34863.5316,4539.4599,48317.0897,43987.7808,54563.6863,-3936.9464,-3709.5845,21741.0028
51332.8314,24082.8842,50629.8691,37448.3317,33289.656,34871.3994,4543.4833,48335.3287,44003.6058,54566.9943,-3920.3614,-3697.0228,21747.3507
51331.8479,24079.6655,50628.6621,37449.3152,33288.4043,34866.8844,4540.7563,48335.2393,44001.4601,54566.4579,-3919.9591,-3700.6438,21743.9979
51313.5195,24070.9931,50626.1587,37436.4406,33269.5842,34856.2896,4533.6485,48315.6592,43990.6418,54561.4511,-3936.5888,-3717.6311,21737.3371
51306.9928,24071.9765,50622.5824,37427.0082,33255.0555,34855.0379,4530.2957,48293.6203,43980.8518,54553.2703,-3950.1786,-3728.0023,21734.7443
51319.5992,24075.6869,50621.0178,37437.5582,33263.9068,34862.5928,4530.3404,48311.3229,43990.5077,54555.8184,-3940.7015,-3719.6428,21737.8736
51332.7867,24082.0348,50622.3589,37449.047,33280.9389,34870.2371,4536.2413,48348.0692,44002.8906,54567.1731,-3926.2623,-3703.9965,21744.5344
51332.3843,24084.1806,50623.5212,37445.1578,33283.9787,34872.0253,4534.7214,48350.215,44005.394,54565.8767,-3928.4974,-3709.808,21742.031
51317.2299,24082.5713,50626.6952,37438.9887,33269.1371,34867.0632,4533.5591,48336.2228,43996.4086,54558.2324,-3943.6966,-3720.8945,21738.0971
51315.2182,24080.6937,50628.6621,37439.7486,33257.5589,34866.8396,4536.6883,48325.0916,43984.3386,54555.5949,-3942.892,-3720.4921,21743.3721
51324.9189,24076.8939,50628.528,37446.7671,33274.3675,34867.689,4541.0246,48337.3404,43997.1685,54558.8136,-3930.5985,-3708.4222,21744.7132
51336.7653,24078.6821,50632.9089,37453.7408,33292.6512,34874.5733,4545.0479,48349.455,44015.0499,54565.0274,-3920.0932,-3698.5874,21747.7083
51334.0831,24079.9338,50632.9983,37460.3122,33290.6842,34875.6909,4548.49,48349.3209,44008.9703,54559.8418,-3923.133,-3697.9616,21745.9202
51322.192,24078.6374,50633.4007,37453.0703,33276.3344,34875.8698,4549.0265,48329.7408,43999.3143,54555.1479,-3929.8832,-3704.6224,21745.9202
51314.0112,24075.821,50632.3278,37442.6097,33261.8058,34874.3051,4541.4269,48315.4804,43990.6418,54548.4424,-3940.7909,-3717.1841,21741.1816
51327.7799,24088.9192,50635.3676,37455.7972,33281.8329,34881.1448,4543.1256,48340.2908,44010.5349,54560.8252,-3924.1165,-3704.9353,21746.2778
51349.4611,24098.6645,50636.4852,37467.0178,33305.6599,34887.5374,4547.0595,48371.4938,44027.7457,54570.2577,-3905.7434,-3693.6253,21748.7812
51344.9013,24094.1942,50631.9702,37465.3637,33301.0107,34884.4528,4542.9915,48378.1099,44026.1364,54566.5026,-3910.4819,-3698.4086,21744.1767
51327.1987,24092.2272,50633.1325,37457.6747,33287.1079,34879.7143,4540.8905,48361.3014,44012.4124,54556.6231,-3923.4459,-3709.1821,21740.1981
51313.4748,24093.7024,50633.9818,37453.2938,33278.9719,34876.0039,4541.4716,48355.3559,44001.4601,54552.6892,-3935.6053,-3716.737,21737.5159
51318.6604,24095.5353,50628.6621,37455.6184,33291.3101,34876.1827,4539.0129,48362.1508,44007.808,54553.8068,-3933.4148,-3709.5398,21738.5441
51335.4689,24094.7753,50632.8195,37467.0178,33310.3985,34885.7492,4540.7563,48374.8466,44029.7574,54560.0653,-3915.3993,-3691.9713,21743.5956
51337.9723,24098.0387,50634.2947,37467.8224,33314.8688,34888.4314,4542.008,48378.4676,44030.0703,54561.317,-3911.7336,-3692.5972,21746.1437
51335.2007,24101.3914,50637.2899,37460.1781,33302.0389,34892.7677,4544.5561,48365.593,44019.8779,54565.0274,-3922.5519,-3704.2201,21747.3507
51329.2551,24101.615,50639.838,37454.8137,33296.5404,34898.7579,4544.9138,48361.1226,44021.1296,54567.3519,-3929.5256,-3708.4669,21747.0825
51339.0899,24105.0571,50640.0615,37466.6154,33316.6569,34904.5247,4546.1655,48377.35,44031.0985,54570.9729,-3920.7637,-3703.2813,21750.927
51350.4893,24111.852,50638.7204,37466.3919,33330.4256,34905.6423,4544.0644,48395.3655,44041.0227,54575.7115,-3914.1029,-3694.9217,21748.513
51354.3338,24110.2874,50638.9439,37464.1567,33325.2847,34902.3342,4544.8691,48398.5841,44037.2676,54577.6337,-3917.0086,-3691.4796,21749.6306
51340.2969,24098.7092,50639.9721,37455.3949,33307.0457,34890.4878,4542.2763,48372.5667,44028.0586,54573.7892,-3926.6646,-3706.3211,21747.0825
51329.7915,24089.4109,50636.4852,37444.219,33289.4772,34882.0835,4537.2248,48360.1391,44023.4542,54573.7892,-3940.0309,-3714.4572,21743.4615
51340.0286,24097.681,50636.4405,37453.3832,33308.9679,34887.6715,4544.8244,48372.4326,44039.9945,54581.6571,-3925.4576,-3700.2414,21746.7248
51358.8488,24109.0804,50640.1509,37461.0722,33330.2915,34891.9183,4548.803,48397.3771,44054.5678,54591.2683,-3909.722,-3688.5738,21748.8259
51358.4912,24110.8239,50640.6873,37458.5241,33335.8347,34893.2594,4549.8312,48401.1322,44055.3278,54591.4024,-3910.9737,-3693.4912,21751.4187
51347.9859,24101.7938,50638.0051,37449.8069,33314.8688,34888.2973,4548.043,48378.3334,44041.425,54585.1886,-3925.8152,-3704.4436,21747.8424
51334.843,24099.648,50636.977,37443.9061,33300.4296,34879.446,4545.8525,48360.2285,44033.1101,54581.3441,-3933.9513,-3711.1491,21745.9202
51344.0073,24095.2224,50633.803,37447.7953,33314.7794,34880.8765,4542.6786,48375.4724,44039.6816,54584.5181,-3927.7375,-3708.1987,21743.7297
51356.0772,24096.6529,50632.1043,37457.0042,33329.7104,34881.8153,4543.7068,48392.7727,44046.4765,54589.2119,-3919.6908,-3699.0792,21749.1835
51349.3717,24101.1679,50632.4619,37459.2841,33331.8114,34886.1963,4545.0032,48394.7843,44056.8924,54588.6755,-3916.5169,-3696.6205,21751.1058
51337.3017,24094.2389,50631.1208,37449.8069,33318.6686,34885.1681,4543.4833,48376.5006,44046.8788,54584.6969,-3927.2457,-3707.7516,21748.1107
51325.9023,24086.4158,50631.6125,37439.1228,33299.8484,34878.1496,4541.2928,48365.9953,44036.9099,54582.6852,-3935.0688,-3715.5747,21746.7248
51340.1181,24091.8249,50632.1937,37447.4823,33311.7843,34884.8552,4542.3657,48381.4627,44042.9449,54591.4918,-3923.4459,-3701.3143,21748.8259
51345.5272,24092.0037,50631.2996,37455.6184,33326.4023,34884.5869,4541.9633,48385.3966,44051.1703,54595.1575,-3917.9027,-3690.8537,21750.8823
51340.6992,24083.7783,50626.8293,37453.8749,33326.4023,34885.5257,4539.3258,48389.5093,44045.2695,54588.9437,-3919.1991,-3695.7711,21749.1388
51321.7896,24071.8424,50623.5212,37439.8828,33307.5821,34882.2623,4538.0294,48375.6065,44030.9644,54577.8126,-3932.8784,-3707.7069,21743.4168
51309.4515,24061.7841,50621.5543,37432.1491,33290.0137,34877.5685,4535.6601,48361.7485,44023.1413,54570.5259,-3941.0144,-3718.5252,21741.3604
51315.3076,24064.4664,50620.8837,37438.5417,33308.0292,34874.8863,4536.6436,48379.5851,44028.9527,54576.7397,-3928.408,-3706.634,21743.1039
51332.9208,24066.7462,50619.8108,37448.5105,33320.7697,34878.8202,4539.0129,48393.7114,44041.6038,54578.8854,-3914.997,-3697.291,21743.4168
51330.9538,24065.7181,50620.079,37453.0703,33312.5442,34877.3897,4539.3258,48392.5492,44042.2297,54577.3655,-3915.8463,-3700.1967,21740.2428
51314.7265,24064.377,50622.1801,37444.8448,33306.6881,34872.6511,4537.7165,48373.3714,44030.6962,54569.9447,-3932.4313,-3713.1608,21734.1185
51304.7129,24056.4644,50626.0693,37428.9304,33289.2537,34866.035,4532.6203,48358.1275,44018.1345,54562.6134,-3948.9716,-3722.8614,21730.0057
51326.5282,24068.1767,50630.2267,37439.7039,33304.587,34874.4392,4536.7777,48377.6182,44031.5455,54568.5142,-3931.6267,-3709.808,21738.2312
51340.878,24075.9104,50630.0032,37451.8186,33330.3809,34882.9329,4542.3657,48398.2265,44049.6504,54577.902,-3912.8959,-3693.1783,21745.6073
51331.8032,24074.927,50626.4269,37447.1247,33328.861,34882.8882,4540.801,48392.9068,44044.4648,54576.3373,-3918.9756,-3697.1122,21743.685
51313.2513,24066.478,50627.1869,37435.7253,33312.0525,34880.8318,4535.0343,48379.8087,44035.8818,54568.6036,-3933.6383,-3707.4834,21744.132
51307.708,24061.1136,50628.4833,37432.9537,33304.2741,34881.5918,4538.0294,48373.0137,44030.3385,54564.9827,-3936.7229,-3712.8925,21745.5626
51316.6487,24064.5558,50627.4104,37437.8264,33321.172,34885.3022,4542.1869,48389.1964,44038.3852,54572.0011,-3925.547,-3705.74,21750.7035
51321.9684,24066.478,50623.7,37439.2122,33334.4489,34881.5024,4535.7943,48401.624,44050.8127,54575.8009,-3920.3167,-3699.3027,21750.4352
51316.8275,24062.4994,50618.7826,37430.7632,33322.5131,34874.2157,4530.6534,48397.6901,44044.733,54569.8106,-3926.5752,-3705.9188,21746.7248
51303.5506,24048.9542,50612.8818,37427.6787,33301.0554,34865.0068,4527.5241,48377.1265,44034.183,54559.9312,-3937.8405,-3721.0733,21742.7909
51288.6643,24034.8727,50602.5106,37419.945,33280.0001,34856.8261,4515.9906,48350.1256,44016.7487,54552.5551,-3946.7812,-3735.8254,21732.9115
51296.5322,24036.7502,50595.358,37421.6884,33296.3616,34853.4286,4514.6495,48354.8194,44024.1247,54554.1644,-3941.4614,-3729.6563,21734.9231
51305.6517,24037.9125,50592.3629,37425.98,33311.1137,34852.9369,4514.6942,48369.9739,44027.254,54556.042,-3932.9678,-3716.737,21734.7443
51300.1978,24030.4917,50587.4902,37426.427,33310.1749,34852.0428,4513.219,48364.9671,44020.1461,54551.2587,-3937.2593,-3717.2288,21730.4975
51292.9559,24026.826,50586.5067,37426.1141,33291.8018,34854.4121,4515.633,48350.7514,44012.8595,54552.3316,-3944.2778,-3723.979,21727.3682
51284.6857,24030.5364,50587.9819,37420.5261,33280.4471,34855.5297,4518.5387,48340.8272,44008.3891,54549.56,-3950.8492,-3729.8352,21728.754
51290.0501,24037.0184,50589.9489,37423.6107,33297.4344,34856.8261,4518.494,48354.9088,44022.5601,54551.9292,-3940.0756,-3719.1957,21733.135
51297.7839,24038.4936,50593.3017,37431.8808,33326.0894,34860.5365,4522.2491,48375.8301,44032.7078,54559.0818,-3929.0339,-3708.6457,21736.443
51303.3718,24040.6841,50596.4309,37433.4008,33328.2799,34867.4655,4528.4629,48379.6746,44037.2229,54565.385,-3927.7375,-3705.2482,21741.4945
51293.3582,24038.6724,50598.4426,37428.9304,33308.1186,34868.7619,4529.044,48365.0565,44036.2394,54564.1333,-3936.6335,-3714.1889,21740.0193
51284.2387,24031.1176,50597.1462,37418.1122,33295.0652,34862.1458,4525.2442,48353.0313,44025.9576,54558.7242,-3949.9104,-3725.9012,21736.8901
51304.4,24037.4655,50598.1743,37426.4717,33310.1749,34865.8115,4527.6582,48371.7173,44037.9381,54562.971,-3938.4216,-3712.9372,21741.7628
51322.0131,24048.5072,50600.3648,37435.8594,33325.7765,34871.2206,4533.6932,48384.9049,44054.7466,54572.4928,-3926.3517,-3700.0626,21742.925
51309.9432,24043.0981,50596.9226,37429.9586,33320.6803,34865.6774,4532.5309,48385.7542,44047.1917,54569.8106,-3934.7112,-3702.6107,21735.4596
51288.3514,24038.0466,50594.6428,37423.7895,33301.4131,34856.3343,4523.769,48364.2966,44037.1335,54566.1002,-3947.1835,-3716.3347,21729.1117
51268.816,24029.2847,50591.5135,37409.5738,33282.8611,34850.0758,4518.8516,48348.5162,44029.0868,54564.6697,-3962.1592,-3728.494,21725.4907
51287.4573,24032.9951,50590.7536,37417.7098,33303.5141,34852.1322,4519.2987,48365.6377,44039.8157,54568.4695,-3955.543,-3720.9839,21729.7375
51305.6964,24037.5549,50590.3065,37430.4056,33317.7745,34857.5413,4519.3434,48390.4481,44053.7184,54573.2975,-3939.9415,-3705.9635,21734.5208
51301.2707,24033.0845,50587.222,37431.4785,33309.6385,34858.8377,4514.2919,48390.4928,44047.0576,54576.6503,-3945.4848,-3709.4057,21728.8882
51283.5681,24023.7862,50583.8245,37421.4649,33291.0419,34851.2828,4509.3745,48371.8961,44035.6582,54572.2693,-3962.5615,-3724.6495,21723.2555
51272.3923,24019.9864,50581.187,37410.6467,33274.5463,34845.5161,4505.1724,48360.1838,44025.287,54564.7591,-3972.7539,-3735.3784,21721.9144
51289.3796,24032.5928,50585.7021,37425.0412,33293.7688,34853.1157,4510.9391,48377.797,44046.2083,54572.4034,-3955.6324,-3724.0237,21730.0951
51304.2659,24034.9174,50590.7536,37435.5465,33313.8853,34857.0049,4516.4376,48399.6123,44059.1723,54580.0924,-3945.3954,-3713.3843,21735.996
51310.7032,24037.2866,50591.5135,37436.9323,33315.5394,34859.9553,4516.3482,48406.2731,44054.9254,54578.349,-3945.3506,-3716.3794,21734.5208
51296.0404,24033.308,50590.6641,37433.0878,33296.898,34855.3509,4513.8896,48389.8669,44038.4299,54571.1964,-3960.2369,-3731.7574,21725.4907
51281.1542,24021.4169,50586.9091,37426.2929,33279.7319,34849.9864,4510.7603,48372.3432,44027.4775,54563.1051,-3970.7869,-3740.9663,21720.3498
51294.0288,24033.8892,50593.7487,37438.5417,33307.448,34863.621,4517.1976,48395.9913,44040.0392,54570.8388,-3947.1835,-3721.7438,21728.5752
51306.4563,24050.2954,50599.4707,37449.1811,33335.3877,34874.7969,4525.1995,48417.5831,44061.4969,54582.1488,-3930.375,-3704.8906,21737.4712
51312.7148,24056.4197,50607.9644,37446.9906,33331.3197,34878.4626,4530.564,48423.3499,44068.2918,54588.6755,-3932.0737,-3705.3823,21740.6452
51312.1337,24054.7657,50613.0606,37444.9342,33322.1108,34878.4626,4531.9498,48418.0301,44060.3346,54582.6852,-3944.546,-3715.4853,21738.4547
51294.2523,24046.2273,50606.3104,37434.4289,33310.5773,34867.9572,4520.9974,48395.2314,44046.0742,54574.6386,-3958.9852,-3726.6165,21729.7375
51293.0006,24043.7239,50602.2871,37439.2569,33318.2216,34868.4043,4517.1976,48405.7814,44050.2763,54574.1469,-3948.5246,-3717.1841,21729.1564
51320.1803,24050.0718,50608.9479,37451.7739,33343.032,34880.0272,4523.0091,48433.6317,44066.2801,54577.7231,-3930.6432,-3704.7118,21735.4149
51330.4621,24056.375,50611.183,37457.4065,33344.5966,34883.3799,4526.4512,48441.8571,44070.6164,54578.7066,-3931.8502,-3705.0694,21737.203
51314.4135,24055.5257,50606.4892,37450.2093,33326.6705,34883.6482,4525.9148,48427.3732,44056.0877,54572.4034,-3949.5081,-3718.3017,21733.6267
51304.4447,24054.1846,50605.0587,37443.3249,33320.7697,34879.5801,4523.5902,48416.3761,44050.8574,54571.3305,-3960.7733,-3725.9459,21731.0339
51313.3854,24058.6996,50610.6466,37452.8915,33333.9125,34887.0456,4528.2841,48429.8766,44070.214,54581.0312,-3947.7199,-3710.1209,21739.6617
51331.7138,24064.1534,50612.8818,37467.6883,33349.1564,34892.3653,4534.1849,48452.2283,44082.9545,54587.6026,-3932.6996,-3697.2463,21747.4848
51330.1939,24066.2545,50616.771,37470.1023,33344.9095,34891.2477,4532.7097,48454.1506,44077.5454,54586.4403,-3934.89,-3701.0908,21746.0543
51313.5642,24062.6335,50614.9828,37453.7408,33323.6307,34885.3022,4527.1665,48440.0243,44064.492,54582.1041,-3948.7481,-3716.6923,21739.1253
51302.433,24065.3157,50614.5358,37446.3201,33314.1536,34880.9659,4524.7972,48423.0816,44060.1557,54579.8689,-3955.7666,-3725.8565,21734.6996
51315.8441,24068.132,50614.0888,37451.4163,33328.5034,34888.5208,4529.804,48443.1535,44070.0799,54583.9369,-3939.3604,-3712.5796,21740.6899
51329.3445,24073.72,50616.3239,37455.8419,33348.7093,34897.3721,4535.2131,48468.0533,44088.8554,54591.9836,-3925.3682,-3697.3804,21747.8871
51334.7536,24080.8725,50619.2744,37455.1713,33343.7026,34897.6851,4535.6601,48471.0932,44091.8505,54596.5433,-3928.408,-3693.8041,21749.2729
51317.7663,24073.4071,50619.4085,37448.2423,33321.2614,34890.4878,4532.2627,48455.6258,44077.2325,54586.8427,-3938.9133,-3705.9635,21745.2943
51306.5904,24062.0524,50619.7214,37438.7652,33309.6385,34887.6268,4528.1947,48443.5111,44073.7456,54584.071,-3948.6587,-3714.9042,21741.4051
51325.9917,24066.7015,50618.9167,37450.9245,33330.2915,34888.3867,4526.3171,48451.6919,44076.3384,54588.0944,-3936.9911,-3706.7682,21743.5062
51334.7536,24071.0825,50616.9051,37452.7574,33345.4013,34883.7823,4521.5786,48461.7501,44082.731,54591.7153,-3934.1748,-3699.258,21744.0873
51328.4504,24073.2729,50619.1403,37451.1033,33332.9737,34886.7327,4523.2773,48462.1078,44086.1285,54595.0681,-3936.097,-3699.7497,21743.9085
51319.778,24073.6306,50617.0392,37444.4425,33321.4849,34885.3916,4525.3783,48448.652,44076.8749,54591.1342,-3947.4964,-3711.4173,21739.5276
51306.9928,24066.4333,50610.7807,37443.7273,33315.6735,34881.9494,4525.5572,48435.1963,44070.527,54587.4685,-3958.0017,-3717.2735,21736.2642
51323.7119,24066.7462,50609.3949,37447.7059,33314.1536,34879.5801,4524.7525,48449.3673,44074.1926,54587.9602,-3948.8375,-3712.1773,21737.4265
51336.2736,24066.031,50613.91,37452.2209,33328.1904,34879.2225,4524.5737,48469.0368,44090.9564,54590.3295,-3933.7277,-3706.4552,21740.3769
51340.6545,24063.2147,50613.4182,37450.3881,33333.8678,34879.1778,4522.7855,48467.1146,44091.3588,54591.7153,-3933.8619,-3707.3493,21737.8736
51324.7401,24061.0689,50613.8206,37436.3512,33323.8989,34881.3683,4521.4891,48451.2448,44079.2888,54585.2333,-3947.6305,-3720.1792,21734.2526
51309.8091,24056.9115,50614.5805,37431.4785,33309.1468,34880.6977,4520.2374,48440.6054,44071.8234,54579.2878,-3953.3973,-3731.1316,21732.0174
51322.8178,24059.5043,50616.9945,37440.9109,33325.5976,34884.7657,4518.8963,48451.7366,44080.9429,54583.4899,-3941.3273,-3721.2521,21735.549
51338.2405,24062.2759,50615.3852,37450.2093,33339.9028,34886.5092,4518.8516,48472.1661,44089.8836,54587.8261,-3933.2807,-3712.8925,21735.9066
51328.7634,24057.1797,50613.4182,37445.0684,33333.2866,34882.8882,4517.1529,48475.1612,44085.4579,54590.553,-3939.3604,-3718.257,21733.3138
51307.0375,24048.8648,50614.5805,37429.9139,33309.415,34875.6909,4514.426,48454.8658,44072.0022,54583.8028,-3954.336,-3729.5669,21726.8318
51308.3786,24045.7356,50612.9712,37432.0596,33297.2109,34875.4674,4515.633,48437.1632,44067.3977,54579.109,-3964.8414,-3734.6631,21721.6462
51324.2036,24057.3585,50618.6932,37441.5368,33319.205,34877.3897,4518.3152,48466.444,44085.4132,54586.8427,-3951.5197,-3721.3862,21726.653
51350.4446,24069.2049,50625.7564,37449.1364,33341.3333,34884.274,4521.668,48490.1816,44090.867,54592.7435,-3938.1981,-3711.8196,21732.375
51350.2657,24072.6024,50630.7632,37453.1597,33340.6627,34886.1068,4526.4065,48485.5771,44093.6387,54596.4092,-3938.4216,-3709.1374,21738.9017
51335.9606,24075.9552,50632.6407,37445.5601,33324.6589,34889.5937,4529.8487,48477.307,44089.8836,54600.5219,-3945.6636,-3709.9421,21739.4829
51326.9305,24072.2895,50629.7797,37443.4143,33311.7396,34889.2808,4532.0839,48468.3663,44090.5541,54601.4607,-3952.9949,-3716.9605,21740.7793
51335.156,24071.4848,50627.5892,37447.7506,33325.0612,34889.9513,4533.872,48480.6597,44097.7514,54602.3548,-3943.2496,-3708.5116,21741.4498
51350.0869,24078.1009,50627.8574,37455.4396,33350.3187,34894.6005,4538.7894,48508.8229,44113.7552,54607.898,-3926.4858,-3694.5641,21745.3837
51350.3551,24080.2467,50630.6291,37454.1879,33350.1846,34897.0592,4540.7116,48508.5547,44120.1925,54610.4014,-3926.5752,-3695.8158,21745.5178
51338.1064,24075.1952,50628.4386,37443.1461,33331.9902,34890.9348,4537.3142,48483.2525,44104.5016,54602.8912,-3942.1767,-3707.6175,21741.0028
51332.9208,24075.1952,50629.288,37443.1461,33320.3673,34888.9679,4536.8224,48477.0834,44096.0079,54597.6609,-3952.1009,-3714.0548,21740.0193
51335.156,24077.5645,50628.5727,37449.047,33330.3362,34890.0855,4535.1684,48487.0523,44103.5628,54599.4937,-3944.6354,-3708.0199,21738.8123
51348.12,24080.9172,50627.2316,37452.668,33343.4343,34893.7064,4535.4813,48498.1388,44111.2071,54602.3548,-3932.2972,-3700.8673,21738.9911
51342.3532,24082.2136,50630.5397,37454.0985,33345.6248,34897.3274,4536.9118,48499.0776,44110.2237,54605.6181,-3931.7161,-3700.8226,21741.6286
51329.4786,24077.0727,50634.6524,37450.6116,33326.894,34896.9698,4540.4434,48487.9464,44101.9535,54604.9476,-3944.0542,-3709.5398,21741.8522
51320.7614,24075.5975,50633.6689,37442.2967,33311.516,34889.5937,4536.9118,48486.7841,44094.8457,54602.5783,-3954.8278,-3713.116,21739.2594
51335.8712,24082.9289,50632.4619,37450.701,33328.861,34894.0194,4534.2296,48500.1951,44108.7484,54609.2391,-3941.1038,-3700.3756,21742.1651
51348.0306,24085.9687,50632.9089,37465.1402,33344.8201,34898.9367,4538.6553,48518.613,44118.5385,54613.173,-3927.1563,-3694.9664,21749.4965
51354.6467,24086.684,50639.5698,37469.3424,33347.9941,34906.7599,4546.5231,48518.5236,44126.3169,54619.9232,-3920.8978,-3694.7429,21757.409
51341.4592,24079.3973,50641.1791,37452.2656,33326.8046,34897.2827,4541.561,48499.614,44113.6658,54615.6764,-3938.0193,-3705.74,21752.3128
51329.9257,24075.4634,50638.631,37443.5931,33314.0194,34888.7444,4539.907,48493.7578,44106.4239,54612.0554,-3949.061,-3713.6078,21746.9484
51347.1812,24081.6325,50637.4687,37455.3949,33329.1739,34890.6666,4542.7233,48512.8015,44113.0847,54617.5987,-3937.8852,-3704.1754,21747.0825
51359.3853,24093.5236,50640.0168,37464.0226,33355.1913,34897.1486,4545.0032,48530.2359,44122.1595,54625.1088,-3924.9212,-3691.9713,21750.0776
51350.9363,24091.3332,50642.9672,37461.251,33348.1729,34895.0475,4542.8127,48525.095,44114.0682,54621.309,-3927.0669,-3694.0277,21748.513
51333.2784,24083.3759,50640.0168,37443.9955,33324.8824,34888.5208,4536.5989,48507.4371,44102.937,54610.2226,-3941.8191,-3710.0762,21743.0592
51325.3212,24079.8444,50635.457,37437.6476,33310.5773,34884.9893,4533.3356,48502.7879,44099.9418,54606.6016,-3947.8987,-3718.6146,21741.0475
51340.1181,24093.0319,50640.8662,37450.7457,33334.0913,34891.7395,4537.7612,48528.2242,44116.8845,54615.4976,-3931.582,-3704.0412,21748.7365
51354.6467,24098.3963,50639.9721,37461.1169,33355.0125,34896.2992,4540.0411,48544.1834,44126.004,54623.9018,-3915.3546,-3690.8537,21749.4965
51345.2142,24091.8696,50632.3278,37451.908,33341.2439,34888.342,4537.0013,48542.0376,44112.0118,54620.5491,-3923.9377,-3699.9732,21744.0873
51324.4271,24079.5761,50626.874,37434.6972,33311.6502,34882.2176,4532.0839,48512.8909,44099.9418,54611.1614,-3943.339,-3715.1724,21738.1865
51319.778,24073.6753,50629.0644,37442.2967,33305.2576,34885.7939,4531.4133,48502.2068,44101.8641,54607.5851,-3946.5129,-3717.7205,21737.203
51338.1064,24079.3973,50630.2267,37448.5552,33320.3673,34885.2128,4532.0839,48525.8102,44107.1391,54608.1215,-3936.6782,-3707.8857,21741.3604
51351.7857,24081.8113,50629.6456,37454.6349,33341.1992,34886.4645,4531.1898,48543.1999,44116.4821,54612.6366,-3924.5635,-3701.7167,21743.9532
51342.7556,24083.1524,50626.9187,37451.3716,33337.5782,34888.7444,4529.2228,48534.6168,44116.7504,54609.0156,-3927.9163,-3708.2881,21741.0475
51326.26,24078.8162,50627.0528,37442.1626,33321.932,34884.8999,4528.4629,48514.5003,44112.8612,54607.4957,-3939.0922,-3719.5086,21739.6617
51320.2697,24071.7083,50626.9634,37435.0548,33308.5209,34886.1068,4530.5192,48506.3195,44106.8262,54607.451,-3944.993,-3721.2968,21739.7958
51328.5398,24074.4352,50623.9682,37445.1578,33320.2332,34889.5937,4532.218,48523.0833,44115.141,54610.9378,-3935.6053,-3709.6739,21740.6452
51343.292,24081.0066,50625.3541,37462.8156,33344.1496,34894.377,4536.4648,48539.4448,44123.4112,54617.5539,-3924.9212,-3701.0461,21746.859
51339.5369,24086.1028,50627.4551,37460.4464,33336.7735,34895.2264,4535.0343,48540.3389,44119.8349,54614.4694,-3932.0737,-3707.1258,21746.0543
51331.3115,24078.7715,50628.2151,37445.8283,33315.6288,34888.9679,4531.0557,48525.6314,44110.4025,54609.2838,-3947.8093,-3716.5582,21739.9299
51320.0015,24071.0825,50624.8623,37442.1179,33304.587,34887.1797,4531.0557,48515.2602,44106.1556,54607.898,-3951.3856,-3721.2968,21737.9183
51331.5797,24077.028,50629.1091,37457.5853,33326.5364,34894.6899,4533.5591,48538.5507,44113.0847,54613.3518,-3939.0475,-3707.4387,21743.5062
51355.0043,24084.1359,50629.5115,37470.1023,33348.9776,34899.6967,4538.4765,48555.5381,44126.7192,54614.6035,-3922.8648,-3689.9596,21747.306
51350.8022,24077.5645,50630.4502,37465.8108,33339.9922,34901.4848,4541.8292,48545.9715,44123.1877,54615.587,-3920.2273,-3690.6749,21746.5907
51326.6623,24066.2992,50628.528,37454.0091,33317.1934,34893.0359,4536.3307,48520.5352,44113.8446,54607.0039,-3937.4381,-3708.4669,21741.5392
51321.6555,24056.2409,50625.0411,37448.5552,33308.2527,34889.3255,4534.2296,48507.2136,44104.144,54600.0749,-3945.4848,-3718.4805,21739.2147
51338.1958,24062.9464,50624.5941,37463.7097,33331.2303,34895.4499,4536.9565,48526.1679,44113.1741,54603.7853,-3932.8337,-3703.4154,21743.9085
51351.4727,24073.0047,50631.4784,37473.1421,33345.893,34900.1884,4539.147,48547.2232,44128.4627,54614.9164,-3921.926,-3687.5457,21750.7482
51345.8848,24075.5528,50626.8293,37466.7943,33333.8678,34893.7958,4535.9731,48543.6916,44122.83,54615.587,-3926.7093,-3695.5923,21747.1719
51336.9441,24070.5013,50625.0858,37453.8749,33306.5093,34887.0009,4530.6981,48524.9609,44113.8893,54611.6084,-3942.8025,-3714.0548,21741.9416
51329.8362,24070.5907,50623.8788,37445.0237,33294.6628,34885.4363,4526.5853,48508.9123,44106.2897,54604.9029,-3952.9502,-3723.8896,21738.9017
51338.8664,24079.7102,50627.7233,37454.5455,33311.1584,34892.9912,4526.0936,48527.8666,44116.2139,54610.0438,-3942.1767,-3715.1724,21739.8852
51353.2609,24080.5596,50628.6621,37461.9216,33326.0,34895.1817,4522.3832,48540.7859,44121.7124,54612.6366,-3932.5207,-3705.5165,21741.8969
51347.5388,24074.7929,50625.7564,37456.3336,33318.758,34895.4499,4516.6612,48533.0522,44104.7251,54604.1429,-3939.2263,-3715.1277,21737.7841
51328.9422,24065.4945,50621.3754,37442.8779,33290.1478,34889.0126,4509.2851,48514.3214,44089.2577,54592.0283,-3957.0183,-3730.1928,21729.5587
51324.8742,24058.4314,50616.9051,37438.1393,33280.7153,34885.1681,4507.7652,48503.235,44084.6533,54587.1109,-3964.1261,-3732.7856,21724.999
51340.0733,24062.3653,50618.9615,37446.7224,33300.1614,34892.8124,4512.1014,48517.1825,44097.8855,54592.5647,-3949.5975,-3721.2074,21733.4926
51350.6681,24065.8522,50624.9517,37453.115,33320.5909,34901.7084,4512.1014,48528.2689,44108.1226,54599.1808,-3938.511,-3709.9868,21739.6617
51349.327,24062.7676,50627.3657,37448.6893,33324.8377,34903.5859,4516.1694,48529.6547,44108.5249,54597.5715,-3936.9911,-3710.9256,21740.2428
51331.4903,24059.6831,50624.8176,37440.6427,33307.9398,34895.4499,4516.5718,48511.6392,44093.0128,54591.8047,-3949.3293,-3721.9226,21735.6831
51318.6604,24061.2477,50627.9916,37437.5582,33300.6531,34890.4431,4519.4328,48497.4235,44079.1994,54593.727,-3953.3526,-3722.7273,21734.342
51321.2979,24064.377,50631.389,37443.5484,33316.1205,34891.5607,4527.2559,48512.0416,44091.2247,54601.416,-3937.6616,-3710.3444,21739.7958
51329.1657,24070.9037,50629.4221,37445.0237,33335.2089,34895.4946,4534.0955,48531.1747,44095.0245,54606.2887,-3927.3798,-3697.9616,21746.9484
51322.3708,24066.4333,50625.6223,37436.3512,33324.793,34886.688,4533.5144,48510.6111,44083.178,54601.2372,-3937.1252,-3703.5495,21740.5111
51302.5224,24058.789,50630.3161,37431.3891,33306.9116,34878.9543,4534.9896,48486.7841,44069.0964,54599.4043,-3949.9551,-3716.1559,21740.8687
51295.504,24061.963,50633.5348,37427.8575,33301.4578,34877.8367,4540.0411,48475.3847,44061.7651,54596.6774,-3953.9337,-3722.1014,21743.685
51303.9082,24071.9765,50633.2666,37435.1889,33319.7415,34879.9378,4541.4716,48479.5421,44070.7058,54595.7834,-3942.0426,-3712.7137,21749.6306
51312.983,24078.4585,50633.3113,37445.5601,33336.997,34884.6763,4543.7068,48487.4547,44072.0469,54598.9573,-3923.0436,-3701.9849,21753.1174
51303.5059,24081.4537,50634.4736,37446.0071,33330.2468,34884.274,4544.735,48466.3546,44064.2685,54594.487,-3924.9659,-3702.1637,21749.5412
51288.6643,24081.6325,50632.9089,37433.669,33308.0739,34876.9426,4543.3044,48435.0175,44046.8341,54586.485,-3938.0193,-3713.9207,21744.4003
51277.8014,24077.028,50630.8526,37425.667,33295.244,34872.0253,4542.9915,48421.07,44034.3171,54583.1323,-3947.6305,-3722.772,21741.1816
51282.0929,24080.7384,50634.2947,37431.6126,33307.1798,34877.345,4544.1091,48431.7094,44042.7214,54585.9039,-3936.097,-3709.9868,21745.5178
51301.0025,24091.8249,50639.0333,37448.8682,33332.482,34887.1797,4548.0877,48436.8056,44046.9235,54586.1274,-3919.3779,-3699.4815,21749.4071
51300.6002,24094.5518,50640.3297,37449.7622,33331.0515,34889.8172,4550.904,48427.0602,44038.4299,54587.2003,-3923.6695,-3704.7118,21748.3342
51280.6624,24091.8696,50639.2121,37439.9275,33302.7989,34883.514,4547.7301,48411.9058,44022.2472,54582.417,-3938.8239,-3719.0616,21741.7181
51268.0113,24085.0747,50635.3676,37430.8079,33288.2255,34876.585,4542.1422,48390.1799,44011.2054,54577.4996,-3948.0776,-3726.8847,21738.5441
51285.5351,24092.0931,50635.6806,37450.2987,33315.137,34883.4246,4550.6358,48396.9748,44027.0305,54583.624,-3930.5091,-3712.5796,21747.6189
51299.1697,24093.166,50638.8992,37461.0275,33330.8727,34885.928,4554.525,48414.1409,44033.3337,54583.2217,-3917.1875,-3703.5942,21751.1058
51291.0336,24089.3662,50636.7087,37464.6932,33325.7765,34886.7774,4550.9487,48401.4004,44025.1082,54580.003,-3920.9425,-3706.8576,21747.6189
51276.1474,24082.0795,50630.4055,37459.2394,33297.9262,34883.9164,4545.1373,48372.1644,44012.0995,54569.5871,-3937.7511,-3721.6097,21740.5558
51268.1007,24078.9503,50627.9916,37451.2821,33289.2984,34881.7259,4542.5892,48351.0643,44007.048,54564.5803,-3942.4896,-3722.8614,21740.3769
51280.7518,24081.7219,50628.975,37459.7758,33302.7989,34879.8931,4541.1587,48358.3957,44016.0781,54567.3519,-3929.3915,-3709.9421,21743.4615
51292.33,24082.2583,50628.7068,37466.2578,33315.897,34877.792,4539.5494,48370.0186,44023.8118,54566.7261,-3917.2322,-3704.4436,21746.2778
51288.1279,24082.3925,50625.2199,37457.8983,33308.1633,34876.9873,4539.2364,48374.2654,44015.7652,54565.2062,-3920.0932,-3710.3444,21745.1602
51274.1357,24078.1009,50625.7564,37445.9177,33281.6094,34872.7852,4536.3307,48353.9253,44010.1773,54563.5968,-3936.9911,-3725.0072,21740.6452
51267.0279,24071.4848,50627.7233,37437.5582,33268.2431,34867.0185,4532.8885,48333.2276,43995.5145,54556.7125,-3950.5363,-3734.4396,21735.7725
51281.3777,24074.6588,50624.8176,37439.9722,33280.4918,34868.449,4531.2345,48343.3753,44002.6224,54560.3782,-3944.9483,-3730.5504,21735.1466
51294.1629,24076.581,50619.8108,37444.5766,33294.2158,34869.8795,4530.7428,48357.2781,44008.2103,54562.3451,-3937.304,-3724.4707,21734.342
51290.6313,24078.7715,50623.253,37447.7506,33295.0652,34869.4772,4529.9828,48354.3724,44005.3493,54567.4413,-3938.6451,-3723.6661,21734.8337
51279.8578,24071.5295,50623.4318,37436.53,33276.4685,34865.6774,4527.7029,48334.7476,43999.2249,54561.9428,-3949.5081,-3735.736,21730.0504
51279.0978,24073.4071,50625.5776,37433.7137,33266.3655,34866.9738,4531.7709,48328.4444,43996.2298,54562.3004,-3951.1174,-3738.3288,21732.0174
51289.7819,24073.6306,50623.5659,37438.3628,33277.5414,34865.0515,4534.9002,48330.7689,44003.2035,54565.4297,-3942.7131,-3731.0421,21739.0805
51310.2561,24081.1855,50625.9352,37453.2044,33295.4675,34874.7969,4539.2811,48345.2529,44013.8429,54569.4977,-3927.6034,-3713.5184,21747.6189
51315.4864,24087.8463,50626.114,37454.6349,33295.7804,34873.1428,4540.354,48349.4103,44011.6078,54568.3354,-3929.8385,-3708.1987,21748.7812
51301.226,24083.3312,50627.5445,37438.2287,33279.1954,34870.0136,4538.7,48330.6348,43998.3308,54563.5521,-3943.0261,-3717.497,21745.5626
51294.8781,24085.6111,50630.4502,37429.3327,33267.3043,34870.3265,4537.046,48314.631,43996.6321,54562.5687,-3948.3458,-3721.2521,21741.1369
51308.7809,24081.0066,50630.182,37434.2054,33285.2304,34872.8746,4538.1635,48328.6232,44009.5961,54569.0507,-3937.2593,-3713.6972,21745.9649
51314.6818,24077.1621,50623.2977,37442.2073,33295.9592,34868.7172,4534.7214,48336.3569,44012.8595,54571.9117,-3930.5091,-3711.3279,21744.0426
51310.6138,24074.3905,50616.771,37432.3726,33283.8446,34861.2964,4525.9148,48330.7689,44007.5845,54565.4297,-3940.0309,-3715.9771,21740.0193
51298.3203,24075.6422,50617.0839,37424.6836,33268.9136,34855.7532,4521.4891,48316.6873,44004.4552,54563.4627,-3949.8657,-3723.9343,21739.7958
51289.916,24073.3176,50618.1568,37423.8789,33263.1022,34858.793,4524.5737,48320.2189,44006.4669,54568.5142,-3951.475,-3727.8682,21739.9746
51298.9461,24075.821,50618.1121,37425.7118,33274.7698,34862.1011,4526.943,48345.9234,44019.3862,54574.4151,-3939.4051,-3716.4688,21741.1369
51316.7381,24080.0679,50619.9449,37431.7467,33296.6745,34865.9903,4526.8536,48359.2898,44025.1529,54577.4549,-3926.8434,-3705.7847,21743.4168
51314.2794,24081.9007,50626.1587,37442.6991,33296.4063,34867.7784,4531.9498,48363.9836,44018.9391,54576.8738,-3928.8998,-3706.9917,21743.7744
51296.398,24070.546,50626.7846,37433.7584,33275.7086,34858.793,4535.0343,48343.1965,44009.0597,54569.4977,-3944.4566,-3722.9955,21739.2147
51292.1959,24063.17,50627.1422,37429.1092,33270.523,34854.3674,4534.8108,48327.5056,44005.3493,54569.8106,-3953.6208,-3730.6398,21736.443
51300.8684,24065.3604,50623.2083,37426.9187,33282.3694,34857.8095,4530.6534,48337.5192,44006.2881,54569.1848,-3950.4915,-3725.633,21734.2973
51302.433,24068.4897,50620.1684,37431.7467,33287.4656,34858.2119,4525.6019,48341.3637,44009.7302,54571.8223,-3940.3439,-3720.805,21734.3867
51302.88,24071.7977,50622.493,37434.2054,33284.9175,34862.3693,4526.1383,48342.0789,44008.9703,54574.5045,-3937.0358,-3721.6544,21734.8784
51300.4214,24069.3837,50622.5824,37430.4056,33272.4899,34861.2517,4525.2442,48334.7923,44001.6836,54571.2411,-3950.7598,-3728.5388,21731.6598
51293.0006,24062.9911,50619.0509,37422.8954,33258.2295,34855.2167,4519.8798,48332.2442,43999.806,54566.5473,-3961.578,-3736.8536,21723.3449
51304.9811,24079.0844,50620.2132,37436.53,33277.6755,34859.9553,4522.1597,48358.8427,44017.3298,54571.3753,-3948.7034,-3725.1413,21727.2341
51316.6487,24084.717,50619.1403,37447.84,33292.4277,34867.5102,4524.0372,48372.1197,44034.5854,54578.6172,-3930.375,-3713.6972,21735.7278
51309.6303,24080.6937,50615.6534,37444.4872,33290.416,34864.6939,4520.4163,48360.8544,44023.5883,54573.521,-3935.2477,-3720.5815,21731.6598
51291.0336,24075.374,50614.8934,37433.2666,33269.7183,34858.793,4515.4542,48341.8554,44003.9188,54563.8651,-3954.1125,-3739.0441,21723.8367
51292.9559,24075.9104,50617.1286,37433.9372,33267.9749,34866.9738,4521.0421,48344.9847,44002.8012,54564.5803,-3958.8958,-3740.4299,21727.3682
51314.6818,24085.8346,50620.079,37448.8235,33289.8349,34881.5471,4526.8089,48374.7125,44026.2705,54575.6221,-3937.9299,-3725.9907,21739.6617
51334.7089,24095.4459,50623.8341,37465.2296,33312.5442,34891.2477,4530.8769,48388.347,44038.2957,54581.5676,-3920.3167,-3711.4173,21747.2613
51336.8547,24098.0387,50627.4104,37466.5707,33315.0476,34894.1088,4532.218,48392.7727,44040.4862,54580.9865,-3923.2224,-3708.4669,21748.1554
51324.2036,24087.6675,50627.768,37458.837,33301.2342,34891.3819,4529.357,48380.7474,44034.6301,54570.9282,-3937.6616,-3719.1957,21742.478
51319.1968,24082.1242,50626.6952,37452.4891,33295.3334,34888.3867,4529.6699,48373.1925,44025.2423,54566.5473,-3942.7131,-3726.0354,21735.1019
51325.8129,24090.6626,50626.9187,37455.3055,33312.6783,34889.0126,4529.2228,48394.4714,44036.5523,54572.6269,-3933.0572,-3720.6262,21736.8454
51337.5252,24089.0533,50625.4882,37461.1616,33322.6025,34889.2361,4527.9264,48410.1176,44043.2578,54578.7513,-3921.479,-3710.5232,21740.3322
51334.9324,24084.27,50628.1704,37462.3686,33319.5627,34885.7939,4529.4911,48404.8426,44045.493,54578.3043,-3923.4012,-3714.4572,21737.5606
51313.1618,24078.4585,50628.7515,37447.4376,33296.5404,34878.6414,4528.7311,48384.6813,44037.0888,54573.5657,-3939.3157,-3728.2258,21732.6432
51309.2279,24079.4867,50636.1276,37438.0946,33292.1594,34877.792,4531.9498,48368.7669,44033.2443,54574.8174,-3945.3954,-3731.3551,21733.2691
51327.0199,24092.9872,50639.6592,37446.4542,33313.5277,34883.7376,4539.7729,48395.3208,44042.5873,54582.417,-3928.6315,-3718.9275,21741.5839
51332.1161,24091.8696,50632.3278,37452.8468,33325.8659,34882.0835,4537.7612,48419.1924,44053.629,54583.0429,-3926.6199,-3714.4572,21743.5062
51320.0015,24084.3594,50627.321,37443.9955,33319.4733,34875.8698,4534.2296,48410.1623,44050.9915,54581.5676,-3933.6383,-3718.5252,21740.6899
51305.3387,24076.3128,50629.9138,37433.5796,33296.1828,34870.0136,4532.7097,48390.9398,44034.7195,54577.589,-3944.7695,-3729.9693,21738.9017
51299.4379,24070.5013,50627.9916,37419.9003,33279.3295,34864.0233,4534.2743,48376.3665,44035.3006,54578.3937,-3952.9055,-3732.115,21736.3089
51310.3455,24069.4731,50625.7117,37427.4999,33298.552,34867.0185,4536.4648,48390.1352,44050.2763,54585.3674,-3939.0922,-3718.9722,21741.8075
51324.4718,24072.2001,50623.0742,37436.6641,33322.1555,34867.2867,4536.6883,48407.6142,44061.2286,54590.0166,-3929.3915,-3708.0646,21742.7015
51322.3261,24070.5013,50622.3589,37430.3609,33325.4635,34866.7502,4534.4532,48403.5462,44058.3229,54585.9933,-3934.4877,-3711.9091,21738.9911
51304.7576,24065.9416,50621.1519,37422.4484,33306.554,34863.7104,4530.5192,48390.5375,44044.7778,54578.1702,-3952.0562,-3727.2871,21732.1068
51301.8072,24064.1534,50624.6388,37424.1024,33298.1497,34867.242,4534.4085,48384.5025,44035.5241,54578.0808,-3955.1407,-3729.9246,21735.4596
51310.3008,24068.0873,50628.7515,37430.7185,33314.1088,34873.0981,4538.9235,48397.3324,44054.0761,54589.4355,-3938.4216,-3716.0218,21741.2263
51319.6886,24072.3342,50627.9916,37441.9838,33326.3129,34874.2604,4544.1538,48410.7882,44067.8447,54598.6444,-3927.4246,-3701.672,21744.132
51315.7547,24068.0426,50627.1869,37433.0878,33319.7862,34864.7386,4542.321,48410.7435,44057.3841,54595.9622,-3937.9746,-3706.4105,21742.4333
51298.4097,24070.9931,50625.2646,37424.8624,33301.8154,34860.8494,4538.1635,48403.9932,44054.836,54591.8494,-3947.3176,-3716.9605,21742.5674
51295.8616,24070.9484,50624.6835,37429.3774,33294.7075,34862.2799,4535.1237,48385.6648,44045.1801,54587.3344,-3951.4303,-3723.6214,21739.8405
51303.7741,24068.2662,50624.0577,37434.6972,33303.827,34867.0185,4531.458,48394.5161,44052.2879,54587.6473,-3937.2146,-3716.6476,21740.6005
51309.4515,24072.0659,50623.2977,37446.3648,33321.5296,34868.0019,4529.8487,48411.4587,44062.8827,54589.8825,-3926.2623,-3707.0364,21740.0193
51302.5671,24071.1272,50623.7894,37442.0285,33315.0923,34867.8678,4530.6534,48406.0943,44055.9983,54588.3626,-3933.3254,-3712.0432,21739.17
51290.8995,24066.8356,50623.3424,37433.4455,33295.7357,34861.2964,4530.8769,48385.9777,44041.6038,54583.5346,-3949.6422,-3724.3366,21737.1136
51287.815,24062.1418,50625.0411,37430.6291,33292.83,34860.3576,4530.6534,48376.0536,44030.9644,54576.9632,-3956.5712,-3729.7904,21733.9396
51311.8654,24071.5295,50631.1208,37445.6048,33313.7512,34877.345,4535.4366,48407.2566,44046.9682,54581.21,-3937.5722,-3714.6807,21743.3274
51329.7021,24077.5645,50634.2053,37458.4347,33336.2818,34878.4626,4539.1023,48419.416,44058.5464,54585.9933,-3927.1563,-3706.187,21748.2895
51327.9587,24076.6257,50631.2102,37455.2161,33332.5267,34874.2604,4541.2928,48413.4257,44056.356,54583.9369,-3932.5207,-3710.0315,21742.478
51305.9199,24065.9863,50627.7233,37441.8944,33305.8387,34866.4373,4537.493,48393.7114,44046.0742,54578.8854,-3948.3905,-3723.219,21735.9066
51301.0919,24061.5606,50629.4221,37437.2452,33293.1876,34868.9407,4534.3637,48382.1779,44042.4085,54581.3441,-3951.6538,-3727.4212,21738.8123
51312.1784,24072.2001,50635.3229,37447.4823,33312.1419,34874.7075,4538.0741,48405.6026,44058.4123,54590.5083,-3936.1864,-3715.4853,21744.8026
51327.2434,24078.8162,50636.217,37457.4512,33333.6443,34881.1895,4540.2199,48426.345,44067.5318,54596.0069,-3920.8978,-3702.8342,21748.1554
51320.3144,24077.028,50633.6689,37450.3434,33323.9883,34876.6744,4537.0013,48416.7337,44064.2685,54587.7367,-3924.9212,-3712.1326,21743.0592
51304.6682,24072.4236,50635.8594,37450.701,33309.6385,34873.9922,4535.7943,48396.5725,44056.5348,54581.6571,-3939.9862,-3726.4824,21738.6782
51309.4515,24066.5227,50636.8428,37450.5222,33306.7328,34875.825,4537.4036,48393.7114,44055.596,54582.1041,-3942.132,-3723.979,21740.3769
51326.7964,24074.4352,50634.9206,37455.1713,33324.2565,34877.9261,4542.2316,48410.8776,44063.6873,54590.1954,-3927.961,-3709.0927,21744.4003
51337.1229,24079.442,50635.2782,37460.8487,33338.4722,34884.0952,4548.043,48425.6297,44071.734,54599.7173,-3914.1029,-3697.9616,21749.0047
51330.7303,24077.6539,50635.8594,37457.2277,33329.8892,34884.2293,4546.9701,48420.1312,44070.0799,54596.5433,-3918.4391,-3705.4718,21749.0494
51315.2182,24070.859,50635.457,37454.769,33313.8853,34878.5073,4544.5561,48408.7765,44057.1159,54586.3062,-3933.4148,-3721.9673,21741.3157
51312.2678,24064.9134,50635.457,37451.0139,33310.3985,34876.5403,4543.1703,48399.21,44051.7515,54578.5278,-3943.5625,-3726.5271,21741.2263
51325.6788,24068.3556,50632.9089,37456.1548,33321.8873,34880.0719,4540.6669,48408.8659,44060.2005,54582.1041,-3930.8667,-3715.4406,21745.2496
51338.8216,24076.581,50632.1937,37462.8156,33345.9824,34885.7492,4544.6008,48429.9213,44074.2821,54590.8213,-3919.8697,-3704.98,21752.134
51336.2288,24071.5742,50630.182,37451.8186,33337.0417,34875.9145,4539.7729,48425.6744,44066.0119,54588.2285,-3933.4595,-3715.1277,21743.8191
51319.3756,24066.3439,50631.0761,37440.1957,33315.9864,34872.6511,4534.4979,48414.3645,44053.8973,54582.1041,-3947.4517,-3726.1248,21740.3769
51298.8567,24059.2808,50626.0693,37430.8079,33300.9213,34866.035,4530.9663,48404.4403,44050.9915,54579.5113,-3957.0183,-3729.3434,21737.203
51303.5059,24058.2973,50618.5144,37427.8128,33308.9232,34863.7551,4530.4298,48411.9952,44057.6971,54579.7795,-3948.7481,-3727.2424,21736.9795
51320.0909,24067.1933,50621.2413,37441.9391,33325.0165,34866.6608,4533.3803,48434.8387,44065.5202,54591.3577,-3934.2642,-3717.0053,21742.3439
51327.8246,24069.0261,50626.6505,37441.9391,33319.205,34863.2187,4538.2529,48433.5423,44067.4871,54590.6872,-3933.5042,-3714.1889,21744.7579
51308.6021,24061.8289,50627.8574,37425.2647,33297.4344,34857.4072,4536.3307,48415.2138,44061.5863,54588.452,-3949.9551,-3728.3599,21739.3488
51295.6381,24066.0757,50630.2267,37425.3541,33298.3285,34860.447,4537.6718,48410.52,44062.6144,54589.7931,-3953.3973,-3733.7244,21736.2642
51314.8606,24076.4916,50631.7914,37441.4027,33322.6472,34866.8844,4539.8176,48428.4461,44083.7145,54595.8728,-3937.7511,-3721.0286,21742.8356
51338.7769,24090.305,50638.0498,37457.6747,33344.6413,34880.0272,4544.422,48455.6258,44100.1207,54604.3217,-3921.5237,-3707.2152,21751.7763
51344.3202,24092.5401,50645.7388,37463.0392,33347.0553,34887.448,4550.7252,48462.1972,44095.7844,54608.3003,-3920.2273,-3706.8129,21753.028
51328.7187,24087.2651,50647.7952,37454.0985,33327.4305,34883.4246,4550.9487,48440.1584,44085.5026,54604.8135,-3932.8784,-3714.9489,21746.8143
51311.1502,24076.8939,50646.5435,37446.7224,33315.897,34883.6035,4547.1936,48427.8649,44080.5852,54601.6395,-3938.1534,-3714.8148,21745.0708
51315.5311,24070.6354,50643.6825,37447.2588,33331.9008,34882.7541,4542.8127,48442.17,44083.9827,54602.3548,-3933.996,-3709.4504,21744.7132
51329.7915,24070.9037,50637.424,37451.7292,33342.272,34879.8484,4538.8788,48462.1972,44094.7115,54602.0865,-3925.0553,-3705.5612,21744.5791
51319.8674,24064.2875,50631.4784,37445.8283,33331.8114,34873.2322,4533.9614,48457.5927,44095.1139,54595.9622,-3928.9892,-3708.601,21741.4945
51309.7197,24060.7113,50628.3045,37434.876,33312.1866,34865.6327,4528.0606,48434.481,44077.1431,54585.1886,-3945.2165,-3723.0849,21734.789
51305.3387,24059.0125,50624.4153,37427.9022,33302.3518,34862.3693,4524.1714,48425.4509,44062.6591,54582.3723,-3955.543,-3732.115,21730.4975
51317.3193,24064.7346,50626.4269,37435.5018,33324.2565,34869.7007,4531.5921,48439.7113,44075.8914,54591.7153,-3939.5839,-3719.1957,21736.0854
51331.1774,24076.5363,50625.7564,37446.5883,33339.6792,34873.1428,4534.8108,48456.1622,44085.2791,54597.3927,-3927.8716,-3709.8974,21739.4829
51326.707,24071.5742,50622.7165,37447.2588,33335.7006,34871.3547,4532.6203,48453.1671,44076.5172,54592.967,-3938.2875,-3719.1957,21734.4314
51313.4748,24064.6899,50624.2812,37435.9488,33317.5063,34866.6608,4529.7593,48430.8153,44069.0964,54583.6687,-3952.4585,-3731.668,21729.8716
51308.5574,24060.1748,50627.9916,37432.462,33316.4781,34866.9291,4528.1947,48430.0107,44070.6164,54583.3558,-3959.7452,-3734.7525,21727.3682
51329.2551,24069.2049,50635.01,37450.0304,33340.4839,34877.792,4533.0226,48454.9999,44085.8155,54592.0283,-3941.9979,-3718.3017,21735.236
51340.6992,24068.9367,50633.1772,37452.8468,33348.1729,34877.8367,4534.1402,48470.6014,44090.6882,54596.0516,-3932.6549,-3709.8527,21736.3983
51323.8013,24064.377,50626.5163,37445.7389,33339.5898,34872.6511,4531.1004,48467.1593,44084.0721,54593.0564,-3939.271,-3720.2239,21734.7443
51304.7576,24062.2759,50624.8623,37431.2103,33313.5724,34866.3479,4525.3783,48444.6734,44073.0751,54586.038,-3960.6392,-3738.0606,21727.4576
51299.4826,24061.0689,50628.6621,37427.2764,33302.6648,34866.1244,4525.2889,48442.2147,44073.5668,54584.7863,-3968.8647,-3737.9265,21727.0106
51318.3475,24065.8522,50635.1441,37434.6077,33321.3508,34872.8746,4530.4298,48472.7919,44093.2363,54595.8281,-3956.303,-3722.9955,21734.6549
51332.6526,24077.3857,50639.1674,37450.2987,33345.1778,34883.3799,4536.4201,48490.8968,44104.9486,54607.898,-3938.6451,-3708.0199,21741.2263
51328.8081,24079.5314,50635.457,37447.7059,33333.8678,34879.759,4531.3239,48481.0174,44093.0128,54602.4889,-3946.5129,-3715.0383,21739.0358
51316.2911,24068.892,50634.4289,37435.6806,33310.7561,34874.171,4526.5406,48458.6209,44087.8272,54595.8728,-3958.7617,-3728.9411,21734.4761
51315.6205,24058.9678,50632.9536,37433.356,33306.241,34874.6628,4527.1665,48455.2681,44085.4132,54593.2353,-3963.6791,-3730.3269,21733.4032
51328.4504,24060.3983,50635.6806,37438.944,33328.1904,34881.0554,4532.8438,48472.032,44098.869,54597.7056,-3952.9055,-3721.4309,21736.756
51342.6661,24067.6403,50635.9041,37445.1131,33349.5587,34885.1234,4536.5989,48483.7443,44107.0944,54601.6395,-3940.7015,-3712.8925,21742.1651
51329.2998,24060.2195,50627.6786,37438.8546,33344.2837,34873.8581,4531.2792,48463.7618,44097.3938,54594.7105,-3950.4021,-3716.9158,21739.3488
51316.6487,24055.481,50628.1257,37438.6311,33329.7104,34874.9757,4528.4629,48454.5082,44082.3734,54589.9272,-3958.0017,-3729.9246,21733.3585
51311.6419,24055.8833,50629.1538,37444.4425,33322.7366,34874.5733,4528.7311,48448.4285,44076.8749,54591.5812,-3957.6441,-3736.0936,21733.4479
51320.8061,24058.8784,50630.5397,37449.7175,33338.2487,34880.2954,4526.0042,48467.2934,44095.8738,54595.5151,-3945.5295,-3723.4873,21735.6384
51336.5865,24060.0407,50631.7019,37454.5008,33352.7327,34881.3236,4525.6019,48480.5256,44104.0546,54594.5764,-3935.1583,-3714.8148,21735.7725
51328.0034,24057.0903,50631.4337,37442.3862,33339.8134,34876.8085,4522.6067,48473.1942,44101.6853,54593.1906,-3944.5907,-3720.3133,21733.2691
51311.329,24053.9163,50627.1869,37435.6806,33323.139,34869.4772,4519.7904,48455.134,44087.4249,54589.6143,-3958.717,-3733.5008,21730.4528
51307.7527,24054.6763,50627.7233,37434.4289,33318.6686,34870.1924,4520.7292,48449.9037,44083.8039,54589.8825,-3958.5382,-3736.0936,21731.4363
51325.6788,24058.9231,50626.4269,37441.0897,33334.4042,34873.6793,4522.6514,48465.4605,44093.3704,54594.3975,-3948.5246,-3720.6262,21735.6384
51341.4592,24059.8619,50629.8691,37453.7408,33345.5801,34879.446,4526.8536,48485.7559,44110.0001,54596.2751,-3931.2243,-3710.0762,21739.6617
51335.8712,24052.307,50626.4716,37443.1014,33331.7667,34874.6628,4521.8915,48478.7822,44112.0565,54594.3975,-3938.958,-3719.0616,21732.7327
51317.2299,24045.065,50624.9964,37435.0995,33314.5112,34868.9407,4518.0023,48463.2701,44093.3257,54592.4306,-3953.5761,-3730.9974,21730.6763
51312.089,24046.9873,50630.495,37441.7603,33312.6336,34876.585,4522.8302,48455.0446,44093.281,54597.0798,-3957.5547,-3731.1316,21735.8619
51327.2434,24056.1515,50631.2549,37450.9245,33326.2235,34883.4693,4524.1266,48485.0854,44104.0993,54599.449,-3946.4682,-3722.5485,21738.7676
51333.1443,24055.3021,50630.3161,37453.5173,33335.6559,34881.7259,4522.6067,48503.6373,44118.0468,54600.8795,-3936.7676,-3712.669,21741.0028
51331.5797,24054.3187,50631.2996,37459.0605,33340.4392,34882.3518,4524.1714,48497.4682,44117.555,54596.2304,-3938.1087,-3713.6972,21739.1253
51314.95,24047.6131,50628.6174,37455.3949,33319.7862,34877.7026,4521.7127,48479.721,44104.3228,54588.4073,-3952.3691,-3725.4989,21733.0009
51304.7129,24037.5549,50626.9634,37445.5601,33308.3868,34872.6511,4514.2025,48469.305,44093.7728,54584.071,-3963.9473,-3733.1432,21729.0223
51319.9568,24047.7473,50627.4551,37454.4114,33329.9786,34879.4013,4515.9012,48486.4265,44099.1819,54583.0429,-3951.5197,-3721.6097,21732.3303
51337.0782,24056.3303,50631.2549,37469.1188,33348.8882,34885.4363,4520.5504,48506.1854,44114.1129,54589.1672,-3935.7394,-3711.3279,21735.549
51334.1278,24060.5772,50632.2384,37465.9002,33343.5684,34885.6151,4523.6796,48511.3263,44105.5298,54590.2401,-3936.3205,-3713.0266,21731.4363
51321.432,24065.5839,50635.2782,37456.5572,33323.9883,34881.7259,4522.9644,48496.8424,44090.42,54583.9816,-3950.1786,-3718.8828,21729.1564
51315.397,24061.3371,50631.5678,37447.9294,33309.9514,34878.7755,4517.1082,48479.0951,44082.5969,54575.9797,-3960.2369,-3728.1364,21725.3566
51327.6905,24064.4664,50632.7748,37452.0421,33327.5199,34880.9212,4518.6728,48492.0591,44095.1586,54577.4996,-3953.3973,-3721.7885,21727.3235
51339.224,24067.685,50633.6689,37457.0042,33340.7968,34883.9611,4521.8915,48511.1475,44108.6143,54584.8757,-3941.8191,-3709.2268,21734.0738
51331.4903,24062.4547,50630.8973,37451.0586,33326.7152,34878.4626,4518.0917,48500.4187,44102.8029,54582.864,-3948.167,-3718.4805,21729.9163
51319.3756,24056.5091,50628.3939,37440.4192,33302.6201,34867.0632,4515.186,48477.8434,44095.9185,54581.7912,-3962.6062,-3736.183,21721.6015
51314.5924,24052.2176,50626.9187,37432.462,33287.7785,34865.0962,4513.3978,48470.065,44095.3374,54581.4335,-3969.1329,-3741.9945,21719.8581
51325.053,24053.8716,50628.3045,37437.5582,33308.9232,34871.2206,4512.5037,48487.3652,44101.0594,54584.4287,-3956.8841,-3733.4561,21724.5966
51340.5204,24059.9513,50628.3045,37445.4707,33330.828,34877.345,4517.9129,48504.442,44107.6308,54596.0516,-3943.5625,-3720.9392,21729.4693
51338.5534,24059.9513,50630.6291,37454.6349,33331.5432,34878.9543,4524.0372,48505.1125,44115.0516,54597.7056,-3937.6169,-3712.8925,21734.342
51321.5661,24055.481,50631.9255,37447.9294,33317.6404,34878.6414,4523.7243,48494.0261,44103.9205,54592.7435,-3945.8424,-3720.4474,21733.1797
51325.1424,24057.0903,50634.1606,37441.805,33311.0243,34879.7143,4524.0819,48498.7199,44098.0643,54593.8611,-3953.0843,-3725.3201,21734.5208
51337.1676,24060.443,50633.3113,37450.4775,33326.8046,34885.3469,4524.1266,48516.7801,44112.5482,54599.002,-3940.7909,-3709.8527,21740.5111
51358.0441,24065.2263,50639.2568,37466.7495,33351.5257,34891.203,4533.2909,48531.0405,44130.4296,54608.7474,-3925.2341,-3693.2677,21748.2448
51355.496,24065.6286,50638.7204,37460.7593,33354.0738,34892.0971,4533.2462,48530.6829,44129.4014,54608.1662,-3927.8716,-3695.5923,21748.8259
51327.2434,24057.4032,50631.389,37443.5037,33319.1156,34879.7143,4524.8419,48502.9221,44111.4306,54594.6211,-3948.614,-3717.6311,21736.1748
51321.9237,24057.8055,50634.5183,37443.6378,33312.4995,34876.8085,4525.6019,48496.5742,44100.6124,54592.8776,-3950.1339,-3723.2637,21733.1797
51332.5632,24059.3702,50635.5911,37451.7292,33332.929,34879.2672,4528.15,48506.1407,44110.4472,54598.1079,-3939.0922,-3711.8196,21736.0407
51346.3318,24065.1816,50638.0945,37460.7593,33348.0388,34882.5306,4526.4512,48515.2602,44125.8252,54602.5783,-3929.7044,-3703.8624,21737.0242
51341.5039,24062.8123,50634.563,37459.2394,33340.9756,34876.4956,4523.6349,48518.0765,44123.9476,54597.4374,-3933.8619,-3714.8148,21734.0738
51320.7167,24058.342,50627.1869,37446.3648,33320.412,34867.7337,4520.1033,48506.8113,44111.073,54592.2518,-3951.8327,-3729.7904,21727.9494
51313.5195,24056.5985,50622.4483,37437.8711,33318.8027,34868.136,4518.9857,48495.6801,44106.0662,54590.5083,-3959.2087,-3733.3667,21721.7356
51333.949,24066.031,50623.9235,37452.1762,33341.825,34878.6861,4523.3667,48516.959,44111.4753,54592.0283,-3946.5129,-3720.7156,21724.0602
51348.2541,24067.7297,50624.7282,37461.6981,33358.3206,34882.3518,4522.2044,48542.5293,44117.7785,54595.1128,-3937.9299,-3710.255,21726.7871
51344.1414,24062.41,50622.7165,37460.0887,33344.686,34876.4509,4519.254,48530.5935,44114.6493,54595.2916,-3943.9201,-3717.8993,21726.1612
51321.2085,24057.9844,50620.8837,37450.2987,33318.6686,34873.4558,4519.6563,48508.51,44101.4618,54592.073,-3958.1358,-3731.3104,21724.5072
51312.8489,24059.9066,50624.4153,37443.8167,33307.7163,34873.1428,4522.2491,48509.1805,44101.3724,54595.8728,-3961.2204,-3732.6962,21726.2506
51322.2814,24065.3604,50629.1538,37453.7408,33324.2565,34875.825,4527.9264,48529.5653,44113.3529,54599.002,-3950.7151,-3718.3911,21732.7774
51333.2337,24069.8755,50637.2899,37465.2296,33347.3682,34881.7259,4534.2296,48544.094,44128.1497,54608.0768,-3933.1019,-3704.7118,21741.0028
51335.3795,24067.4615,50635.0994,37462.3686,33343.1214,34881.1895,4532.4415,48541.9035,44131.5919,54610.8037,-3932.8337,-3708.4669,21739.8852
51320.8508,24066.6568,50634.9206,37452.8468,33322.379,34875.6015,4530.2063,48522.7704,44117.4656,54607.0933,-3950.7598,-3723.7555,21737.6053
51312.4466,24067.1933,50637.6922,37455.1713,33319.3392,34878.8649,4533.2015,48518.3001,44111.4753,54602.9806,-3953.7996,-3728.2258,21737.1136
51327.0199,24067.5062,50641.8943,37463.7097,33336.3265,34886.5092,4535.2131,48541.8141,44127.7474,54611.0719,-3942.3108,-3716.0218,21741.0922
51338.9558,24072.3342,50642.0285,37467.5095,33342.7191,34891.0242,4534.319,48562.1095,44136.9563,54618.4033,-3931.0008,-3705.9635,21740.3769
51336.5418,24072.8259,50641.4473,37469.3871,33335.79,34893.5723,4536.4648,48562.1095,44135.4364,54617.5539,-3930.5091,-3706.9023,21739.0358
51330.6856,24069.2496,50641.5814,37464.872,33320.0991,34891.6054,4536.8671,48542.574,44122.4724,54611.2508,-3944.0989,-3716.9158,21736.3089
51323.9354,24066.6568,50639.1227,37457.7641,33312.723,34881.7259,4531.1004,48525.8996,44113.2635,54603.7853,-3953.6655,-3724.5601,21732.1068
51335.6924,24071.4401,50637.6475,37461.0275,33330.8727,34877.6132,4527.7029,48539.9812,44120.5055,54601.3713,-3946.7812,-3717.944,21733.9844
51343.6496,24067.9979,50630.6291,37474.9303,33341.2439,34875.9592,4526.2724,48544.7645,44125.1993,54602.2207,-3935.1583,-3713.9207,21733.3585
51338.3746,24067.1486,50629.6009,37472.3822,33334.896,34875.0204,4523.0091,48538.2378,44124.0817,54604.6346,-3939.8074,-3717.1394,21731.3468
51319.2862,24059.3255,50630.2714,37457.943,33312.9913,34870.2818,4521.668,48513.5168,44111.1624,54596.9456,-3955.9901,-3726.5718,21728.1729
51306.3222,24057.8055,50628.3939,37449.8069,33299.5355,34868.136,4520.461,48493.6237,44105.7086,54591.9389,-3957.6888,-3729.5222,21726.2954
51323.1307,24061.0689,50628.4386,37458.4794,33319.2945,34881.0554,4520.5504,48512.1757,44116.2139,54596.3645,-3942.4896,-3718.257,21729.4693
51336.8994,24067.5956,50628.4833,37463.5756,33332.6608,34885.3022,4516.7059,48532.6946,44124.6182,54599.0914,-3933.5042,-3708.4669,21730.721
51339.224,24070.6801,50627.768,37463.4415,33324.8824,34884.274,4515.0965,48525.1844,44124.6629,54598.4209,-3941.7297,-3716.5582,21726.9659
51322.6837,24065.8075,50624.0577,37454.8584,33301.2789,34878.0155,4511.4309,48509.7617,44111.7883,54592.8776,-3959.9687,-3733.6797,21722.585
51311.4631,24063.4829,50620.7943,37445.0684,33289.2984,34873.7687,4507.6758,48502.0727,44097.9302,54585.591,-3966.5848,-3740.0275,21721.378
51326.3494,24065.8969,50620.0343,37455.1713,33308.3868,34874.6628,4507.0052,48522.0104,44108.972,54590.2848,-3955.6772,-3732.7856,21722.9426
51342.8897,24066.6568,50623.6106,37468.1354,33331.4985,34879.1778,4507.0499,48545.1669,44124.4841,54596.0516,-3944.993,-3720.5815,21729.8269
51329.3445,24056.7774,50617.9333,37459.15,33320.2332,34877.4791,4500.2997,48532.1134,44115.9904,54590.3295,-3951.9668,-3726.2142,21728.1729
51305.7858,24050.6977,50617.1286,37450.4328,33295.4675,34872.0253,4496.187,48515.3049,44101.9982,54583.7581,-3968.4176,-3740.4299,21723.479
51300.2872,24048.999,50617.6651,37447.8847,33287.1079,34872.2041,4500.6573,48507.7947,44094.1751,54582.7746,-3967.5236,-3740.117,21726.5636
51313.4301,24050.8318,50621.1072,37451.7292,33308.4762,34879.759,4508.2569,48528.0007,44107.9438,54589.1225,-3948.2117,-3724.6048,21735.1019
51327.154,24056.9562,50624.4153,37461.8322,33324.4801,34881.0554,4514.6495,48550.576,44119.3432,54596.0963,-3936.097,-3712.0879,21743.9085
51321.5214,24052.6199,50624.8623,37456.5572,33318.7133,34875.3333,4515.7671,48539.7577,44112.9059,54598.1973,-3941.8191,-3716.6923,21741.271
51301.1813,24046.4061,50626.5163,37446.6777,33304.4976,34875.0651,4517.287,48520.0882,44097.0361,54591.7153,-3954.1572,-3730.5057,21737.9183
51299.0803,24050.1612,50629.2433,37443.6826,33304.9446,34869.2089,4519.3881,48506.2301,44092.2081,54586.6638,-3953.5761,-3732.5621,21740.6452
51323.1754,24058.9678,50634.563,37460.3122,33332.1244,34876.3615,4527.9711,48517.853,44103.5181,54594.6211,-3932.6549,-3717.5864,21746.2778
51330.3727,24063.4382,50635.2335,37471.6222,33348.1729,34877.792,4527.9264,48524.6927,44104.1887,54597.6162,-3924.787,-3710.7468,21746.2331
51314.0559,24068.3109,50631.6572,37466.4813,33336.5053,34866.6608,4526.1383,48509.2252,44077.1431,54587.9155,-3936.41,-3722.9508,21737.3371
51293.3582,24061.2924,50628.8409,37451.3268,33313.6618,34861.0282,4528.3288,48479.0504,44060.8263,54577.1867,-3952.2797,-3736.943,21731.7492
51286.3398,24057.582,50628.3045,37443.5484,33310.2196,34861.3858,4527.39,48459.0232,44048.9352,54575.3092,-3960.1475,-3738.0159,21730.4975
51301.5836,24067.5509,50625.7117,37455.3055,33330.2915,34867.1079,4529.804,48466.2205,44053.4949,54582.5064,-3946.0212,-3724.1131,21733.3138
51315.0841,24071.6636,50621.599,37460.5805,33345.0437,34869.343,4531.6368,48473.7307,44058.8593,54578.7513,-3939.0475,-3716.0665,21733.4032
51301.3154,24074.7929,50619.3638,37452.3997,33336.4606,34859.0612,4529.8487,48452.5859,44048.0858,54571.0176,-3944.5013,-3726.3483,21728.4411
51275.6109,24078.0115,50619.8555,37440.3298,33309.8173,34853.6968,4529.4911,48422.9922,44033.289,54563.2839,-3956.4818,-3737.2559,21727.6365
51270.1124,24086.4158,50626.1587,37446.6777,33305.6599,34860.6259,4536.9118,48414.2303,44032.6184,54565.5638,-3956.0795,-3737.3453,21730.4975
51287.6809,24089.8132,50624.2812,37463.7097,33326.894,34870.9077,4544.0197,48428.8037,44045.3589,54571.7329,-3936.9017,-3720.4474,21736.4877
51306.9928,24095.6694,50628.1704,37467.5542,33340.171,34875.6015,4545.7184,48435.7327,44051.7962,54578.8854,-3923.7142,-3709.0927,21741.7181
51304.2212,24096.787,50631.9255,37475.2432,33332.5267,34877.3897,4551.0381,48435.0622,44043.9284,54583.5346,-3923.4012,-3713.1608,21743.238
51283.6576,24089.0533,50630.2714,37468.1354,33308.5209,34873.0534,4549.4288,48410.1176,44026.0917,54573.8786,-3941.685,-3729.1199,21736.9795
51279.0084,24081.7219,50629.1986,37463.8885,33299.8037,34869.7454,4542.8574,48398.5841,44021.2637,54567.2625,-3952.9502,-3732.3833,21733.0456
51284.9092,24082.8395,50632.3278,37471.4434,33317.3275,34871.2653,4543.6174,48405.9602,44029.0868,54570.6153,-3938.9133,-3722.0567,21739.5723
51288.0385,24080.5149,50627.5892,37475.9138,33317.6404,34870.2818,4539.2364,48414.2751,44036.0606,54572.8058,-3929.1233,-3718.2122,21740.0193
51274.0463,24075.7316,50622.4036,37463.3521,33300.5637,34860.6706,4532.6203,48399.2547,44025.4658,54566.1449,-3941.7744,-3728.0917,21733.5373
51263.3175,24066.5227,50618.3356,37457.0042,33278.6143,34853.1604,4529.357,48374.8019,44003.9188,54551.8398,-3959.4769,-3741.4581,21727.0553
51270.9171,24064.064,50617.1286,37451.5057,33275.8874,34852.8475,4531.3686,48369.6163,44003.1141,54552.1528,-3959.3875,-3740.2064,21726.0718
51287.5468,24071.0825,50618.3803,37457.5853,33290.2819,34860.1341,4529.4911,48371.5832,44005.7069,54556.2208,-3947.1388,-3728.4046,21729.961
51292.0618,24073.0047,50620.1684,37467.8224,33299.5802,34858.2566,4528.2841,48373.3714,44012.0101,54557.7407,-3938.5557,-3722.6379,21733.3138
51282.6294,24065.271,50620.839,37466.1237,33291.5336,34855.4403,4524.9313,48361.0332,44010.4902,54552.6892,-3940.478,-3728.3599,21730.5422
51269.6654,24060.1301,50620.839,37451.0139,33267.6619,34849.0924,4520.8186,48341.9895,43994.844,54547.593,-3954.649,-3738.597,21725.6248
51270.6935,24054.6316,50619.2744,37453.2491,33268.4666,34847.6619,4523.9478,48329.2937,43998.8673,54547.5483,-3954.8725,-3737.2559,21726.2954
51290.6313,24056.9115,50622.8954,37454.5455,33287.2868,34850.2994,4525.9148,48343.1965,44008.5232,54551.3481,-3941.5509,-3729.9246,21728.7093
51298.3203,24066.9698,50620.5708,37456.2442,33297.658,34851.0593,4523.9031,48355.8923,44017.1063,54555.4161,-3933.9513,-3725.4095,21729.7375
51295.1463,24062.0077,50617.6203,37452.4444,33284.2916,34846.9466,4521.2656,48345.6999,44010.4902,54555.4161,-3943.5625,-3731.0869,21728.7093
51275.745,24048.686,50617.978,37444.0402,33266.4996,34839.1682,4516.4376,48325.2704,44003.1141,54553.1362,-3960.9969,-3741.2792,21723.8367
51273.1969,24048.6413,50617.9333,37443.8614,33262.1634,34840.1517,4517.3317,48323.3482,43999.806,54554.7903,-3964.2602,-3743.0674,21722.9426
51280.6177,24058.4761,50620.6155,37449.0023,33281.7882,34842.8339,4520.7292,48348.3374,44009.9537,54562.971,-3951.3409,-3730.3716,21725.893
51295.5934,24063.617,50624.2365,37453.3832,33291.9359,34846.0525,4523.9031,48361.3014,44020.9061,54566.592,-3940.2097,-3719.2851,21729.5587
51298.6332,24064.064,50623.2977,37446.0071,33282.3694,34844.1303,4523.5455,48351.7349,44020.1014,54565.7873,-3945.1718,-3723.8449,21729.2011
51290.5866,24052.9776,50617.6651,37428.1257,33264.7562,34836.8883,4518.7622,48337.1168,44018.0898,54560.4229,-3960.4157,-3736.8983,21722.8979
51286.8762,24054.0504,50618.5144,37430.8527,33261.0905,34843.1915,4527.4794,48337.698,44017.4639,54565.2062,-3959.4322,-3736.8089,21723.479
51303.1036,24065.6286,50619.185,37444.7554,33285.0963,34859.0612,4535.7943,48369.1245,44028.7739,54578.6619,-3935.0688,-3719.2851,21731.8833
51313.3854,24075.6869,50618.6485,37456.3336,33305.034,34861.8329,4537.1354,48392.4598,44036.4182,54578.3043,-3928.1398,-3711.6408,21736.3536
51312.8489,24070.0543,50622.7165,37458.1665,33305.9281,34858.6589,4536.1966,48382.8485,44039.011,54578.349,-3935.3818,-3718.5252,21734.6996
51300.8684,24061.7841,50622.7165,37451.8186,33286.5268,34854.2333,4534.9002,48354.0595,44031.5008,54571.867,-3942.9814,-3731.3551,21730.274
51289.2455,24053.1564,50620.4367,37442.6991,33280.76,34845.7843,4530.1169,48336.0887,44025.7341,54563.7757,-3949.061,-3732.1597,21725.6248
51300.9578,24055.481,50622.9401,37447.8847,33293.1429,34849.7182,4531.6815,48345.6105,44032.5737,54571.2858,-3940.7015,-3722.6379,21730.3634
51309.5856,24055.5257,50622.0013,37453.2938,33301.1001,34852.8922,4530.0275,48356.5629,44033.7807,54574.1469,-3930.7326,-3720.2686,21731.481
51297.5603,24049.4907,50619.0956,37443.6826,33289.2984,34846.4549,4521.4891,48345.6105,44026.5834,54568.5589,-3937.5722,-3731.0869,21726.4742
51286.2504,24048.1943,50621.0178,37437.5582,33266.4996,34844.0409,4516.1247,48334.524,44014.2453,54564.2227,-3951.2068,-3749.6388,21719.0981
51288.5302,24048.7307,50620.079,37430.6291,33256.4414,34844.9796,4514.3366,48336.6251,44010.0431,54559.7523,-3963.0532,-3756.4337,21717.8017
51306.4563,24059.9066,50624.9964,37442.4756,33278.0331,34855.5744,4519.3881,48364.386,44029.4445,54566.3685,-3951.3856,-3742.6651,21722.3167
51321.5214,24069.9649,50628.7515,37453.7408,33300.519,34860.9835,4526.6747,48392.1021,44042.4532,54571.8223,-3938.8686,-3728.7623,21728.307
51307.8868,24074.7929,50623.1636,37448.5999,33290.1031,34854.7697,4525.9148,48384.279,44036.4182,54570.7047,-3945.3954,-3733.3667,21725.2225
51289.1561,24069.0708,50621.6437,37439.5698,33272.0876,34848.1536,4521.0868,48368.9904,44023.7224,54563.4627,-3964.7967,-3745.2579,21720.618
51287.7703,24070.1437,50626.0246,37441.8497,33271.9535,34853.6521,4522.0256,48375.3383,44021.3084,54564.8038,-3963.9026,-3745.8837,21723.6131
51310.1667,24080.9172,50627.4998,37454.769,33294.8864,34865.2303,4524.976,48393.935,44033.0207,54568.8272,-3945.9765,-3730.7739,21729.3799
51322.192,24089.2768,50627.6339,37472.6057,33319.205,34875.825,4529.8487,48410.207,44051.975,54574.4598,-3930.7326,-3715.3512,21735.7278
51318.9733,24093.166,50630.6738,37466.4813,33319.3392,34878.4178,4531.1004,48412.2187,44052.1091,54573.4763,-3934.3089,-3716.5135,21736.1301
51308.1998,24083.4206,50623.7894,37451.7292,33290.5054,34871.9805,4527.4794,48391.6551,44038.0275,54563.5074,-3950.7598,-3731.8021,21729.961
51304.1317,24075.1058,50623.6106,37457.4065,33284.3363,34872.4723,4526.183,48385.8436,44035.5241,54564.4462,-3952.4138,-3737.0771,21728.5305
51325.6341,24077.6539,50624.8623,37472.5163,33315.2264,34879.4907,4527.7029,48406.9884,44052.1985,54574.1916,-3934.4877,-3719.7769,21739.4382
51331.6244,24075.7763,50626.4269,37475.8691,33331.5879,34884.0952,4530.0275,48417.2255,44062.4803,54578.7513,-3925.2788,-3707.9304,21743.0145
51324.7848,24069.2943,50626.0693,37469.7,33322.6472,34878.9543,4527.5241,48413.828,44057.2053,54576.8291,-3937.7958,-3716.6029,21739.1253
51306.3222,24071.0378,50626.2034,37455.529,33304.4529,34873.0534,4527.3006,48397.1536,44047.2811,54573.3422,-3951.6538,-3729.5222,21733.3138
51299.0803,24064.6005,50624.5941,37452.1762,33297.658,34867.5102,4530.8769,48396.3042,44046.4318,54574.4151,-3954.336,-3729.3434,21732.7774
51306.8587,24066.2992,50618.1121,37462.2792,33316.1205,34867.5549,4529.5358,48421.8299,44056.4454,54576.4714,-3940.2544,-3720.7603,21735.0572
51316.7828,24074.3458,50615.7428,37466.839,33327.0282,34865.0515,4528.8205,48429.0719,44065.4755,54583.0876,-3931.7161,-3715.843,21736.1301
51307.3951,24073.5412,50615.6981,37456.423,33315.9864,34860.5812,4528.0606,48420.3994,44061.1839,54581.7465,-3937.7511,-3723.979,21732.9562
51298.5438,24072.3342,50619.9002,37444.4425,33297.658,34855.9767,4531.4133,48405.5579,44056.4901,54582.9535,-3949.9104,-3732.115,21730.5422
51296.1298,24069.2049,50620.1237,37435.1442,33284.5151,34849.45,4528.2841,48397.9136,44048.3987,54579.4666,-3957.3312,-3737.7477,21723.3449
51309.4962,24073.6306,50621.4201,37441.2239,33294.9311,34853.0263,4527.0324,48411.3693,44059.9322,54585.9933,-3946.9153,-3731.7574,21724.3731
51326.3047,24079.8891,50621.4648,37450.0304,33316.9699,34857.139,4530.0722,48424.8698,44063.8214,54584.6969,-3936.8123,-3722.2356,21728.4858
51314.7265,24077.341,50615.2064,37441.358,33310.5326,34853.3839,4529.2675,48420.3547,44055.6854,54578.8854,-3945.2612,-3729.9246,21724.9542
51308.8256,24076.5363,50615.1617,37436.1724,33292.7853,34854.7697,4531.3239,48410.6094,44046.6553,54576.7397,-3954.5149,-3738.91,21723.032
51298.3203,24068.892,50611.0936,37429.4668,33283.7105,34849.6288,4525.736,48402.7416,44038.8769,54574.7727,-3959.6558,-3741.5028,21720.3945
51311.6866,24067.8191,50611.7642,37434.9654,33303.9165,34848.2877,4525.3783,48415.482,44049.9187,54580.8524,-3949.061,-3728.8964,21722.4061
51323.7566,24067.1486,50611.1383,37441.9838,33322.9601,34848.4665,4526.63,48419.8183,44058.01,54586.5744,-3943.4731,-3722.1909,21725.5801
51310.9714,24061.0242,50614.7146,37440.0169,33315.8076,34847.3936,4526.0936,48413.6939,44052.7797,54589.6143,-3949.6422,-3724.739,21728.9329
51293.6264,24055.7939,50616.8157,37434.5183,33295.3334,34846.4102,4524.8866,48398.3606,44040.7991,54586.038,-3962.5615,-3735.1549,21723.792
51287.5468,24053.961,50615.2064,37429.9586,33281.0283,34841.9845,4521.8915,48388.9282,44035.7029,54577.8126,-3965.3331,-3739.9381,21719.7686
51310.3902,24061.5159,50618.2462,37446.7671,33305.3023,34848.9136,4525.3336,48410.7882,44051.1703,54584.1157,-3945.1718,-3725.6777,21727.7706
51319.5992,24065.271,50620.7943,37451.2374,33318.9368,34857.4519,4527.5241,48419.863,44054.5231,54592.6094,-3933.3254,-3719.151,21728.8435
51311.0161,24060.756,50623.3871,37444.3531,33316.7017,34855.9767,4527.39,48419.6395,44045.4483,54589.6143,-3943.8754,-3728.5835,21724.5072
51289.2008,24054.6316,50622.3589,37433.0431,33290.9077,34853.6968,4524.3502,48404.8426,44039.1004,54580.8524,-3959.6558,-3737.3006,21724.1049
51297.8286,24058.5655,50626.0693,37441.9838,33295.3781,34859.7318,4530.1616,48392.1468,44032.6631,54576.9185,-3952.7714,-3733.0091,21725.7142
51313.6089,24068.3109,50625.8905,37453.4726,33321.3508,34860.1341,4531.0557,48413.2469,44046.9235,54583.5346,-3938.6451,-3719.151,21728.7987
51326.2153,24071.2166,50622.046,37456.8701,33331.275,34864.5598,4527.0771,48423.2605,44059.4852,54586.038,-3936.9017,-3716.0218,21728.6199
51326.1259,24067.8638,50621.5096,37448.6446,33319.0709,34862.2352,4525.2889,48415.3032,44053.0926,54582.8193,-3944.2778,-3720.1792,21727.7706
51299.4379,24059.9513,50621.9119,37430.9421,33292.9641,34851.0593,4522.9644,48395.4102,44044.2413,54577.4996,-3959.8793,-3734.6631,21720.8862
51286.2056,24057.1797,50620.0343,37426.0247,33287.2868,34850.5676,4517.4658,48387.3188,44037.9828,54574.8174,-3964.1261,-3743.6485,21717.6229
51295.4593,24061.6947,50617.6651,37436.2171,33305.347,34856.1555,4516.6165,48413.6045,44047.7729,54578.8407,-3949.4187,-3731.4445,21723.3002
51306.814,24067.7297,50620.4367,37449.1364,33325.8659,34862.2799,4525.1995,48434.3916,44061.4969,54586.5297,-3937.8405,-3717.8546,21729.6034
51301.4495,24063.1253,50622.2248,37444.4872,33318.311,34863.7104,4524.3502,48432.1117,44057.4735,54583.8475,-3942.7131,-3722.3697,21726.7424
51288.5302,24059.4596,50621.4648,37437.4688,33306.2857,34859.0165,4520.461,48413.2916,44042.5873,54573.8786,-3960.1475,-3740.117,21720.1263
51289.1561,24058.8784,50618.2462,37430.7185,33300.8766,34857.4966,4519.2093,48399.8805,44037.7593,54568.7824,-3963.232,-3743.7379,21716.103
51314.5924,24068.7132,50621.6884,37437.29,33321.5743,34867.5102,4522.2044,48418.2984,44051.3939,54571.8223,-3948.4799,-3726.7953,21721.8697
51328.8975,24079.9785,50626.874,37447.8847,33339.9922,34871.8911,4529.2228,48437.655,44069.4988,54583.2664,-3937.6616,-3716.9158,21726.8765
51315.9782,24069.5179,50619.3638,37437.0217,33319.6968,34858.3013,4524.529,48423.7969,44062.9721,54582.0147,-3945.9765,-3730.014,21720.2604
51301.0025,24064.2428,50620.1237,37427.1423,33299.5802,34855.3509,4518.8963,48405.5579,44052.735,54578.3937,-3956.9736,-3742.1286,21717.9805
51286.4739,24066.2992,50621.9566,37424.9965,33289.4325,34849.897,4516.5718,48396.6619,44054.9254,54577.9467,-3962.9191,-3745.4367,21718.3828
51296.7557,24070.5907,50618.7826,37430.048,33305.5258,34848.9136,4516.6612,48414.8115,44060.5134,54580.1818,-3958.8511,-3739.7593,21722.2273
51312.4466,24077.0727,50617.3521,37439.6592,33317.6404,34853.6074,4516.7059,48424.5569,44070.6164,54583.3558,-3947.3176,-3733.6797,21724.1496
51307.6633,24076.2234,50618.2462,37437.4241,33306.4646,34849.6735,4519.0752,48420.4888,44063.5532,54583.2217,-3949.6422,-3733.7244,21723.7025
51289.3349,24063.9299,50618.2462,37429.3774,33288.5385,34846.4549,4515.9906,48403.0992,44049.4269,54581.6571,-3957.8676,-3742.2627,21723.479
51295.1016,24062.7229,50623.8341,37431.702,33290.0137,34854.5462,4519.4775,48404.3956,44048.6223,54581.4335,-3961.5333,-3738.8653,21725.0437
51315.6205,24070.6354,50627.9469,37442.4309,33315.9417,34858.9271,4524.2608,48429.9213,44063.1509,54589.8378,-3943.6966,-3721.8332,21732.0621
51328.0481,24073.3176,50630.4055,37445.3366,33328.414,34862.9951,4526.0042,48436.8056,44075.6679,54597.9738,-3934.89,-3714.636,21734.9231
51324.4718,24069.339,50630.3161,37437.4241,33318.4004,34857.586,4526.5853,48413.6045,44074.5503,54596.141,-3940.0309,-3717.8099,21731.6151
51309.4515,24066.8356,50630.0032,37432.6408,33303.9165,34850.657,4526.8536,48402.8757,44067.4424,54589.3461,-3952.235,-3726.8847,21728.4858
51304.4,24064.7346,50631.8808,37426.9634,33299.2226,34847.8407,4523.4114,48407.0778,44064.6708,54589.3908,-3961.2651,-3735.4231,21724.4178
51320.1803,24069.8755,50626.6505,37433.1772,33318.311,34848.1983,4521.9362,48426.792,44068.2918,54591.3577,-3950.9386,-3727.5553,21723.4343
51339.8051,24077.5645,50625.3988,37443.1014,33337.9805,34858.8377,4524.4396,48443.1088,44082.5075,54596.588,-3939.0028,-3718.8381,21729.4246
51331.7585,24074.9717,50626.7399,37435.9936,33321.932,34856.6025,4523.5008,48435.5986,44072.628,54592.7435,-3950.9386,-3730.5504,21728.6199
51308.915,24061.1583,50623.6106,37419.2744,33296.4957,34843.2362,4517.5105,48409.0,44064.8049,54586.1721,-3970.6081,-3746.3307,21721.1545
51294.6099,24054.0951,50617.4415,37409.842,33289.2537,34841.4928,4514.7836,48399.5229,44061.2286,54577.9467,-3973.9609,-3750.0411,21715.8347
51306.2328,24058.342,50617.1286,37419.3192,33312.2313,34849.003,4515.4542,48418.4772,44068.6047,54580.6736,-3957.4206,-3736.6748,21715.8794
51322.6837,24066.2545,50618.872,37436.1724,33325.3294,34853.7415,4518.2258,48432.827,44071.1081,54584.7416,-3945.3059,-3722.5485,21721.9144
51315.8441,24065.3604,50617.3968,37436.4406,33311.9631,34854.9932,4521.8021,48429.6978,44063.7767,54580.4054,-3950.4021,-3724.6495,21721.9144
51298.0968,24058.342,50614.2229,37422.4484,33293.1876,34849.9417,4517.8682,48417.002,44054.5231,54573.7892,-3963.992,-3738.5076,21715.9241
51302.2989,24058.4761,50616.5475,37423.4766,33294.3052,34851.7746,4518.4493,48410.8776,44056.9818,54573.9233,-3965.6013,-3741.5475,21718.8299
51321.4767,24061.5606,50621.8672,37437.4688,33315.9864,34854.7697,4522.4726,48434.1234,44077.3219,54580.8971,-3946.8706,-3724.5154,21725.3566
51333.2784,24062.6335,50623.1189,37446.4542,33330.6491,34854.6803,4526.3618,48457.5927,44084.9215,54584.2946,-3936.2758,-3715.3065,21727.86
51326.26,24060.9348,50623.5212,37446.2306,33323.7201,34857.9437,4528.3288,48450.5296,44086.6649,54587.245,-3944.3225,-3718.3464,21731.5257
51306.6798,24055.5257,50623.6106,37436.3959,33304.0506,34853.3392,4525.6913,48429.2507,44081.2111,54583.9816,-3962.4721,-3731.1763,21727.3682
51301.0472,24053.8716,50624.7729,37433.5796,33296.3169,34850.8805,4523.8584,48424.8251,44081.077,54582.7299,-3965.2437,-3733.0091,21724.9542
51321.9684,24064.7346,50627.768,37453.5173,33323.3625,34860.5812,4526.5853,48451.1554,44085.7708,54590.9554,-3947.9882,-3724.3366,21729.8716
51327.154,24063.5723,50627.3657,37456.6913,33332.5714,34861.8776,4529.1781,48466.8911,44090.9564,54595.1575,-3940.4333,-3715.2618,21733.9396
51315.9782,24057.0009,50623.7447,37446.7671,33312.0972,34862.7269,4524.1266,48451.066,44081.7922,54588.8096,-3950.2233,-3720.1792,21727.6812
51300.2872,24052.754,50622.4483,37434.7866,33291.9359,34860.1341,4520.9974,48438.9961,44074.2821,54583.4005,-3961.2651,-3736.5854,21724.9542
51298.5438,24049.9377,50619.9449,37434.0266,33294.7522,34859.1506,4521.5786,48440.8736,44071.421,54584.6522,-3964.4837,-3739.9381,21722.8979
51312.1784,24051.3682,50618.8273,37438.184,33319.205,34859.8212,4520.5951,48456.5198,44078.0371,54588.0049,-3950.0892,-3727.6447,21725.4013
51329.2551,24056.8221,50619.8108,37439.5698,33330.2021,34861.0729,4521.4444,48461.0796,44085.0556,54586.7085,-3943.2943,-3719.7322,21726.0718
51325.5447,24058.4314,50620.839,37437.29,33320.7697,34858.7036,4523.3667,48453.3012,44080.317,54583.1323,-3948.167,-3723.6214,21724.4178
51307.7974,24052.4858,50617.4862,37431.2997,33296.5404,34857.899,4522.2491,48433.6764,44068.9176,54579.5113,-3961.8462,-3736.4066,21720.5733
51299.6167,24047.8367,50613.4629,37423.9683,33294.7522,34855.3956,4516.84,48432.8717,44067.6212,54579.9583,-3969.267,-3740.6981,21719.6345
51316.8275,24052.5752,50612.39,37430.8974,33315.2711,34859.8212,4515.9012,48459.8726,44081.6134,54581.5229,-3955.4536,-3729.8799,21723.7025
51329.4786,24056.9115,50617.4415,37438.4522,33323.4519,34864.6045,4518.0023,48471.719,44087.559,54585.0992,-3943.339,-3724.2919,21726.8318
51332.5185,24058.9678,50622.0907,37444.9342,33324.2118,34867.3761,4522.0256,48464.4324,44090.0624,54586.6191,-3946.9153,-3727.9576,21726.3848
51313.2513,24057.0456,50621.5096,37435.9936,33302.7989,34862.9057,4518.4046,48444.8075,44074.7738,54578.9748,-3963.545,-3740.8322,21723.479
51311.0161,24054.274,50621.3754,37427.9916,33294.0817,34858.5695,4518.494,48441.5889,44070.3928,54581.8806,-3970.3846,-3742.4415,21724.686
51328.2269,24052.307,50621.1519,37437.6923,33312.6336,34865.6327,4519.8351,48465.8182,44089.3918,54591.5365,-3957.8676,-3728.1364,21727.7706
51341.8168,24054.4975,50623.9235,37454.7243,33340.9309,34875.5121,4525.1995,48489.6898,44099.5395,54599.002,-3941.2379,-3716.5135,21737.3818
51334.5301,24059.1019,50626.9187,37451.6398,33335.3877,34874.6181,4527.1665,48486.3818,44093.6834,54594.7105,-3947.0047,-3725.8565,21738.7229
51316.7828,24058.2079,50625.0411,37439.2122,33305.0787,34868.5384,4523.1432,48464.6112,44085.5026,54585.9933,-3956.3477,-3735.9595,21731.9727
51311.9102,24050.3848,50624.8176,37435.0548,33299.9378,34868.2255,4523.0538,48454.6423,44086.799,54586.1721,-3956.1242,-3735.6466,21728.9776
51328.8081,24049.0884,50626.2481,37439.5251,33313.8406,34871.5335,4523.9478,48472.1214,44104.8145,54593.1458,-3948.7928,-3723.4873,21731.6598
51343.1132,24058.2973,50626.4269,37448.5105,33327.2517,34873.9028,4525.5572,48482.0008,44116.3927,54596.1857,-3937.7064,-3713.5184,21732.5091
51336.8994,24053.5587,50623.8788,37443.5931,33318.6239,34869.7454,4524.2608,48472.2555,44109.419,54592.6988,-3941.7744,-3718.2122,21730.7657
51322.4155,24046.2273,50626.6952,37435.323,33304.2741,34864.2468,4525.0654,48459.0679,44093.3704,54586.2168,-3958.7617,-3732.7856,21725.5801
51309.4962,24042.1146,50623.7,37427.8575,33297.8815,34860.4918,4520.461,48450.4402,44087.8719,54586.6191,-3965.0202,-3740.4299,21721.378
51323.7566,24049.5801,50624.1471,37440.9556,33317.0146,34864.381,4518.8516,48466.9358,44099.0031,54594.8446,-3947.7646,-3727.0188,21724.239
51336.7653,24052.7987,50622.2695,37445.4707,33329.2186,34867.1079,4517.2423,48488.1252,44100.8806,54594.6658,-3940.925,-3722.0567,21723.4343
51325.6788,24046.4061,50623.6553,37432.1938,33315.137,34860.5812,4515.3201,48487.1864,44098.4666,54588.6308,-3950.7598,-3726.6165,21720.5733
51318.6604,24050.1612,50626.2928,37428.841,33301.726,34863.5316,4520.148,48476.3682,44095.7844,54585.6357,-3961.8462,-3734.2608,21722.3167
51320.9403,24047.0767,50628.8409,37430.495,33300.3402,34863.3975,4523.2326,48472.5684,44096.5444,54584.8757,-3959.3428,-3735.7807,21723.479
51329.568,24049.7589,50628.2151,37442.0285,33320.5462,34870.103,4520.1927,48489.7792,44102.4452,54590.1507,-3945.2612,-3722.3697,21726.0271
51338.1958,24055.1233,50627.4998,37450.7457,33334.896,34871.5335,4515.5436,48498.4964,44110.4025,54598.6444,-3935.9629,-3714.5913,21729.4246
51337.9276,24051.2788,50627.4104,37446.2306,33324.793,34867.4655,4512.7273,48486.2477,44104.3228,54599.5831,-3944.1884,-3720.805,21728.754
51320.225,24042.3381,50624.1918,37434.876,33298.1497,34863.0399,4511.9673,48470.4673,44095.5609,54589.0331,-3959.7452,-3731.2657,21721.6462
51317.0063,24038.6724,50624.5941,37427.7681,33294.2605,34864.068,4512.3249,48466.8911,44100.1207,54586.5744,-3960.6392,-3732.7856,21722.1379
51325.2318,24044.171,50624.46,37438.7205,33310.2643,34865.4091,4510.4921,48478.6034,44108.1226,54590.553,-3953.3973,-3725.9907,21724.8648
51329.3445,24050.5636,50622.9401,37441.7603,33316.6122,34861.967,4508.0781,48495.8142,44110.2237,54593.8611,-3949.5528,-3722.0567,21726.0718
51320.4038,24042.0252,50620.5708,37431.2997,33306.2857,34852.3557,4504.8147,48484.7724,44099.2713,54590.1507,-3961.3545,-3732.9197,21720.4392
51300.5555,24029.4635,50618.1568,37422.2696,33288.2702,34843.6385,4501.6855,48461.1243,44086.9778,54582.1041,-3975.5702,-3745.8837,21715.343
51293.2688,24023.2944,50613.597,37416.2793,33280.2236,34840.8222,4497.5728,48464.1194,44077.8136,54580.6289,-3981.8287,-3748.253,21712.6161
51308.8256,24026.6472,50617.0392,37425.8012,33290.9524,34847.2148,4498.6457,48483.4313,44086.7543,54580.8971,-3970.8316,-3734.7972,21717.3547
51315.5311,24032.2798,50617.8886,37428.1257,33301.0554,34849.4947,4500.255,48502.8327,44096.2762,54583.7581,-3957.5547,-3724.2472,21721.6015
51317.4087,24040.8182,50616.8157,37433.6243,33307.1798,34856.1108,4508.7039,48497.9153,44093.6834,54588.1391,-3959.2087,-3726.5271,21722.272
51301.3154,24038.3148,50617.7545,37422.0908,33283.3529,34857.0049,4508.9722,48472.8813,44081.5687,54583.4452,-3973.335,-3738.15,21719.0534
51306.7245,24038.2254,50619.9002,37423.4319,33278.2567,34856.3343,4507.6311,48475.8765,44081.6134,54582.2829,-3973.5585,-3738.7758,21719.1875
51323.9354,24046.272,50623.8788,37440.9556,33302.3518,34862.0564,4512.8167,48495.4566,44100.3889,54587.7367,-3952.682,-3724.739,21722.8532
51329.5233,24049.9377,50627.0975,37450.7457,33313.6618,34866.9738,4517.0635,48510.6111,44112.9953,54594.8446,-3939.271,-3714.2336,21726.0271
51321.5661,24044.3945,50619.9896,37444.666,33304.8105,34862.0117,4511.6544,48501.8492,44101.0147,54588.4073,-3947.0494,-3723.0402,21720.7968
51300.9578,24036.482,50611.3619,37428.6175,33290.863,34855.8873,4503.563,48475.7423,44087.9613,54580.0924,-3966.8083,-3742.4415,21713.0184
51298.6779,24033.8892,50611.3619,37425.5329,33295.1099,34850.8805,4503.2501,48473.1048,44085.9497,54581.21,-3967.7471,-3743.0227,21715.1642
51315.9782,24036.6608,50613.5076,37439.5698,33308.0292,34854.0097,4508.0334,48489.1087,44096.1421,54587.6473,-3954.4255,-3730.0587,21719.7239
51324.4271,24044.3945,50617.0392,37446.0071,33314.3324,34857.2284,4510.6262,48512.8909,44112.1906,54594.2634,-3946.1553,-3716.3347,21725.1331
51304.7576,24044.7968,50618.5591,37444.4425,33299.312,34854.6803,4511.7885,48506.543,44104.3675,54590.8213,-3955.3642,-3723.979,21723.9261
51289.469,24043.0534,50616.011,37436.2171,33278.0778,34852.3557,4508.5251,48479.2739,44086.6202,54581.0759,-3972.2174,-3742.3968,21716.3265
51297.7391,24043.9028,50616.8157,37436.7982,33278.5249,34851.5064,4510.3133,48475.6976,44088.0954,54583.8028,-3971.5469,-3739.4017,21719.5451
51328.5846,24055.7939,50629.8691,37459.1947,33310.0855,34865.6327,4517.6893,48501.0892,44107.6756,54595.0681,-3951.9668,-3719.1957,21728.3964
51342.9791,24056.7327,50631.7914,37460.7593,33315.4052,34867.3761,4517.8682,48516.8695,44110.8048,54594.9787,-3945.2165,-3713.8313,21727.3682
51337.3017,24056.5091,50636.8428,37453.8302,33312.4101,34869.0748,4522.875,48506.8113,44112.8612,54595.0234,-3950.9833,-3717.1394,21727.2341
51320.8508,24050.7424,50636.5746,37438.4075,33288.0914,34860.0894,4519.0305,48488.2146,44101.0147,54589.7931,-3962.4274,-3731.8468,21722.8979
51310.0326,24043.5451,50630.8973,37427.8128,33277.7649,34850.5229,4510.0898,48478.2457,44087.559,54585.2333,-3970.6081,-3742.5309,21719.8133
51323.1307,24046.8085,50630.8526,37437.1111,33297.1215,34853.0263,4511.8779,48492.2826,44098.2431,54589.659,-3961.4439,-3730.6845,21722.585
51329.7915,24056.0174,50636.2617,37452.9809,33318.8027,34865.5432,4520.8186,48511.5945,44114.4705,54596.7221,-3946.8259,-3715.6194,21731.0339
51323.6225,24055.4363,50633.4007,37447.1247,33315.5841,34864.4257,4520.5504,48506.5877,44112.8165,54593.7717,-3952.8161,-3721.8332,21729.961
51308.2445,24046.6297,50630.0926,37435.6359,33295.5122,34858.0778,4515.2754,48497.0659,44100.5677,54586.0827,-3972.128,-3738.0159,21722.8979
51305.6964,24045.5568,50629.5115,37429.3774,33288.7173,34851.864,4513.3531,48502.8774,44104.1887,54591.0001,-3974.6314,-3743.2909,21716.8629
51320.0015,24053.8716,50626.4269,37438.4075,33301.2789,34854.2333,4514.5601,48522.3234,44114.6493,54594.7999,-3962.025,-3731.3104,21719.4557
51332.6079,24061.2477,50623.5659,37450.5222,33324.5248,34862.3693,4515.9012,48528.8948,44122.1148,54594.174,-3950.0445,-3719.5086,21720.8862
51323.0413,24055.3468,50620.3026,37447.4823,33313.3042,34861.4752,4515.186,48522.1893,44112.4588,54589.5696,-3954.7384,-3726.7059,21716.997
51301.8072,24040.5947,50613.3288,37431.2997,33283.487,34853.2051,4507.2734,48498.2729,44093.7281,54577.8573,-3975.4361,-3746.7778,21710.6491
51300.3767,24038.3148,50613.3288,37428.7069,33280.2683,34852.0875,4505.5747,48495.3225,44096.1868,54580.5395,-3976.5537,-3747.5824,21713.7337
51324.5165,24040.3712,50615.7875,37446.6777,33302.3518,34854.6356,4505.3512,48509.5829,44109.1955,54584.7863,-3958.3147,-3736.1383,21715.5665
51332.6973,24038.7172,50615.8322,37451.0586,33322.6025,34854.3227,4504.9042,48514.4556,44114.5599,54586.4403,-3952.6373,-3725.5436,21717.8017
51323.086,24034.8279,50614.0888,37434.4289,33311.3372,34846.276,4500.255,48502.2068,44102.0429,54575.5327,-3963.7238,-3737.0324,21713.1078
51311.2843,24026.6025,50617.3968,37421.1967,33288.0467,34845.2032,4499.1374,48482.8055,44092.9234,54572.4034,-3976.6878,-3743.872,21713.7337
51309.2279,24029.3741,50618.3803,37424.013,33286.0798,34851.7746,4503.3842,48475.787,44090.2412,54573.4763,-3976.3302,-3743.6038,21716.4606
51324.2036,24032.414,50621.2413,37434.8313,33309.9514,34859.2401,4504.5912,48494.5178,44099.0031,54579.5113,-3962.1592,-3731.7127,21720.2604
51337.6147,24038.6277,50621.4201,37439.7486,33316.7464,34865.3644,4508.391,48509.2252,44110.1342,54582.9982,-3951.6538,-3722.2803,21723.8367
51330.775,24041.1311,50619.4532,37435.5465,33301.5919,34860.8494,4505.2618,48508.7782,44107.8097,54580.4501,-3958.6723,-3729.4328,21720.4392
51309.2279,24031.6093,50617.3074,37419.9003,33274.9039,34854.5462,4500.4338,48487.1864,44093.9069,54575.0856,-3972.6198,-3745.0343,21711.1409
51309.9879,24036.7502,50617.6651,37421.5543,33275.8427,34861.0729,4501.9537,48485.0407,44093.1916,54575.935,-3970.1611,-3745.5261,21711.0962
51334.1725,24039.79,50619.2744,37434.6077,33303.7376,34871.8911,4501.6855,48509.8064,44100.8359,54576.8291,-3964.0367,-3738.5076,21712.5714
51342.3532,24038.3595,50616.1451,37436.4406,33308.6997,34873.6346,4496.0529,48521.2952,44110.0895,54578.2596,-3961.3545,-3733.0538,21713.9572
51328.3163,24037.4655,50612.1218,37428.1704,33295.9145,34870.1477,4490.152,48505.5596,44104.2781,54576.695,-3968.06,-3738.2841,21711.0068
51311.9549,24035.6773,50611.8983,37424.9071,33282.727,34873.2322,4491.359,48490.718,44091.7164,54572.0458,-3980.2641,-3746.599,21708.4587
51309.5856,24040.5947,50620.1237,37423.1189,33282.8164,34875.6015,4497.6622,48493.1767,44090.1518,54575.6221,-3979.0124,-3742.1286,21712.9737
51325.4553,24051.7706,50625.2646,37434.6077,33302.4859,34876.2721,4504.5465,48507.3477,44101.5512,54583.2217,-3962.8744,-3728.8964,21721.4674
51333.8596,24055.4363,50624.1918,37442.6097,33315.6735,34875.1098,4508.0334,48519.3729,44111.5648,54585.5016,-3951.8774,-3721.8779,21727.6365
51328.0034,24049.9377,50622.6271,37435.5018,33305.1234,34869.2089,4508.7934,48505.1572,44103.5181,54584.7863,-3956.0795,-3727.5553,21725.6695
51308.7809,24050.8765,50624.5941,37427.4552,33286.795,34864.1574,4513.6213,48491.9697,44085.3685,54577.9467,-3966.7189,-3732.0703,21724.5519
51300.9578,24055.4363,50628.5727,37418.9615,33283.9787,34861.3411,4515.5883,48486.2477,44080.3617,54575.4433,-3968.1494,-3736.496,21725.7589
51311.4184,24055.8386,50629.5562,37423.1189,33305.8387,34865.9456,4520.1927,48505.5596,44088.3189,54583.8028,-3950.8939,-3723.1743,21730.3187
51315.6205,24058.7443,50629.288,37435.9936,33326.6705,34870.863,4527.39,48508.5994,44086.7543,54586.9768,-3935.65,-3709.2716,21736.5772
51305.4729,24058.8337,50627.768,37428.0363,33314.5559,34863.0399,4523.4561,48478.5587,44075.8914,54584.3393,-3948.7481,-3719.3298,21732.0621
51287.9938,24056.1068,50627.4998,37418.291,33296.0039,34861.0282,4521.9362,48450.9319,44060.1557,54580.8524,-3963.3662,-3736.8089,21729.6928
51273.7334,24052.1729,50623.6106,37409.1715,33288.4938,34853.2051,4524.7525,48440.1584,44049.8739,54577.4996,-3964.8414,-3741.9498,21728.0388
51282.1823,24059.236,50621.4648,37418.1122,33307.5821,34849.4053,4526.943,48447.5791,44058.4123,54578.8854,-3953.3973,-3732.2044,21726.9212
51293.0453,24072.513,50620.839,37428.6622,33323.7648,34847.7513,4529.7593,48451.6025,44055.0148,54574.5492,-3951.3856,-3725.7224,21724.7754
51279.0531,24066.5227,50618.3803,37415.4299,33299.4461,34841.8504,4524.6184,48426.4344,44038.1169,54561.6299,-3966.5848,-3738.4629,21717.1758
51264.3903,24055.2127,50620.3473,37403.9859,33279.0166,34840.4646,4521.0421,48390.0905,44025.3764,54559.2159,-3977.3136,-3752.2316,21712.6161
51255.2708,24055.0786,50619.9002,37401.3036,33275.6191,34837.3801,4519.9245,48380.8368,44019.2521,54560.557,-3982.0969,-3753.7068,21711.3644
51272.9734,24065.8522,50622.5824,37416.6816,33299.3567,34848.6006,4527.39,48399.9699,44034.2724,54566.4132,-3965.5119,-3739.8487,21718.0699
51282.0929,24071.5742,50624.1471,37425.7118,33313.8406,34856.2449,4528.1053,48401.7581,44040.5309,54565.4744,-3952.9502,-3732.2491,21719.7239
51267.7878,24067.5062,50623.0742,37419.0062,33291.0419,34845.382,4524.2608,48386.6483,44029.8915,54557.696,-3964.5731,-3742.3968,21716.3265
51251.1134,24055.168,50618.7826,37415.7876,33273.9204,34839.3917,4522.0256,48357.7698,44018.0004,54551.4822,-3971.9492,-3754.1091,21712.3032
51250.9793,24052.2623,50615.4746,37418.4698,33275.8874,34839.3023,4519.5669,48351.7796,44012.9489,54550.2305,-3968.3729,-3750.7117,21713.376
51273.1522,24071.6636,50620.6155,37436.7535,33299.2226,34854.4568,4530.6087,48373.3267,44027.8351,54561.004,-3943.9201,-3733.0985,21723.9261
51285.0881,24075.4634,50624.5047,37443.2355,33307.7163,34859.3742,4536.8224,48386.8718,44027.7457,54567.039,-3932.2078,-3725.0072,21730.0504
51275.7003,24064.7346,50620.4814,37435.77,33294.0817,34855.3509,4529.9381,48373.6396,44018.0898,54561.2276,-3939.1369,-3728.807,21727.5918
51266.1338,24066.7909,50622.7165,37437.737,33280.9836,34854.6803,4531.5027,48350.4385,44014.3794,54555.1479,-3944.2778,-3735.0208,21728.307
51267.7431,24073.3176,50631.5231,37436.3065,33274.8592,34854.3674,4532.8885,48344.7164,44013.083,54560.6464,-3942.3108,-3733.9032,21733.2244
51287.5915,24079.8444,50634.8759,37446.633,33299.9825,34859.6871,4539.4599,48364.9671,44025.1529,54567.8884,-3929.3468,-3724.5601,21737.3371
51295.9957,24078.3691,50635.0994,37446.9459,33312.723,34861.2964,4538.4765,48369.661,44027.2093,54570.4812,-3925.6811,-3719.1957,21735.6831
51285.5798,24072.7812,50633.356,37437.9605,33295.7804,34856.2002,4535.079,48357.0993,44019.9226,54566.7708,-3935.3818,-3724.9178,21729.6034
51270.2465,24059.236,50633.4454,37423.566,33267.3937,34845.9631,4532.3521,48331.9759,44005.5728,54562.3004,-3956.1242,-3739.2229,21723.5684
51266.7596,24055.3468,50632.9983,37418.2463,33257.5589,34839.6599,4531.3239,48320.4424,44002.5777,54560.0206,-3961.9356,-3741.3239,21720.7968
51279.7683,24059.1466,50632.3725,37424.2365,33270.5677,34839.1235,4529.8487,48345.0294,44010.7137,54562.5687,-3953.8443,-3731.2657,21725.8036
51298.8567,24065.8522,50633.6689,37439.7933,33285.588,34846.1866,4531.2345,48356.1158,44012.323,54559.6182,-3944.6801,-3722.9508,21726.4295
51294.9675,24063.9299,50629.0644,37433.7584,33274.1439,34839.347,4524.4396,48335.6863,44001.4154,54554.2538,-3953.3526,-3730.8186,21721.7803
51278.7849,24059.8172,50626.2928,37422.6272,33253.3121,34830.6298,4519.8798,48312.6193,43990.6418,54548.3083,-3968.3729,-3744.0956,21715.2983
51282.5847,24057.7161,50629.0197,37421.3755,33255.7708,34838.9447,4521.7574,48305.5115,43991.8041,54552.4657,-3966.5848,-3740.9663,21718.0252
51289.8713,24060.9348,50626.7399,37424.2365,33272.7134,34838.587,4521.4444,48318.2073,44001.6836,54556.2208,-3955.6772,-3732.9644,21719.5898
51300.779,24066.6568,50626.2034,37428.841,33287.4209,34840.2411,4524.7078,48319.5037,44008.3891,54558.7242,-3945.2612,-3724.8731,21720.0816
51298.1862,24056.8668,50623.6553,37425.3988,33275.5744,34834.6978,4519.1199,48315.4804,44006.6457,54554.7456,-3950.8939,-3734.0373,21718.0699
51289.1561,24058.1632,50623.0742,37415.6535,33261.4481,34837.2459,4517.4658,48313.6028,44003.6952,54552.868,-3960.9969,-3742.978,21716.55
51286.5633,24059.5937,50619.4532,37407.2492,33253.3121,34838.3188,4519.2093,48315.6592,43996.7662,54550.3646,-3967.3001,-3744.9449,21715.2089
51307.2163,24065.1369,50622.806,37420.2579,33266.8126,34844.7114,4524.3949,48343.8671,44017.911,54561.8981,-3951.475,-3730.461,21722.5403
51316.5146,24071.1272,50625.7117,37430.6291,33278.9719,34850.3441,4526.0489,48358.6192,44032.2608,54568.5589,-3941.3273,-3722.6826,21726.9659
51307.708,24067.1486,50625.8905,37430.1821,33275.3509,34848.9136,4527.3006,48351.7796,44029.0868,54565.4744,-3947.4964,-3727.0635,21726.2059
51285.5351,24058.9678,50621.5096,37420.3473,33254.8767,34841.1798,4525.9148,48328.8467,44015.5417,54562.7475,-3960.9522,-3741.4134,21719.9475
51281.7353,24053.067,50620.839,37413.5077,33249.0653,34838.8106,4522.1597,48322.7223,44012.2336,54561.0934,-3965.0202,-3744.5873,21719.2322
51304.6682,24059.6831,50621.9566,37424.7283,33271.9535,34841.9398,4523.6349,48343.1071,44020.3696,54565.9214,-3948.0776,-3727.2424,21723.8814
51311.9549,24059.0125,50619.8555,37437.3794,33291.8018,34841.2693,4522.115,48350.8855,44030.9644,54570.1683,-3939.4051,-3717.7652,21730.1846
51302.0307,24049.0437,50619.632,37429.601,33274.5016,34838.4529,4518.8963,48341.2296,44022.7836,54567.5308,-3945.3059,-3727.5553,21725.1778
51292.5088,24043.3663,50623.5212,37417.3969,33250.8087,34834.4743,4518.3599,48324.734,44010.222,54563.731,-3959.6558,-3736.6748,21719.0981
51294.6099,24048.5519,50623.8341,37424.9965,33257.7378,34841.8504,4516.5271,48324.1081,44014.2006,54558.0089,-3961.131,-3733.8138,21717.4888
51311.2843,24059.0572,50622.3589,37434.0713,33275.8874,34847.0807,4518.1364,48347.0857,44022.4707,54560.6911,-3951.6538,-3727.9129,21719.0534
51321.1638,24065.7181,50623.0742,37439.7486,33285.4092,34852.3557,4523.2326,48365.9059,44028.2822,54569.3636,-3945.3506,-3722.5485,21719.9028
51315.4864,24074.0329,50624.0577,37439.4357,33279.106,34850.1652,4526.1383,48356.2052,44022.3366,54570.5706,-3949.5528,-3727.6894,21718.9193
51296.2639,24065.7628,50622.1801,37424.1024,33256.1284,34838.14,4521.4444,48341.2743,44008.2997,54559.4841,-3965.646,-3741.7263,21711.4091
51298.0968,24064.2875,50622.1801,37426.427,33257.7378,34842.4762,4520.2374,48338.6815,44016.3016,54557.9195,-3962.4274,-3741.771,21711.722
51316.8275,24068.8473,50625.7117,37440.8215,33279.2401,34855.4403,4520.5951,48355.1323,44033.9595,54566.7708,-3948.0329,-3727.9576,21719.2322
51321.2085,24072.8706,50622.7612,37443.1461,33287.5997,34855.8873,4517.0188,48362.419,44036.2841,54569.3636,-3942.7131,-3727.6447,21721.7803
51314.19,24074.3011,50617.7992,37436.4406,33278.0778,34854.5462,4516.3035,48365.28,44031.769,54564.9379,-3947.3623,-3733.5455,21719.3216
51302.7012,24063.617,50618.2462,37422.6272,33266.4996,34850.4335,4514.3813,48353.4336,44024.08,54560.2888,-3961.2651,-3744.0956,21718.7852
51303.9976,24059.4596,50618.3356,37418.738,33265.6056,34854.9038,4513.3978,48359.8709,44024.1694,54563.418,-3965.1543,-3745.5708,21721.1097
51316.9169,24058.1185,50615.8769,37426.5611,33285.9457,34864.6045,4515.2307,48385.4413,44040.7544,54565.9214,-3950.268,-3729.254,21724.5966
51320.8956,24059.7725,50619.2744,37431.3891,33294.2605,34867.689,4515.7224,48393.8903,44048.6223,54570.6153,-3939.2263,-3719.0616,21727.547
51320.5379,24057.4479,50620.7049,37434.7419,33289.3431,34861.9223,4514.3813,48379.4957,44039.2345,54566.7261,-3944.9483,-3721.8332,21723.792
51305.7858,24055.0786,50617.4862,37427.3211,33272.2217,34855.3956,4513.8448,48364.1177,44031.4114,54563.731,-3956.9736,-3734.1714,21721.378
51302.2989,24050.4295,50614.9381,37417.1287,33264.7115,34849.9417,4510.3133,48361.7038,44036.5076,54554.9691,-3966.8977,-3740.3852,21719.5451
51317.6322,24050.2059,50615.9216,37420.7497,33277.4073,34851.1487,4508.4357,48381.3733,44050.0975,54560.9593,-3958.8064,-3732.0256,21723.7025
51317.9004,24049.3119,50617.6651,37420.7497,33290.7289,34844.175,4510.0451,48397.4665,44052.1091,54571.2858,-3953.0396,-3725.2307,21724.1049
51304.847,24048.239,50616.011,37418.291,33289.1643,34841.4928,4508.2569,48386.6483,44044.3754,54571.6435,-3955.3642,-3729.2987,21720.7521
51287.7703,24045.825,50613.8206,37408.5903,33270.21,34839.1682,4505.9323,48365.4141,44033.8701,54563.9098,-3969.4458,-3744.9002,21717.2652
51281.4224,24047.6131,50611.0489,37403.5835,33266.2314,34832.4627,4506.9158,48364.2519,44032.7525,54560.8699,-3974.3185,-3748.8341,21714.1807
51294.3417,24048.6413,50609.2608,37412.1666,33281.0283,34832.3286,4510.7603,48384.6366,44047.3258,54568.6483,-3959.2087,-3735.289,21717.5782
51305.607,24053.8269,50612.5689,37419.4086,33292.4277,34837.0224,4512.1908,48399.7017,44053.4949,54575.488,-3952.2797,-3725.4989,21719.6792
51298.2756,24050.2059,50612.4794,37415.8323,33287.1526,34834.3402,4512.8167,48392.4598,44045.4483,54573.4316,-3957.8229,-3728.8964,21714.6724
51281.6459,24051.7706,50614.5805,37405.774,33272.8475,34835.2343,4514.873,48378.8252,44032.6631,54571.5988,-3970.0717,-3739.8487,21714.7619
51288.6643,24058.9231,50618.4697,37414.9382,33276.2003,34839.9729,4520.148,48374.936,44044.8225,54580.1371,-3962.1592,-3734.529,21719.0534
51307.4398,24064.6452,50623.0742,37425.2647,33300.7872,34846.9466,4524.7972,48394.8737,44063.3744,54588.5861,-3946.7365,-3720.5368,21724.6413
51320.7167,24070.7248,50627.6786,37425.22,33312.6336,34854.8591,4529.4017,48415.2585,44067.4871,54591.0895,-3942.2661,-3713.2502,21729.514
51311.2843,24068.8026,50627.8574,37416.7711,33298.7756,34847.8854,4527.3453,48410.967,44063.9108,54589.1225,-3954.5149,-3724.426,21728.1282
51290.4525,24060.0407,50627.7233,37400.1861,33276.2003,34837.6036,4519.9245,48381.7756,44047.2811,54581.5676,-3976.6878,-3742.5309,21719.1428
51290.2737,24062.2759,50632.6407,37402.2424,33276.7367,34842.1633,4520.1033,48378.1546,44047.2364,54582.2382,-3975.1232,-3740.8322,21717.7123
51306.6351,24063.2147,50633.5795,37406.7128,33301.1895,34848.7794,4521.9362,48397.9136,44063.3744,54585.6357,-3954.4255,-3721.3415,21721.9144
51310.9714,24066.7462,50630.7632,37411.5855,33316.6122,34849.3159,4520.3269,48410.207,44071.8681,54585.3674,-3947.6305,-3716.9605,21725.5801
51305.7858,24068.0873,50628.528,37411.4066,33305.9281,34845.9184,4519.4775,48404.3509,44061.2733,54580.2265,-3953.5314,-3728.5835,21722.6297
51286.0268,24064.377,50627.9469,37399.5155,33286.6609,34842.0739,4518.2258,48386.8718,44045.2695,54570.1236,-3970.8763,-3740.3852,21717.3994
51287.2785,24057.3138,50626.2928,37404.7011,33286.4821,34844.5773,4519.1199,48379.5404,44040.3521,54567.3519,-3970.3846,-3737.6136,21715.79
51305.1152,24057.2244,50623.7447,37420.2132,33310.8455,34853.4733,4521.8915,48397.243,44050.7233,54574.1916,-3949.1057,-3721.9673,21722.8979
51313.9665,24056.4197,50626.9634,37430.2268,33319.9203,34854.4568,4521.0421,48415.3926,44059.664,54577.3208,-3941.9532,-3716.1559,21728.1729
51313.296,24056.1515,50632.8642,37433.6243,33319.3839,34859.8212,4525.6466,48415.6162,44057.9653,54576.1585,-3941.5509,-3719.1063,21727.4129
51299.6614,24051.0553,50632.7748,37429.288,33300.6531,34856.5578,4524.3502,48398.4053,44049.2034,54575.3986,-3953.3973,-3726.8847,21725.0437
51295.2805,24046.1379,50630.4502,37426.1141,33289.969,34854.0992,4525.4678,48385.5754,44045.4036,54576.5162,-3957.9123,-3725.6777,21727.5918
51309.6303,24047.8814,50627.8127,37430.1374,33307.9845,34858.8824,4524.976,48404.5297,44055.3725,54580.0477,-3948.167,-3715.5747,21731.7939
51311.2396,24046.8085,50628.2151,37432.1938,33324.2118,34859.9106,4523.5902,48412.174,44066.6825,54583.4452,-3939.7627,-3707.3493,21730.7657
51297.4262,24041.1311,50627.5892,37421.8673,33307.8057,34853.071,4520.9974,48394.382,44056.6689,54574.5045,-3952.3691,-3716.3794,21727.9494
51283.9705,24037.5996,50625.8458,37409.8867,33284.1575,34845.382,4521.1762,48377.9311,44041.7826,54573.1634,-3966.0037,-3729.6116,21726.2506
51276.2815,24034.068,50619.8555,37403.807,33273.5181,34840.0176,4510.5815,48378.6017,44036.597,54570.8835,-3969.5799,-3737.4347,21720.6627
51292.0618,24036.7949,50617.6651,37403.5388,33282.8164,34841.8057,4506.4688,48395.6784,44048.2646,54573.9681,-3962.0697,-3729.254,21719.0981
51310.3902,24037.3313,50613.15,37413.6418,33297.5239,34843.3256,4508.5698,48401.7581,44054.5678,54577.6337,-3957.3759,-3723.219,21719.2769
51306.4116,24038.6724,50614.357,37412.3007,33289.3878,34847.3042,4508.8381,48400.6852,44054.2996,54580.4501,-3958.3147,-3727.6894,21717.1311
51290.1396,24038.0019,50616.9051,37408.9032,33267.796,34843.1915,4507.3628,48385.5307,44049.0693,54579.109,-3971.5022,-3738.9547,21711.0068
51290.229,24044.4839,50617.0392,37412.8371,33273.1605,34839.7046,4507.9887,48375.383,44045.6271,54580.1818,-3975.6596,-3738.9547,21710.0233
51303.2377,24049.8483,50621.9119,37421.4649,33290.8183,34840.8222,4509.1063,48396.6619,44058.9488,54582.7746,-3962.3827,-3728.047,21714.1807
51318.3028,24050.5636,50623.2083,37427.0082,33301.1001,34841.6716,4515.5436,48411.5928,44063.9108,54581.7912,-3952.1456,-3721.5203,21718.4722
51316.4252,24049.3119,50621.4201,37421.8673,33290.0584,34842.1633,4515.8565,48403.5462,44060.0216,54579.5113,-3960.1922,-3728.5835,21715.2983
51299.2144,24036.7949,50619.632,37411.4066,33272.624,34839.1682,4514.9624,48389.1964,44050.0528,54574.8621,-3972.3516,-3739.3123,21710.4256
51301.6284,24041.3547,50621.5096,37411.5855,33273.4287,34841.6716,4514.426,48389.9117,44054.4337,54572.6269,-3973.335,-3738.9547,21711.5432
51315.2629,24048.999,50617.1286,37414.4912,33297.4344,34845.7843,4516.08,48405.6473,44066.7272,54577.589,-3958.4041,-3727.7341,21714.8513
51322.9966,24051.4576,50618.5144,37419.3639,33305.5705,34854.5462,4519.701,48421.2488,44069.1859,54584.384,-3946.6918,-3718.9275,21715.79
51319.3309,24050.5636,50620.4367,37418.738,33294.7522,34852.0428,4521.2656,48418.9242,44065.0284,54584.2499,-3954.5149,-3727.0188,21716.0136
51304.6682,24046.585,50621.1966,37410.602,33278.7484,34842.2974,4517.3764,48401.9369,44055.0148,54578.3937,-3969.9376,-3738.9547,21715.2536
51297.3815,24046.8532,50624.2365,37404.6117,33283.3976,34842.0739,4514.9624,48401.2663,44052.0197,54575.6221,-3969.9376,-3737.703,21712.8843
51318.7051,24055.7939,50629.0644,37414.9382,33310.9349,34850.3441,4522.1597,48424.3333,44072.4939,54588.7202,-3953.2185,-3723.0849,21720.4839
51330.9538,24063.9299,50632.149,37427.8575,33327.2517,34858.0331,4530.2063,48444.1817,44082.9545,54598.9573,-3939.718,-3712.4455,21729.4246
51319.1968,24064.064,50632.7748,37422.7613,33317.9086,34858.9271,4530.1616,48440.6054,44078.7971,54597.1692,-3946.7812,-3716.6476,21730.274
51309.1832,24064.6005,50633.0878,37415.6088,33292.1594,34857.139,4526.2277,48423.0369,44066.9507,54589.8378,-3960.7733,-3727.6447,21726.6083
51316.157,24071.1719,50637.5134,37423.4766,33296.898,34861.7882,4530.8322,48427.552,44076.9196,54593.6823,-3953.4867,-3721.1627,21730.274
51334.7089,24072.7365,50634.9653,37433.1772,33315.9864,34861.5199,4531.4133,48448.7861,44089.3471,54596.2304,-3940.2992,-3707.5281,21734.1185
51339.6263,24072.2895,50634.6524,37440.7321,33327.2964,34864.2021,4533.0673,48466.1311,44101.3724,54598.1973,-3931.3585,-3703.9965,21735.6384
51326.9305,24071.6636,50634.8312,37428.5281,33318.8027,34861.6093,4532.1286,48457.7268,44098.6007,54592.8329,-3945.753,-3714.0995,21731.5257
51307.4845,24061.2924,50632.7301,37414.8041,33295.4675,34853.2051,4526.4065,48432.1117,44085.6367,54589.6143,-3961.131,-3729.254,21724.8201
51305.6517,24057.135,50633.4454,37411.496,33292.5171,34850.8358,4524.6184,48420.6229,44085.6367,54590.7319,-3965.4225,-3732.6068,21718.5616
51316.4252,24060.0407,50627.1869,37419.8556,33306.4646,34852.311,4521.8468,48439.8454,44090.7329,54589.9272,-3959.2087,-3727.3765,21717.3994
51318.9733,24057.6714,50619.185,37419.0509,33313.8853,34852.311,4518.5834,48450.3955,44090.3306,54589.1672,-3956.2136,-3722.5932,21715.2089
51304.3553,24056.9562,50615.7875,37414.3124,33300.8766,34849.45,4518.2258,48445.9698,44081.7922,54583.8475,-3961.6674,-3730.1034,21712.7502
51285.3116,24047.6131,50613.4629,37406.3998,33277.6755,34837.2012,4510.9838,48416.5996,44066.7272,54575.7115,-3980.0406,-3748.7,21702.3343
