FC3,FCz,FC4,C5,C3,C1,Cz,C2,C4,C6,CP3,CPz,CP4
51772.4901,24429.6938,50882.9802,37834.5251,33529.2667,35261.929,4650.2352,48523.441,44009.4173,54705.5751,-3583.6995,-3460.5414,22122.7705
51757.4698,24423.793,50883.2484,37823.4386,33517.5097,35258.5316,4649.1176,48506.2748,43991.4912,54699.9872,-3592.9084,-3470.5102,22119.1049
51756.4863,24425.6705,50879.0016,37824.0645,33514.2463,35255.8047,4645.0496,48496.9765,43984.3833,54696.7685,-3596.2164,-3477.8863,22116.4674
51769.2268,24434.5218,50877.3029,37834.4357,33536.2852,35263.7172,4645.2284,48520.1776,44004.2764,54702.2223,-3583.0289,-3464.4753,22120.6695
51785.4542,24446.547,50879.9404,37839.4425,33546.1199,35270.2886,4648.2235,48555.4934,44015.9887,54705.1728,-3573.9988,-3452.8524,22121.4741
51770.4785,24450.928,50878.644,37830.1442,33530.1608,35265.1924,4646.346,48547.1785,44009.5961,54701.3283,-3580.5255,-3461.5695,22120.9824
51761.8507,24456.9182,50881.1027,37832.1111,33515.811,35266.5335,4649.5646,48532.5158,44002.8459,54699.3166,-3590.0027,-3470.5997,22118.7472
51759.4367,24459.6452,50882.3097,37832.7817,33513.6205,35266.9358,4649.7881,48528.7607,43990.5077,54697.2603,-3594.1154,-3471.6278,22113.0252
51779.8215,24460.718,50884.2319,37838.5037,33539.9508,35273.1496,4655.7784,48556.7451,44005.7516,54703.5635,-3576.5469,-3454.417,22118.7472
51791.802,24466.7977,50885.886,37843.9128,33550.5903,35280.9727,4658.8629,48576.6381,44021.5319,54706.2457,-3568.8579,-3446.1468,22127.6879
51790.1033,24469.7034,50887.9423,37847.2209,33542.0519,35286.4265,4656.9407,48578.5156,44026.2258,54705.5751,-3575.1164,-3451.7348,22129.1184
51775.4853,24469.4352,50884.4107,37837.8779,33523.7235,35281.3751,4649.8775,48559.0696,44013.2171,54694.5333,-3591.1649,-3468.1857,22121.6083
51770.7467,24467.6918,50879.7616,37835.0168,33528.4621,35280.8386,4644.2896,48566.0434,44008.1656,54693.2817,-3593.6236,-3470.3314,22116.5121
51793.2773,24468.407,50880.3874,37842.3035,33555.5971,35287.2759,4644.9602,48590.0939,44026.0023,54701.6859,-3575.0717,-3454.5511,22121.0718
51811.7845,24472.788,50884.0978,37850.216,33569.0081,35297.2448,4651.5316,48601.7615,44035.6135,54709.2408,-3562.8229,-3447.1303,22126.928
51801.8603,24463.9367,50884.6343,37842.08,33556.0441,35293.4897,4648.0,48599.2134,44021.7555,54705.5751,-3577.3069,-3458.7085,22120.9377
51778.5251,24452.0456,50885.0366,37831.4406,33531.2337,35282.4032,4643.6191,48576.9063,44005.1258,54699.1825,-3595.9035,-3474.0418,22115.6627
51777.4522,24451.7326,50888.3893,37831.9323,33534.8099,35282.135,4643.4402,48571.4972,44010.4902,54702.3565,-3593.0872,-3473.5501,22116.1544
51796.4959,24463.7132,50892.2786,37843.3764,33560.5145,35287.3206,4649.207,48599.124,44022.426,54710.9842,-3575.474,-3455.4899,22123.0835
51807.3142,24461.6121,50891.3845,37844.5834,33572.5844,35287.8124,4650.5481,48615.1725,44035.7029,54715.6334,-3572.3448,-3452.003,22126.3915
51804.9896,24459.6452,50891.2504,37837.4308,33561.4085,35284.0573,4651.7998,48602.432,44033.289,54709.7325,-3580.9278,-3457.725,22124.6034
51790.148,24455.6218,50895.0949,37825.8526,33534.4523,35280.5257,4650.2352,48574.85,44026.4046,54709.1067,-3593.8919,-3466.7104,22124.1117
51787.1529,24451.8667,50895.1843,37826.6573,33539.8167,35283.3867,4656.1807,48574.3135,44033.8254,54711.6548,-3590.7179,-3463.5812,22126.9727
51803.6485,24457.5888,50897.0618,37841.633,33566.7282,35289.2876,4663.5568,48603.5943,44049.9634,54719.2097,-3567.4721,-3447.2197,22134.2146
51816.076,24463.3555,50898.85,37845.4328,33579.2899,35287.9465,4666.0602,48615.4407,44064.939,54728.3292,-3554.4187,-3441.1401,22141.6801
51811.114,24465.099,50902.2474,37843.0635,33572.1374,35284.5937,4669.3236,48604.9354,44064.5814,54730.0726,-3562.1077,-3445.968,22141.6801
51795.5571,24454.996,50903.5438,37829.7865,33548.1763,35276.2789,4666.4178,48587.054,44051.8856,54727.1669,-3581.2855,-3457.5015,22136.1816
51792.4726,24445.0718,50902.5156,37823.081,33549.875,35276.2341,4665.5238,48583.6565,44041.7826,54724.4847,-3587.0969,-3458.1274,22134.5723
51808.7894,24448.3799,50901.8004,37830.5018,33565.1189,35281.9562,4668.653,48593.0443,44059.9769,54731.4137,-3573.4177,-3442.3918,22138.5509
51810.0858,24457.5441,50900.7275,37832.9605,33577.5912,35283.4761,4669.4577,48609.0481,44071.1081,54737.0911,-3563.0018,-3433.3169,22137.3886
51801.7709,24449.9445,50900.9063,37831.2618,33572.2268,35287.8571,4671.3352,48607.9305,44059.3958,54734.543,-3566.7568,-3439.2178,22136.4051
51794.1266,24448.4246,50903.2756,37833.1393,33555.0159,35290.2263,4676.8337,48590.8538,44054.2102,54730.922,-3574.2223,-3447.935,22135.8687
51797.39,24452.8949,50907.5671,37834.7486,33557.8322,35286.963,4675.4926,48594.9665,44059.7534,54731.7266,-3577.2175,-3445.7445,22137.7909
51814.2432,24460.5392,50909.5341,37843.6893,33580.9886,35291.7463,4677.7725,48620.5816,44071.5998,54738.9239,-3562.2865,-3434.7475,22143.5577
51829.1295,24465.7248,50912.4398,37851.0207,33599.2724,35300.2399,4680.4547,48630.7293,44080.2276,54739.5498,-3555.0892,-3429.2936,22148.6092
51813.4832,24464.6519,50909.0424,37843.0188,33583.5367,35298.1836,4675.2691,48609.5846,44072.0469,54731.8608,-3565.2369,-3439.3072,22144.4964
51795.1548,24464.1155,50912.6633,37838.9955,33569.321,35298.4518,4675.5373,48600.3309,44062.7933,54734.0065,-3577.1281,-3445.9233,22138.9085
51787.6893,24460.1369,50904.9296,37833.1393,33560.5145,35295.0543,4668.9659,48602.0297,44050.6339,54732.2184,-3581.0173,-3451.1983,22133.5888
51807.2695,24461.8356,50902.158,37844.1364,33576.8759,35304.2632,4668.7424,48616.2901,44059.8875,54734.4536,-3570.8696,-3445.1634,22136.0922
51815.7184,24466.7083,50906.1813,37850.6631,33594.5785,35307.3478,4674.1962,48626.8401,44067.9789,54739.8627,-3559.202,-3434.211,22138.7297
51809.907,24460.3157,50908.953,37845.9692,33585.4143,35304.0844,4672.5869,48619.6876,44063.4638,54735.0794,-3563.1806,-3438.9496,22135.511
51792.7408,24451.5985,50901.264,37830.9041,33557.7428,35295.1437,4663.4227,48596.4417,44045.3589,54722.7859,-3583.2971,-3455.7581,22127.6879
51783.7107,24448.9163,50895.7654,37825.6738,33552.9596,35288.7064,4661.5005,48591.9267,44046.253,54721.579,-3590.0027,-3455.5346,22126.0339
51795.6465,24455.2195,50900.1017,37841.4541,33574.9537,35298.5859,4668.7424,48615.4854,44052.4668,54734.0065,-3569.0814,-3439.9778,22134.6617
51811.6951,24461.4333,50906.7625,37854.6417,33588.7223,35300.9552,4674.5539,48621.431,44060.3346,54732.8889,-3558.442,-3433.1828,22135.5557
51811.9186,24454.4595,50907.0307,37852.1383,33581.1228,35299.2564,4672.4081,48611.9539,44059.4405,54726.094,-3566.7121,-3445.6998,22133.7229
51797.1665,24448.1564,50909.5788,37842.1247,33558.0558,35292.3274,4672.4528,48597.7381,44049.8739,54721.0872,-3582.5819,-3456.3839,22132.203
51792.6067,24452.4479,50908.0589,37845.0304,33561.185,35292.7744,4674.7327,48593.536,44051.8856,54719.2544,-3579.8103,-3459.7814,22134.3935
51813.4385,24466.0378,50911.054,37857.3239,33591.3599,35303.8609,4677.1914,48615.9772,44067.8895,54729.8044,-3557.1009,-3441.1848,22142.2166
51817.3724,24465.9483,50909.5788,37860.6766,33599.0489,35307.8395,4674.3304,48632.1598,44072.0022,54733.1125,-3552.2729,-3430.903,22142.0377
51807.0012,24457.9464,50905.1532,37857.7709,33584.8778,35302.7433,4673.3022,48623.7109,44058.9935,54726.5857,-3558.7102,-3437.5638,22137.2545
51789.701,24455.9795,50904.7508,37849.4561,33566.9518,35296.0825,4671.7823,48604.9801,44054.4337,54723.7694,-3575.4293,-3451.3324,22130.7278
51789.4328,24452.6267,50903.5438,37843.1976,33558.9498,35293.445,4670.4412,48594.4748,44055.8642,54726.0493,-3580.9278,-3452.9865,22129.1631
51815.9866,24456.9629,50907.0754,37856.1169,33588.1859,35302.5198,4677.9066,48621.0287,44066.4142,54739.4603,-3559.3361,-3432.9593,22140.0261
51829.4871,24465.6354,50909.4,37866.5775,33610.3141,35309.0018,4686.4003,48644.7215,44076.2937,54748.9822,-3548.7413,-3423.9292,22148.6092
51827.5648,24465.4566,50906.7625,37865.4599,33596.8137,35311.684,4686.8473,48636.5408,44074.6397,54747.3282,-3555.3575,-3433.5405,22147.1786
51805.9283,24455.4877,50906.3601,37852.7194,33566.3259,35301.7151,4678.6219,48618.9276,44063.5085,54743.3496,-3576.4575,-3445.6998,22141.993
51798.5076,24447.7987,50905.2426,37848.3385,33563.7331,35298.8094,4674.8221,48609.1822,44064.0897,54740.0415,-3576.3234,-3448.8738,22139.892
51821.664,24457.7676,50909.8917,37860.6766,33583.492,35304.0844,4680.0524,48629.8352,44081.0323,54744.8695,-3558.1738,-3435.6862,22145.9717
51834.9409,24459.6899,50907.5671,37864.1188,33594.2209,35297.6024,4678.8454,48650.5777,44080.8982,54742.9919,-3554.9998,-3432.4676,22141.9483
51821.3063,24450.928,50904.8849,37854.6417,33583.6262,35293.6685,4674.0174,48646.4202,44076.8749,54737.851,-3565.4157,-3444.2693,22138.0144
51799.3569,24444.6695,50901.5322,37835.6874,33555.6865,35284.9513,4670.7094,48624.9626,44067.0848,54730.7432,-3582.9395,-3457.5462,22131.2195
51798.1052,24442.3449,50898.9394,37833.4075,33555.3735,35288.6617,4669.7259,48620.5816,44068.0683,54730.922,-3584.4147,-3455.1322,22134.3935
51812.2315,24452.1797,50903.2756,37844.1364,33583.8944,35295.9037,4670.7541,48645.0344,44089.1683,54739.5498,-3569.1708,-3443.1517,22140.0261
51822.4686,24452.8502,50903.9015,37850.8419,33596.2772,35294.0261,4670.1729,48652.4105,44093.7728,54741.5614,-3562.51,-3439.2178,22140.0261
51810.801,24448.514,50904.7955,37845.7457,33589.6164,35288.2147,4669.1,48641.2346,44086.9331,54743.6178,-3570.3331,-3442.0341,22137.031
51795.3336,24445.34,50904.6614,37836.4921,33569.1422,35282.3585,4665.5238,48622.2357,44076.249,54738.611,-3583.6548,-3454.5064,22135.7346
51793.2773,24446.9494,50904.7061,37834.5698,33574.2384,35282.1797,4663.3333,48616.5583,44076.4278,54734.7218,-3587.5887,-3461.7484,22133.7229
51807.8953,24451.0621,50905.5555,37841.7671,33592.3433,35287.7676,4666.9543,48636.8537,44085.1897,54738.7898,-3577.5751,-3451.2877,22131.7112
51813.1256,24449.0951,50904.0356,37843.1082,33601.1946,35285.3984,4669.5918,48655.9868,44089.8389,54738.6557,-3569.9755,-3445.6998,22132.3818
51803.0673,24443.686,50902.3815,37838.6378,33580.4522,35279.3634,4665.7473,48649.9518,44081.6134,54736.7781,-3579.7209,-3454.0594,22128.582
51796.0042,24440.065,50897.1512,37833.944,33561.632,35278.9164,4660.2935,48622.5933,44065.7437,54729.268,-3594.473,-3465.9505,22123.1282
51792.9196,24443.686,50895.9442,37828.2666,33562.2132,35280.1681,4658.2371,48620.224,44072.9856,54729.5362,-3593.0872,-3467.2916,22122.3235
51809.594,24449.721,50895.7654,37836.7603,33588.5882,35287.4994,4659.1312,48643.8274,44085.2791,54734.3194,-3579.5867,-3457.6803,22124.3352
51812.5892,24451.9114,50893.0385,37845.6563,33603.0275,35289.7346,4657.2089,48661.3065,44096.1421,54739.1027,-3575.5634,-3452.3606,22126.8386
51801.6815,24449.2292,50896.6148,37841.4541,33594.3103,35285.756,4654.2585,48650.0412,44090.3306,54737.404,-3583.0736,-3456.2051,22125.721
51787.1082,24441.5849,50897.0171,37827.1937,33567.7564,35285.3984,4651.3975,48629.2541,44072.8962,54731.0561,-3598.4069,-3467.828,22120.446
51785.9906,24443.4625,50894.7372,37827.7749,33565.9236,35285.1748,4652.7833,48632.4281,44079.6018,54734.7218,-3600.508,-3469.6162,22118.1214
51792.9643,24446.9494,50890.1328,37836.2238,33587.5154,35285.8901,4651.4869,48652.9469,44087.3802,54734.0959,-3586.4264,-3460.5414,22121.0718
51801.5474,24446.5917,50888.4341,37840.9624,33596.8137,35289.1088,4653.8562,48670.2025,44089.8836,54735.0794,-3580.5702,-3455.0428,22123.9775
51791.8468,24437.2934,50885.4836,37831.3065,33583.4026,35281.0621,4652.1127,48656.2103,44075.8914,54731.4584,-3593.3107,-3471.2255,22116.8697
51777.5416,24435.2818,50885.4389,37822.6787,33561.945,35270.825,4645.9436,48628.3153,44070.3481,54723.1883,-3610.4769,-3483.3848,22112.3546
51785.4542,24440.2885,50893.5302,37828.669,33564.4037,35276.8153,4653.9903,48641.7264,44082.9098,54730.1173,-3604.6654,-3473.5501,22119.7307
51814.6008,24449.0504,50900.5487,37843.1082,33594.9361,35296.4401,4663.9591,48677.1315,44094.041,54741.3826,-3579.4079,-3449.589,22131.8007
51826.6261,24458.3488,50900.0123,37854.1946,33610.5824,35305.2914,4669.1895,48695.5494,44103.6969,54745.8977,-3565.5051,-3440.6483,22133.7676
51820.3229,24460.8968,50903.7673,37852.4512,33608.7048,35304.1291,4673.5704,48691.2578,44098.3325,54747.4176,-3568.992,-3443.9564,22130.8619
51808.3423,24457.2312,50907.1648,37840.5154,33592.4774,35297.96,4677.6831,48668.1461,44091.7611,54740.3544,-3580.3914,-3453.3888,22130.4148
51806.286,24453.9678,50908.7294,37833.4969,33588.6776,35298.8094,4679.516,48659.876,44098.1537,54743.5731,-3580.5702,-3453.7464,22132.9182
51823.0945,24458.4382,50907.8354,37852.0489,33609.3307,35306.1408,4680.3653,48685.6699,44107.765,54745.4953,-3563.6723,-3439.6648,22137.2098
51826.492,24462.8191,50906.986,37860.4531,33619.1654,35306.5431,4677.7278,48696.7564,44116.6162,54748.8928,-3558.9784,-3434.0769,22140.1602
51813.7515,24458.7511,50905.1085,37850.3501,33599.1383,35301.4469,4672.274,48687.8604,44112.3694,54745.7188,-3568.6344,-3443.554,22132.4712
51809.147,24457.9464,50906.3601,37842.7058,33590.8681,35300.0164,4673.4363,48664.1675,44106.2897,54744.1542,-3581.1961,-3452.4947,22127.3303
51810.2199,24449.4975,50904.6614,37839.9342,33586.6213,35299.3459,4671.3352,48660.6807,44102.6688,54744.646,-3587.8122,-3455.0428,22129.029
51825.0167,24452.7608,50903.0968,37852.1383,33601.8652,35302.2069,4670.307,48671.5436,44113.5764,54751.6197,-3575.3399,-3442.4812,22131.9795
51828.3248,24455.4877,50899.2076,37852.0489,33610.3588,35298.0494,4668.206,48681.6913,44114.1129,54749.4739,-3567.338,-3440.2907,22126.8833
51818.8477,24450.615,50897.6877,37846.148,33597.4395,35295.3225,4666.2837,48678.8303,44111.2965,54746.0765,-3570.9143,-3448.2926,22124.8716
51805.2578,24442.5237,50899.5652,37835.8662,33577.7253,35291.9698,4666.3284,48661.4406,44099.2266,54742.1426,-3585.9793,-3461.5695,22125.8104
51809.594,24445.0271,50905.9131,37838.1461,33581.4357,35295.8143,4670.5753,48669.4872,44098.2878,54745.3165,-3581.2855,-3455.5793,22131.8454
51827.386,24450.2127,50909.6235,37854.8205,33607.319,35303.2798,4672.6316,48695.7729,44115.2304,54750.815,-3565.4157,-3440.1566,22136.8074
51839.4113,24453.7443,50911.2775,37863.493,33624.7981,35309.0018,4675.8503,48714.3248,44127.8815,54757.4759,-3556.2068,-3426.1197,22144.0047
51831.0964,24452.4479,50912.261,37857.3686,33608.3472,35307.3031,4674.688,48701.4949,44117.1527,54756.9394,-3564.2087,-3435.5521,22143.6918
51808.387,24440.1991,50909.2659,37847.7126,33582.1509,35300.2846,4672.8104,48681.8701,44103.2052,54747.5964,-3581.7325,-3450.1255,22138.238
51802.9779,24434.2983,50905.1085,37837.3861,33579.2005,35300.9999,4669.7706,48686.7875,44108.0332,54747.4176,-3584.7723,-3453.4335,22133.4994
51821.1722,24440.6462,50902.6945,37843.2423,33599.0936,35306.2749,4668.3848,48708.6475,44118.8067,54755.196,-3572.4342,-3442.3918,22137.6121
51838.1149,24444.5354,50898.6712,37853.0324,33611.1635,35305.3361,4667.4907,48721.4774,44115.2304,54754.7489,-3568.545,-3440.5589,22135.3322
51828.6377,24440.5568,50895.8101,37849.0984,33600.3006,35296.3507,4664.4956,48704.4007,44104.5016,54746.8364,-3576.7257,-3455.5346,22127.5538
51812.1868,24440.3332,50898.7606,37842.8847,33580.8098,35294.3391,4662.8863,48684.2394,44096.8573,54741.472,-3588.4827,-3465.5482,22123.6199
51810.801,24440.5121,50896.6148,37844.6728,33581.8827,35298.0942,4659.9358,48682.8983,44100.2548,54742.5896,-3588.0357,-3462.8212,22124.7822
51825.732,24449.6316,50901.0851,37858.9332,33604.905,35304.9785,4663.2886,48701.2267,44110.9389,54748.7587,-3571.8977,-3450.8407,22128.7608
51835.835,24458.2593,50906.2707,37863.0012,33613.6669,35306.3643,4664.9426,48712.7602,44118.2703,54753.9443,-3564.5217,-3445.1634,22129.029
51823.7203,24454.6831,50902.918,37855.491,33599.9876,35302.788,4660.6064,48708.0216,44110.8942,54750.4127,-3579.0056,-3454.3276,22120.0436
51805.7048,24446.6364,50901.3981,37839.7554,33576.2948,35292.7744,4658.0136,48688.7544,44106.5133,54743.2601,-3594.6965,-3467.381,22115.3051
51802.3074,24441.0038,50899.1629,37831.2618,33570.4833,35290.5393,4654.7949,48686.9216,44098.0196,54736.8228,-3602.2514,-3467.9174,22113.3381
51824.8826,24440.4227,50896.2572,37843.5552,33591.1363,35292.7744,4651.0845,48695.4153,44105.2616,54737.0911,-3590.6732,-3461.9719,22114.7239
51828.0119,24435.7288,50891.9209,37848.7408,33598.9594,35289.2876,4645.7648,48704.1324,44110.3578,54736.9123,-3581.6878,-3459.3344,22112.1758
51808.6106,24433.7618,50886.3777,37833.2734,33581.4357,35279.9445,4638.8358,48686.4746,44098.4219,54728.508,-3595.8141,-3473.416,22104.6656
51786.84,24426.2516,50882.712,37818.7448,33552.5572,35272.0767,4634.7678,48667.0732,44081.6134,54722.4283,-3614.6343,-3485.3965,22097.6025
51785.2306,24424.6423,50882.8908,37825.4056,33560.4697,35275.4295,4640.5792,48668.8167,44077.5454,54723.0542,-3608.7334,-3479.2274,22100.24
51803.2014,24426.5646,50886.6012,37839.219,33580.0052,35280.5704,4643.3061,48687.5921,44094.9351,54728.508,-3591.2991,-3466.2187,22108.5101
51819.3394,24433.7618,50893.9326,37847.7126,33596.5902,35286.3818,4649.967,48701.2267,44102.8476,54735.3476,-3582.6266,-3458.9767,22112.1758
51808.7894,24435.4606,50892.5021,37842.1694,33591.494,35285.8454,4648.4023,48692.733,44093.6387,54734.99,-3594.473,-3465.0564,22108.0631
51789.3434,24426.9222,50891.608,37821.427,33555.0159,35276.1447,4639.9534,48668.5485,44087.1567,54726.5857,-3610.1192,-3483.0272,22102.2069
51786.0353,24427.861,50890.4904,37818.8342,33548.4445,35275.8318,4638.8358,48667.7885,44087.0225,54726.854,-3611.7285,-3486.4694,22103.2351
51805.9731,24431.8396,50890.2222,37832.737,33568.5164,35280.7939,4641.1604,48690.2744,44097.2596,54738.0298,-3600.5974,-3472.6113,22108.1525
51816.9701,24434.5218,50891.8315,37841.7671,33579.3793,35282.8503,4645.3625,48706.8146,44103.8758,54740.2203,-3590.3603,-3464.8329,22110.2536
51800.3851,24432.1972,50893.8432,37838.6825,33570.841,35281.0621,4646.8824,48705.6524,44101.6853,54739.7733,-3596.44,-3466.7999,22108.2419
51787.6893,24432.1078,50893.7538,37830.9041,33553.2725,35273.9096,4646.6142,48685.804,44095.5609,54734.7665,-3609.404,-3481.2391,22104.4421
51794.976,24430.6773,50894.5584,37829.6971,33559.6651,35273.7755,4644.8261,48682.5854,44097.0361,54734.0512,-3610.611,-3482.7143,22105.4703
51814.869,24441.0038,50899.0735,37842.2588,33581.1675,35282.2691,4649.1176,48705.9653,44107.005,54741.7402,-3589.2427,-3468.8115,22112.6229
51821.4405,24445.6977,50898.2241,37848.2044,33594.6232,35289.6452,4651.8445,48718.7505,44113.487,54748.5352,-3578.2456,-3460.9884,22114.6792
51810.9351,24440.1544,50895.8101,37839.8895,33584.6543,35286.203,4646.2119,48708.6028,44110.4025,54743.8413,-3591.5673,-3468.2751,22112.6229
51793.6349,24439.5733,50895.8548,37832.737,33554.7477,35277.8435,4646.8824,48686.5193,44100.4783,54737.3146,-3606.4982,-3479.0039,22111.7288
51802.1286,24442.2555,50899.297,37838.7272,33558.1899,35279.8998,4651.0845,48691.5261,44106.245,54742.3214,-3600.955,-3473.416,22118.4343
51808.2082,24447.8881,50898.8947,37843.3764,33579.0664,35289.5111,4653.5432,48714.9954,44122.0254,54749.8316,-3586.7393,-3458.6638,22125.0951
51808.7,24448.6034,50900.1911,37849.6796,33590.9575,35293.3556,4655.5549,48727.423,44129.8038,54757.6994,-3579.4973,-3454.2829,22124.3799
51808.0294,24441.3167,50901.6663,37848.115,33585.1908,35289.064,4656.4937,48719.9128,44125.5122,54753.0055,-3584.9512,-3460.2731,22120.1777
51789.8351,24429.0233,50902.6498,37831.4853,33560.8721,35278.827,4648.2235,48695.9964,44110.626,54744.4671,-3599.5245,-3473.9077,22113.6063
51792.7408,24427.5481,50901.0851,37836.5368,33557.3405,35278.4246,4648.8941,48693.0907,44112.9059,54746.747,-3600.0162,-3471.3149,22115.9756
51811.6057,24436.757,50901.1298,37854.1946,33582.3298,35283.9231,4655.9125,48703.7301,44129.2673,54756.09,-3583.163,-3459.3791,22122.4129
51818.043,24436.8911,50903.365,37854.284,33589.3929,35282.6715,4654.9737,48715.1295,44130.6978,54758.0123,-3582.3584,-3458.2168,22120.446
51806.3754,24428.3974,50902.4262,37840.3366,33581.9721,35276.8153,4650.7269,48704.0877,44119.8349,54749.8763,-3592.2378,-3469.1691,22113.2934
51794.529,24428.9786,50900.9063,37838.8613,33567.0859,35281.5092,4651.3528,48696.4434,44111.8777,54742.232,-3599.3904,-3473.2819,22108.9572
51793.3667,24433.6277,50902.5156,37843.7787,33563.4649,35286.8736,4649.967,48708.6028,44116.4821,54742.1873,-3597.8258,-3471.5384,22109.2701
51806.1519,24441.9873,50900.1017,37847.8914,33582.3298,35290.4499,4651.7998,48728.7194,44133.7824,54750.3233,-3584.8618,-3460.3626,22111.4159
51821.7087,24447.7987,50904.4826,37856.3851,33602.4016,35299.0329,4659.0865,48744.8126,44143.2595,54759.2193,-3571.6295,-3451.4666,22118.4343
51814.5114,24447.0835,50907.8801,37851.0207,33592.0751,35296.2613,4659.1759,48744.0079,44133.1565,54759.264,-3581.7772,-3459.1109,22115.9756
51790.3268,24439.2157,50906.1813,37831.7982,33564.4037,35287.5888,4655.5996,48719.8681,44112.5929,54755.1066,-3598.2281,-3476.1429,22110.7453
51792.6067,24434.8347,50905.332,37831.8429,33558.1452,35290.8969,4656.8066,48708.8263,44115.0069,54756.2242,-3598.2728,-3471.7619,22112.8911
51820.457,24445.9212,50908.4612,37849.1879,33583.3132,35301.9834,4661.7687,48733.905,44131.9942,54762.9744,-3578.8268,-3451.1983,22121.34
51826.8943,24451.7326,50911.9481,37859.5591,33599.63,35303.3245,4663.9144,48749.6406,44140.3538,54762.9744,-3570.2437,-3440.4248,22129.2973
51812.1868,24448.4693,50909.3106,37848.8302,33589.3482,35294.5179,4662.8416,48743.248,44131.9048,54759.8004,-3581.956,-3449.2761,22125.8104
51791.5785,24441.3614,50906.4049,37834.3016,33567.1306,35285.756,4659.3547,48718.7952,44125.5122,54748.2222,-3599.0328,-3463.9388,22119.9989
51804.5872,24444.9824,50909.1318,37842.527,33572.5844,35288.617,4661.5899,48721.5668,44132.3519,54747.2835,-3594.1154,-3461.5695,22122.1447
51830.7388,24453.2973,50911.8587,37869.3491,33595.4726,35303.1456,4665.8814,48745.7961,44146.2994,54758.5934,-3570.959,-3446.728,22129.342
51839.5007,24465.3672,50909.3106,37871.629,33607.8107,35304.3973,4664.6744,48760.2353,44146.657,54758.5487,-3563.4935,-3443.554,22130.4148
51832.7951,24458.2593,50907.9248,37861.079,33591.0469,35299.6141,4661.3216,48750.3558,44142.2313,54756.2689,-3573.8647,-3451.6454,22129.2973
51810.8457,24447.0835,50906.7178,37847.8914,33567.8905,35295.5461,4657.0301,48724.7407,44124.7523,54749.2504,-3588.6616,-3467.0681,22123.3517
51809.3258,24443.5519,50907.2095,37846.2374,33566.1024,35295.5461,4653.9903,48721.4327,44122.6065,54744.2883,-3584.6829,-3464.8329,22118.1214
51822.111,24440.6909,50902.4709,37853.7476,33575.6242,35299.6588,4650.9504,48735.8719,44128.418,54747.0599,-3576.4128,-3454.3276,22118.2555
51829.7106,24437.4275,50896.3019,37856.6086,33586.219,35300.5081,4645.6307,48744.2315,44132.1731,54749.2057,-3577.441,-3452.5394,22116.1991
51817.1042,24429.962,50895.4078,37844.0022,33570.2151,35295.7696,4637.2265,48734.799,44119.4773,54746.7023,-3590.6285,-3463.3577,22111.997
51794.1713,24419.9038,50895.0502,37826.7914,33543.5271,35285.9795,4632.8008,48711.5532,44098.9137,54737.4934,-3607.6605,-3479.2274,22105.3362
51795.0654,24418.8309,50894.6031,37827.5961,33540.9343,35283.7443,4632.5326,48702.7466,44098.6007,54735.4817,-3609.3593,-3477.037,22103.1457
51814.4667,24427.3692,50896.5254,37840.2025,33573.5679,35284.9066,4638.5229,48722.1032,44115.1857,54742.232,-3592.4166,-3464.9223,22109.4489
51822.0216,24435.4159,50901.9792,37840.7389,33586.2637,35289.6452,4644.1555,48736.766,44118.1362,54747.6858,-3580.2573,-3456.0263,22115.6627
51806.9565,24442.032,50907.8354,37834.9721,33576.8312,35291.031,4647.4189,48730.6416,44111.5201,54747.0599,-3583.5654,-3458.485,22118.7919
51789.5669,24445.9212,50914.5409,37840.0683,33560.2909,35290.8969,4653.8115,48717.32,44103.3393,54741.6955,-3593.8472,-3465.5929,22118.926
51788.4046,24455.3089,50919.4583,37841.2753,33556.4911,35295.0096,4661.5452,48713.2072,44095.6056,54745.1377,-3590.852,-3459.4685,22122.86
51800.8322,24457.0971,50920.5312,37847.9362,33577.3677,35296.753,4666.9096,48730.7757,44104.2781,54749.8763,-3576.5916,-3446.4151,22129.6996
51803.2014,24456.9629,50921.6934,37854.8205,33594.4444,35298.72,4668.9659,48737.1236,44114.5599,54754.2572,-3568.6344,-3437.385,22134.304
51781.0732,24456.0689,50918.5642,37841.8565,33588.3647,35291.478,4666.8649,48720.2257,44100.1654,54751.3962,-3574.4905,-3446.9068,22134.304
51763.1918,24457.0076,50915.8373,37829.4736,33568.5164,35284.1914,4669.1,48694.4318,44082.9545,54745.7635,-3586.4711,-3459.6473,22132.5159
51760.6437,24456.9629,50913.021,37824.5562,33563.0625,35280.3916,4665.6132,48676.4163,44078.0818,54747.6411,-3589.6897,-3461.9272,22131.4877
51781.8332,24465.7695,50913.6468,37837.2073,33588.9012,35284.3702,4672.1399,48689.6932,44085.1897,54751.2621,-3576.5469,-3452.45,22134.3488
51787.0635,24472.4751,50914.6303,37852.2724,33599.5406,35290.0922,4676.342,48695.1023,44090.42,54751.8432,-3567.785,-3440.7377,22135.1087
51768.5562,24468.407,50910.607,37844.5387,33576.5183,35279.5422,4672.4528,48673.9129,44078.8865,54742.4108,-3580.2573,-3452.1818,22130.4595
51750.3619,24458.3488,50903.2309,37835.4192,33548.3551,35270.5568,4669.1,48652.187,44060.2005,54733.7383,-3595.0541,-3466.934,22121.2953
51753.1782,24460.1369,50898.0006,37834.6145,33552.1549,35267.204,4664.4956,48656.6573,44055.0148,54731.3243,-3597.1552,-3468.9456,22115.4392
51764.1753,24469.3458,50899.5205,37850.1266,33576.563,35273.0602,4666.2837,48659.0266,44062.9274,54736.4205,-3579.4079,-3458.4403,22120.5354
51767.7963,24474.3973,50898.3135,37855.5357,33579.1111,35276.2341,4667.5354,48659.4737,44060.6028,54735.8394,-3574.0882,-3451.0642,22119.1049
51757.1121,24469.7034,50899.6546,37843.734,33559.1733,35268.3216,4664.9426,48647.9402,44047.0576,54726.7646,-3585.7111,-3462.6871,22115.9309
51737.532,24464.3837,50900.1017,37835.2851,33535.3911,35262.9572,4664.5403,48627.2871,44035.7029,54715.2758,-3597.7811,-3473.6395,22115.9309
51736.1462,24462.4615,50898.0453,37834.4357,33534.4523,35266.0418,4663.2886,48619.3299,44045.4483,54719.9249,-3596.887,-3469.9291,22118.7472
51747.8585,24468.8541,50899.0735,37844.3599,33553.4513,35274.9825,4666.2837,48637.569,44060.6475,54725.4682,-3579.8103,-3455.4005,22127.1515
51759.8391,24471.3128,50899.8781,37855.3569,33565.253,35272.2108,4670.1729,48644.1851,44065.8778,54730.3408,-3572.2107,-3442.0341,22132.1136
51752.8653,24465.993,50901.2192,37851.1995,33548.9362,35277.0388,4671.8717,48632.8751,44059.0382,54728.8656,-3576.6363,-3445.968,22130.8172
51741.1977,24460.3604,50903.3203,37841.2306,33531.5466,35275.0272,4670.9329,48613.6526,44043.5261,54722.6518,-3587.4993,-3458.8873,22129.2973
51743.12,24462.7744,50908.4165,37850.1266,33531.3231,35278.3799,4675.0456,48607.4388,44043.5708,54725.7364,-3579.6314,-3452.9865,22133.9017
51764.9353,24464.7413,50907.8354,37862.1966,33555.15,35279.4081,4677.1914,48621.1181,44050.5445,54729.6703,-3560.1854,-3441.9447,22137.4333
51773.4736,24466.2613,50910.2046,37869.8409,33563.5543,35277.9329,4676.2526,48624.2473,44053.3608,54732.2184,-3552.1835,-3437.9214,22139.132
51768.4668,24465.0543,50910.3835,37868.0527,33555.1947,35279.4528,4674.1068,48608.5117,44043.4813,54726.8093,-3565.6393,-3448.6055,22134.4382
51761.1802,24456.0689,50906.4496,37855.4016,33536.4193,35270.3333,4669.2342,48587.0987,44034.1383,54725.0658,-3580.7937,-3463.0001,22125.2739
51760.599,24453.029,50902.6498,37852.0936,33529.6243,35262.7337,4662.618,48579.3203,44033.9595,54722.8307,-3582.1795,-3465.3693,22123.4858
51770.702,24453.3867,50904.125,37857.458,33548.0422,35264.0748,4661.8134,48595.8606,44040.1286,54726.7646,-3569.7967,-3451.4219,22127.1962
51771.0149,24450.7492,50903.5885,37852.5853,33549.5174,35259.5598,4661.8581,48594.4301,44041.425,54726.4963,-3569.8414,-3447.3985,22126.615
51753.67,24439.7074,50894.0667,37835.2404,33527.2998,35250.5744,4657.2089,48571.4525,44029.0868,54717.4215,-3584.6382,-3461.5695,22116.9144
51740.5272,24434.2536,50888.4788,37823.5728,33500.9247,35239.5773,4650.5034,48552.1406,44018.2239,54709.7325,-3598.4963,-3476.0982,22113.0699
51736.2803,24433.6277,50889.7305,37819.9518,33496.7226,35239.1303,4647.9106,48553.6158,44018.4027,54707.5421,-3597.1105,-3475.9194,22115.4839
51754.2958,24438.858,50891.9209,37826.5232,33512.4582,35245.344,4650.9057,48561.9754,44034.2277,54714.2923,-3584.9512,-3461.0331,22121.6977
51767.9751,24435.9076,50891.2504,37831.9323,33518.1803,35250.3955,4647.5977,48566.7586,44032.7525,54714.9628,-3578.9162,-3455.4005,22123.0388
51757.291,24437.3381,50893.262,37824.735,33513.1735,35249.4121,4650.7716,48555.851,44025.8235,54711.7442,-3581.7772,-3459.5579,22124.4693
51742.1812,24435.5053,50894.8267,37819.6388,33497.259,35249.9932,4657.2089,48541.6353,44017.4639,54707.5868,-3593.4001,-3467.1575,22126.0339
51754.1617,24436.0864,50894.1114,37817.1355,33497.5719,35254.4636,4660.0699,48547.0444,44023.1413,54708.5702,-3591.5673,-3466.2634,22128.4926
51777.631,24441.7638,50895.3631,37834.3016,33527.7021,35264.7454,4662.5733,48571.6313,44039.6816,54715.097,-3574.3117,-3449.2314,22133.9911
51786.2588,24451.6879,50898.0006,37844.494,33540.7108,35270.825,4663.6909,48580.0803,44051.6174,54720.4167,-3566.3992,-3438.7708,22136.3604
51783.5319,24452.4926,50900.2805,37835.9556,33525.3328,35269.2157,4663.9591,48571.0502,44044.4201,54722.3836,-3570.2437,-3446.8621,22134.9746
51763.8624,24440.7356,50893.0385,37828.3113,33505.5292,35260.6773,4660.2488,48543.1999,44029.2656,54717.6898,-3584.0571,-3461.346,22125.8998
51755.2793,24429.9173,50889.8646,37827.3278,33506.7809,35255.9835,4657.4771,48544.0046,44027.3881,54717.1086,-3587.7228,-3465.4588,22123.9328
51771.6855,24429.068,50893.0385,37841.0518,33531.4572,35257.861,4660.9193,48568.5021,44043.0343,54724.1271,-3574.4458,-3454.417,22128.3585
51783.6213,24423.5694,50889.194,37843.2423,33539.9061,35255.5811,4656.2254,48575.9228,44047.8176,54726.541,-3568.2768,-3449.4102,22123.2623
51758.6768,24412.93,50879.9851,37827.0149,33513.7099,35240.0243,4643.7532,48553.1688,44033.6466,54718.0474,-3582.6713,-3463.9388,22113.9193
51735.9227,24402.6482,50875.8277,37815.7049,33494.9344,35236.0904,4642.0097,48528.6266,44017.7768,54710.3137,-3598.8986,-3474.9806,22107.8396
51731.81,24394.691,50873.5478,37809.2676,33488.3183,35238.1915,4638.4782,48529.61,44018.3133,54706.5139,-3603.1455,-3475.517,22102.8775
51751.7477,24402.3353,50873.369,37817.4931,33512.5923,35248.5627,4642.1885,48557.7732,44034.0936,54714.1135,-3587.3204,-3464.9223,22109.6277
51757.2016,24409.3537,50870.2844,37823.5281,33534.8099,35252.7648,4644.7366,48571.676,44040.218,54716.1698,-3579.8103,-3459.3344,22115.0815
51744.0587,24408.5938,50867.4234,37820.3541,33519.8343,35250.7979,4640.311,48560.1872,44033.289,54713.1747,-3587.9463,-3468.0963,22108.3313
51722.0646,24404.1234,50864.2048,37811.7263,33499.4495,35247.4451,4639.7299,48543.6916,44022.1131,54706.201,-3605.5148,-3477.1264,22102.3411
51723.6292,24397.7755,50858.5274,37810.7876,33505.1715,35248.965,4637.2712,48547.0444,44019.565,54701.373,-3606.1853,-3477.8863,22102.8775
51744.1034,24403.0505,50859.0639,37824.0198,33529.1326,35259.6492,4639.4169,48567.3845,44030.2938,54704.1446,-3587.3652,-3468.4092,22107.482
51754.4299,24409.1749,50856.8287,37828.0431,33528.1938,35258.3975,4633.2479,48580.3485,44037.2676,54702.8482,-3583.4759,-3467.381,22108.9572
51749.8255,24409.2196,50857.4098,37827.1043,33516.705,35259.2915,4631.0574,48569.0385,44032.6184,54694.891,-3591.5673,-3475.07,22106.3644
51748.2609,24403.6764,50855.7111,37827.6408,33510.9383,35265.5053,4630.7445,48555.0463,44029.1762,54688.096,-3605.7383,-3485.173,22101.3129
51749.7808,24402.4694,50857.0075,37824.6903,33509.6419,35265.6394,4628.1964,48561.573,44031.7243,54692.1641,-3603.6819,-3483.9213,22102.8775
51761.3143,24402.4247,50857.4992,37833.8993,33531.2784,35271.0485,4630.1186,48585.6682,44043.839,54701.2389,-3589.8238,-3470.5549,22104.7103
51761.7613,24399.8766,50853.923,37836.7603,33546.5223,35270.1098,4630.2527,48593.0443,44044.0178,54701.1942,-3582.7607,-3463.313,22103.861
51749.602,24399.7872,50854.0571,37830.6359,33534.4076,35262.9125,4626.8553,48575.3864,44032.1714,54700.7918,-3590.0921,-3471.7172,22102.9222
51738.0238,24396.0768,50850.0338,37819.9518,33511.6982,35253.6142,4628.1517,48556.8345,44020.3696,54696.6344,-3602.609,-3482.3567,22104.308
51731.0053,24392.277,50847.6645,37812.978,33509.5525,35251.8708,4631.2362,48559.5614,44022.3366,54693.1028,-3604.7101,-3483.2507,22102.0281
51745.981,24395.898,50846.5916,37818.9236,33534.6311,35259.2468,4634.0972,48579.7673,44034.8536,54698.6014,-3590.9861,-3471.3149,22103.548
51759.0791,24402.8717,50851.4643,37820.6223,33543.3483,35260.4091,4637.4947,48584.3718,44041.0227,54704.0105,-3580.5702,-3463.0895,22106.4985
51745.7575,24399.8766,50853.9677,37815.3026,33528.4173,35256.2964,4640.8921,48580.2591,44042.3191,54703.3846,-3590.7626,-3469.5268,22108.2866
51729.5301,24395.1827,50852.8501,37809.8935,33509.1054,35249.2779,4639.3722,48567.6527,44035.4347,54698.0202,-3598.8986,-3478.4228,22108.2866
51731.81,24398.4014,50856.3817,37807.2113,33515.2745,35250.5744,4641.6521,48567.9209,44036.2394,54698.3331,-3599.0328,-3474.3547,22110.1642
51747.5009,24406.8503,50858.2145,37807.3454,33528.2385,35253.1672,4642.6356,48588.4845,44053.3161,54706.8268,-3590.5838,-3462.8659,22114.7686
51759.6155,24415.0758,50860.3156,37812.1734,33536.464,35251.0661,4643.8426,48594.5195,44060.4687,54710.6266,-3581.5984,-3460.452,22114.5451
51754.5193,24410.6054,50860.5391,37811.2346,33529.8032,35247.8027,4645.586,48584.3271,44053.9867,54708.4808,-3588.1251,-3465.4588,22110.4324
51732.5252,24398.312,50856.5605,37795.5884,33510.5807,35239.3538,4638.4782,48562.78,44041.4697,54698.9143,-3606.9006,-3479.3168,22100.687
51737.2638,24392.6346,50852.5819,37791.6098,33510.3124,35237.968,4634.9913,48557.9967,44039.5474,54698.8696,-3609.0463,-3481.8649,22097.2449
51751.1666,24389.0584,50851.1513,37807.7477,33530.7866,35246.3275,4641.3839,48577.3534,44045.6271,54705.3069,-3590.2262,-3463.1342,22104.1739
51751.9265,24390.2653,50846.681,37814.7662,33541.5602,35244.6735,4643.172,48591.7032,44049.6057,54705.7092,-3580.5255,-3451.4219,22107.9737
51737.6214,24385.8844,50841.0931,37804.6632,33529.2667,35237.1633,4639.4169,48583.2542,44040.8885,54699.0484,-3591.2991,-3463.2236,22102.2516
51719.74,24380.7435,50836.3545,37794.2473,33509.9995,35231.3071,4634.9466,48558.3544,44032.2608,54697.6179,-3610.9239,-3477.3946,22096.6637
51722.6458,24377.8378,50837.8297,37795.1413,33516.8391,35232.1118,4637.3606,48557.6391,44034.8983,54702.7141,-3609.6722,-3476.8134,22100.5082
51745.9363,24383.5598,50842.7024,37808.8206,33539.0121,35243.2877,4644.0214,48582.2707,44053.5396,54714.1135,-3593.1319,-3463.8047,22108.0184
51752.5077,24391.2935,50845.4293,37814.8556,33551.2608,35252.9436,4648.0,48594.3854,44059.7534,54718.3603,-3588.8404,-3458.0827,22111.8629
51743.7458,24390.7124,50848.335,37819.0577,33542.4989,35257.1905,4650.0564,48587.2328,44054.7019,54718.8073,-3592.4166,-3461.2566,22111.8182
51737.7555,24386.5997,50849.7655,37808.8206,33518.4038,35251.1108,4648.5364,48569.0832,44043.9284,54710.6266,-3606.6324,-3471.8066,22108.3313
51744.1034,24390.1312,50853.61,37810.7876,33524.0364,35251.2449,4650.9504,48568.5021,44042.9449,54708.1679,-3601.8491,-3469.3033,22110.1642
51764.0859,24402.38,50856.7393,37827.1043,33545.3153,35262.0631,4656.3148,48591.7032,44052.5115,54711.2972,-3584.1912,-3455.6687,22114.1875
51771.7302,24407.4762,50857.7228,37836.4027,33557.0723,35267.4723,4656.3148,48604.9354,44059.0382,54713.9794,-3572.7918,-3452.1818,22114.2769
51753.4018,24395.3615,50853.923,37825.7185,33544.7341,35261.035,4652.3809,48587.5458,44050.321,54708.3467,-3580.8384,-3459.9602,22110.7006
51731.9888,24384.9903,50848.648,37813.1568,33525.1093,35251.7366,4649.2964,48571.0502,44028.908,54698.4226,-3599.1222,-3475.8747,22104.9339
51725.1045,24379.9388,50838.7238,37807.3454,33516.258,35248.518,4640.7133,48569.0385,44027.5669,54695.0251,-3601.8938,-3479.7639,22102.2069
51727.5631,24375.1109,50832.0183,37811.2793,33534.4523,35248.8309,4634.4995,48580.8402,44037.357,54697.5732,-3587.7675,-3466.934,22102.9669
51733.3299,24377.7931,50830.0066,37819.1024,33540.7108,35247.2663,4635.9301,48594.2513,44038.6534,54701.6412,-3579.2291,-3457.1886,22104.8892
51728.5913,24375.9602,50828.6208,37816.2861,33528.4621,35247.4898,4637.3159,48585.5788,44037.8934,54698.6461,-3585.6217,-3464.5647,22104.8892
51708.8771,24365.3655,50829.1125,37806.8089,33510.8936,35241.589,4630.7892,48563.8529,44024.2141,54690.4653,-3599.2116,-3479.3168,22096.7978
51712.7663,24365.5443,50832.6888,37808.2395,33513.4864,35243.69,4631.9067,48558.3991,44029.9362,54693.0581,-3603.2349,-3478.1098,22097.5131
51729.843,24375.8261,50834.0746,37815.6602,33529.982,35248.518,4636.8688,48578.9627,44042.2744,54702.7141,-3590.8073,-3468.1857,22100.5976
51733.6875,24383.1128,50835.4157,37822.5446,33538.5203,35251.7813,4637.8076,48587.6799,44048.667,54705.0387,-3586.4264,-3466.7104,22100.8211
51730.3348,24384.2304,50843.2388,37816.2414,33531.3678,35252.8542,4637.2265,48578.5156,44047.5047,54709.1514,-3592.1037,-3472.9689,22102.2069
51716.9237,24381.9505,50844.1329,37814.9003,33519.6108,35253.1224,4641.8309,48565.8199,44044.9566,54705.1281,-3600.1503,-3480.0768,22102.2516
51713.8839,24381.8611,50848.2009,37817.1355,33524.2152,35250.8873,4642.3227,48574.0453,44046.2977,54704.4575,-3601.8044,-3480.1215,22099.9271
51730.8265,24389.5948,50850.2573,37821.9634,33542.8566,35258.2186,4644.4237,48601.5826,44055.9983,54714.0241,-3588.2592,-3466.8893,22103.0116
51747.1433,24396.0321,50852.8501,37828.8031,33550.8138,35263.7172,4649.3858,48620.4475,44062.5697,54717.9133,-3580.3914,-3457.0992,22107.7949
51745.0869,24388.6113,50851.6431,37826.3444,33539.1462,35254.6871,4647.4189,48607.3941,44051.7515,54713.4876,-3589.3321,-3466.2634,22103.2798
51726.535,24381.3694,50850.7937,37815.392,33517.018,35245.0758,4642.1438,48579.1862,44037.357,54707.8103,-3605.4254,-3478.691,22097.2449
51725.5962,24379.1789,50854.1912,37814.2744,33519.7449,35248.6074,4642.3674,48574.09,44049.6057,54711.0736,-3602.0726,-3474.8465,22100.7764
51751.1219,24384.9009,50852.5819,37823.6622,33543.393,35251.7366,4649.4305,48594.6536,44068.6047,54721.7578,-3583.7442,-3460.1837,22107.9737
51760.1073,24392.0535,50852.9395,37824.2433,33553.0043,35251.7366,4651.3528,48613.8761,44074.8185,54728.3292,-3577.888,-3453.8805,22108.8231
51738.5155,24389.3713,50850.4808,37810.6534,33539.2356,35244.9417,4641.4733,48593.7595,44063.4191,54723.9929,-3594.1154,-3468.3645,22098.4966
51719.9636,24382.5763,50845.6975,37801.6233,33521.6224,35238.2809,4634.3654,48572.1231,44055.149,54713.13,-3612.1309,-3483.1166,22088.93
51723.1375,24381.3694,50843.5965,37794.4708,33515.7663,35238.1468,4631.6385,48571.676,44052.7797,54713.5323,-3617.8529,-3484.5024,22086.4713
51754.4746,24395.3168,50848.5585,37816.8225,33548.7574,35249.3227,4637.8076,48602.5661,44071.6892,54723.5012,-3594.6965,-3467.6939,22094.8756
51759.0344,24401.933,50852.716,37825.6738,33569.7681,35257.9057,4643.5297,48625.052,44080.4958,54730.3855,-3585.2194,-3458.6638,22102.2516
51747.1433,24395.4062,50851.0172,37815.6602,33555.7759,35256.7881,4642.5909,48616.7818,44072.4045,54733.023,-3594.5177,-3466.0399,22099.7036
51733.464,24384.9903,50846.9939,37802.7409,33530.6078,35247.0428,4637.45,48597.4252,44061.6757,54727.9716,-3611.058,-3480.7473,22094.7862
51733.6875,24384.4539,50846.4575,37803.9032,33532.4407,35247.2216,4637.7629,48594.9665,44059.4405,54725.6023,-3607.6605,-3476.6346,22100.5082
51743.1647,24390.0418,50850.2126,37817.1355,33553.049,35255.76,4642.7697,48617.2289,44076.6066,54732.6207,-3586.9628,-3462.3295,22107.3478
51746.3386,24389.4607,50849.6314,37821.2929,33563.1073,35255.5364,4639.9087,48628.9412,44088.1401,54729.9385,-3582.1795,-3458.4403,22103.9057
51732.3911,24381.5035,50844.1329,37806.1384,33544.6447,35247.758,4636.0195,48617.6312,44079.9147,54725.5129,-3596.0376,-3466.0399,22097.9601
51708.7877,24370.7746,50836.578,37791.9227,33525.5116,35239.7561,4628.7775,48601.1356,44060.9157,54718.0921,-3613.1591,-3482.8037,22093.0874
51711.8275,24372.4734,50836.8462,37800.4164,33531.8148,35245.8358,4630.3421,48606.9024,44063.9555,54717.6898,-3607.8393,-3478.5569,22095.4567
51727.7867,24375.8708,50837.2933,37809.4018,33551.8867,35247.8474,4630.8786,48624.9179,44077.5007,54721.266,-3596.9317,-3466.621,22098.4071
51740.3036,24375.3791,50839.0814,37810.9217,33557.6981,35248.6521,4630.3868,48639.9829,44090.5988,54726.5857,-3591.3438,-3459.9155,22103.4586
51731.4523,24380.4753,50840.6907,37808.5524,33546.5223,35248.9203,4630.2974,48626.8401,44086.0838,54725.2893,-3600.0609,-3466.4422,22101.0447
51715.6273,24379.8941,50838.545,37800.9975,33526.1822,35244.137,4623.7707,48609.2269,44065.7884,54717.0192,-3616.78,-3481.1944,22092.6404
51720.947,24388.0749,50842.4342,37805.4678,33531.7254,35250.0826,4630.1186,48622.7721,44076.1596,54723.9035,-3612.4438,-3476.6793,22095.7696
51741.4212,24394.6016,50843.9988,37817.8954,33555.91,35261.8843,4636.9135,48648.7448,44087.7378,54728.7762,-3597.9152,-3459.8708,22100.7764
51754.6982,24398.9825,50846.7704,37825.7632,33564.6719,35266.3547,4638.3888,48663.9887,44090.5988,54728.6421,-3586.3817,-3452.2712,22103.5928
51740.2142,24392.2323,50839.6178,37818.2977,33551.5738,35256.2517,4629.4481,48643.1569,44081.1217,54720.5955,-3596.9317,-3467.4257,22097.4237
51722.2881,24390.3548,50840.3778,37812.0393,33530.2502,35252.6307,4633.6055,48622.7721,44076.5619,54719.2097,-3608.7781,-3476.4558,22098.8542
51730.0218,24396.1662,50845.7869,37822.9022,33543.4824,35267.3829,4642.6356,48633.5456,44087.6037,54725.0211,-3599.8374,-3466.0399,22107.7055
51750.6301,24400.6813,50850.1232,37834.2569,33566.46,35276.3236,4644.0661,48653.4834,44102.4899,54729.5362,-3584.6382,-3452.8077,22113.2487
51752.0607,24406.0457,50849.4973,37834.838,33572.6738,35272.5685,4643.3955,48666.358,44108.3014,54734.6771,-3579.7209,-3450.3937,22111.1923
51739.8566,24404.5705,50849.8102,37822.6787,33557.4746,35266.7123,4640.0428,48658.0878,44102.7582,54730.8773,-3592.6849,-3463.2683,22106.3644
51726.1773,24401.1283,50851.1513,37803.2774,33535.3464,35258.0398,4635.9748,48645.5709,44086.7543,54724.1718,-3609.2252,-3477.9757,22101.5811
51735.3863,24403.0058,50851.8219,37809.0441,33542.0519,35263.1807,4638.4782,48643.7827,44090.5541,54727.3457,-3607.1688,-3471.6278,22106.0961
51761.6719,24403.9893,50852.0901,37820.1753,33562.5261,35268.6793,4641.3839,48663.7652,44103.7416,54731.9949,-3594.3836,-3459.6026,22107.8843
51776.9605,24410.4713,50857.7228,37829.563,33573.6126,35275.2507,4643.0826,48681.9148,44112.7717,54741.5167,-3585.7111,-3450.1702,22108.9572
51761.7613,24408.3703,50857.8122,37816.4202,33565.7448,35277.1282,4641.2498,48669.0402,44108.0779,54739.4603,-3592.7743,-3458.3956,22106.722
51746.7856,24404.2575,50859.5556,37811.3687,33552.0655,35272.9708,4639.3722,48650.0412,44104.6804,54735.9288,-3600.6868,-3465.5482,22106.5879
51745.1316,24408.9067,50861.2096,37807.3901,33554.1666,35270.378,4637.4947,48644.6768,44099.5842,54735.3476,-3599.6139,-3461.5695,22108.7337
51771.7302,24415.4334,50859.2874,37819.3259,33579.5134,35279.3634,4641.9203,48667.6991,44115.9457,54741.2038,-3583.923,-3445.0293,22117.1826
51783.8448,24419.9932,50859.8685,37827.0149,33592.6563,35286.4712,4647.8659,48679.322,44120.9078,54742.4555,-3572.7024,-3438.1449,22121.0718
51769.0927,24420.7978,50860.0026,37824.4668,33576.2501,35281.2856,4648.1788,48667.7438,44114.7834,54742.7237,-3579.8997,-3447.488,22116.065
51753.5359,24414.8523,50863.3107,37818.7448,33554.256,35272.2108,4647.4636,48649.2813,44100.4336,54737.0911,-3596.2164,-3461.5695,22110.7006
51756.0393,24412.3042,50861.7461,37817.0907,33553.0043,35267.9193,4645.9883,48649.4154,44097.9749,54734.6324,-3598.1387,-3464.2071,22106.9008
51773.7418,24415.5228,50864.92,37825.7185,33577.01,35275.2954,4644.5131,48666.2239,44105.9321,54739.5945,-3584.4147,-3456.4286,22109.583
51789.1645,24417.6239,50865.5012,37835.9556,33585.459,35279.274,4642.4121,48673.5106,44109.1508,54742.232,-3579.855,-3452.9865,22111.9076
51781.3414,24410.516,50860.8073,37825.0927,33568.2482,35275.6977,4640.9369,48665.5086,44103.2946,54736.6887,-3590.5838,-3458.932,22108.9572
51767.4387,24406.2692,50863.6236,37812.531,33553.0043,35274.8036,4641.518,48651.1588,44090.1965,54734.0065,-3608.8675,-3471.2702,22107.6161
51761.2696,24406.7162,50865.7247,37811.9498,33549.5174,35275.7424,4642.0097,48665.2851,44096.3209,54736.9123,-3604.9336,-3467.5598,22109.7618
51782.9955,24415.8357,50870.9103,37823.1257,33575.803,35281.7327,4645.3178,48685.357,44114.7834,54749.2504,-3587.3204,-3448.5161,22116.065
51794.6184,24424.0165,50872.5196,37832.2899,33590.1529,35294.7861,4652.4256,48700.3326,44128.6415,54756.1347,-3573.9988,-3435.7756,22123.3964
51790.0139,24423.033,50876.99,37830.3677,33581.838,35292.998,4655.9125,48699.4386,44129.9379,54756.4924,-3579.4526,-3442.4365,22123.9775
51772.7584,24413.7347,50878.3311,37817.2696,33563.4202,35289.7346,4656.5831,48686.8322,44119.0302,54749.4739,-3597.5575,-3455.1769,22117.4061
51769.5397,24414.7182,50878.3311,37819.1024,33568.114,35292.1486,4656.136,48689.3803,44123.7688,54748.2222,-3596.6188,-3454.2829,22116.4227
51789.7904,24431.5267,50881.5944,37835.4639,33591.3599,35299.5694,4658.6841,48711.5532,44138.3421,54752.9608,-3576.7704,-3438.8155,22118.6578
51805.5707,24438.9921,50884.0531,37844.2705,33597.7972,35301.134,4662.0369,48725.9477,44141.2032,54756.8947,-3567.3827,-3432.1994,22120.133
51798.0605,24427.8163,50879.5828,37841.633,33585.8613,35301.8045,4657.7007,48713.2072,44134.3188,54752.6032,-3574.6247,-3443.3752,22115.1263
51777.9887,24420.3061,50877.0347,37832.9605,33567.667,35295.099,4655.242,48696.9352,44117.6891,54740.7568,-3588.8851,-3457.9039,22111.3712
51774.5912,24422.2283,50875.9171,37827.909,33568.3376,35296.2613,4652.1574,48689.8273,44118.0021,54737.4487,-3591.0755,-3457.5462,22108.4654
51798.0158,24432.0184,50878.9569,37846.1033,33595.8749,35303.3245,4658.9077,48709.0051,44132.2625,54741.2038,-3574.1329,-3443.3752,22111.4159
51802.1286,24431.482,50878.7334,37847.4444,33600.3006,35298.0942,4657.7007,48706.3676,44134.9,54742.5449,-3573.1047,-3441.9894,22115.0368
51792.0256,24426.7434,50875.8277,37827.6855,33583.6262,35288.617,4648.4917,48686.8769,44122.9194,54737.7169,-3595.3671,-3454.9534,22107.8396
51778.6592,24423.9271,50877.4817,37810.877,33557.3852,35279.8551,4643.7085,48676.3269,44112.3247,54732.129,-3611.9968,-3467.381,22101.7599
51778.5251,24420.7084,50880.7451,37812.6204,33557.564,35282.6267,4646.0778,48682.2277,44112.2353,54731.1902,-3610.7451,-3463.1342,22099.5247
51792.8749,24429.6938,50880.5215,37823.6622,33578.53,35288.3935,4646.8377,48701.0479,44118.4938,54734.99,-3600.8209,-3451.0195,22103.2351
51801.6368,24442.1214,50882.3097,37826.6573,33586.1295,35296.2166,4648.0894,48717.8117,44125.6464,54739.5945,-3593.4895,-3445.9233,22110.1642
51786.3929,24434.4771,50879.1804,37813.0227,33571.3774,35292.3274,4643.7532,48695.4153,44115.454,54736.2864,-3602.6984,-3460.7649,22106.1409
51776.8711,24426.5646,50877.6605,37803.2327,33554.3454,35283.9679,4640.9816,48667.3862,44107.765,54730.9667,-3617.8082,-3473.2819,22101.6705
51781.3414,24422.1389,50876.4088,37804.5738,33555.2841,35285.2196,4641.2945,48675.5222,44113.1741,54732.8442,-3612.0415,-3469.7056,22105.3362
51798.1052,24423.6588,50879.9851,37811.8157,33573.2102,35293.2662,4646.9718,48702.7913,44128.0603,54742.4555,-3600.2398,-3456.2051,22112.2205
51799.6252,24427.2351,50881.7732,37821.7399,33580.631,35296.7083,4651.7104,48709.6757,44139.2362,54749.7422,-3589.1533,-3449.0079,22117.2273
51792.9196,24427.3692,50885.573,37825.8079,33572.4056,35301.8045,4656.6725,48703.7748,44144.3771,54754.9278,-3587.4099,-3450.4384,22123.4411
51790.4609,24426.2964,50890.1328,37825.3609,33567.7117,35300.8658,4663.1992,48688.8438,44137.7163,54751.4409,-3595.1883,-3452.0924,22122.3235
51785.0965,24424.1059,50886.2436,37821.427,33573.0314,35296.8425,4659.2653,48693.1801,44127.658,54748.3116,-3595.4565,-3450.9301,22116.4227
51799.7593,24426.1622,50887.1377,37830.9935,33593.1927,35300.0611,4659.31,48714.6825,44145.3159,54755.0172,-3580.4808,-3435.8203,22121.4294
51808.1635,24429.4256,50886.3777,37831.3959,33592.1198,35299.3459,4660.2488,48723.5785,44145.45,54754.3466,-3583.5207,-3435.1945,22120.4013
51794.6631,24425.894,50881.4156,37823.3939,33577.5018,35292.8191,4657.2983,48712.5814,44135.6599,54748.2669,-3594.92,-3444.9846,22115.3051
51782.8614,24420.7531,50882.6226,37813.9168,33559.6204,35283.2526,4652.7833,48692.733,44133.1565,54747.9093,-3602.4302,-3455.7134,22110.6112
51780.4027,24415.9251,50885.0366,37817.4484,33564.4037,35281.4645,4650.7716,48690.4532,44128.7756,54746.3447,-3604.6207,-3460.4967,22108.5995
51792.6514,24427.5033,50881.3262,37826.8808,33580.5416,35280.1234,4646.5248,48706.6358,44133.1565,54750.0998,-3596.2611,-3454.1041,22105.9173
51795.1995,24431.169,50878.5099,37825.6738,33580.3181,35280.2575,4646.1672,48719.734,44135.3917,54750.0998,-3595.3224,-3453.8358,22103.0116
51784.6495,24429.6044,50877.5711,37819.5047,33563.9119,35282.7162,4649.0282,48715.6659,44131.6366,54747.4176,-3599.748,-3459.1109,22106.275
51763.4153,24423.2565,50877.5264,37804.3056,33543.9742,35282.0456,4644.4684,48701.0032,44125.7358,54745.3612,-3606.3194,-3468.3198,22105.4703
51770.8361,24424.8658,50878.9569,37811.9051,33548.981,35284.0126,4646.7036,48708.6475,44134.0506,54747.7752,-3600.7315,-3463.8941,22107.482
51798.6864,24435.9523,50888.3446,37828.4901,33577.6359,35290.8522,4652.6492,48739.8952,44140.3985,54755.6877,-3586.024,-3448.3373,22112.2652
51805.7942,24440.6909,50895.5866,37833.2287,33589.1247,35293.9367,4653.9009,48752.9486,44146.3441,54762.2144,-3572.9259,-3441.453,22117.2273
51791.9809,24434.6559,50891.7868,37826.7914,33572.2268,35287.1865,4652.8727,48737.213,44137.1351,54757.9676,-3583.6995,-3448.3373,22115.8862
51772.0878,24430.1409,50884.366,37818.8342,33549.6068,35280.5257,4647.9553,48711.732,44127.3004,54749.4292,-3598.3622,-3458.5297,22112.7123
51776.9158,24431.0349,50884.679,37818.3872,33557.0276,35281.9562,4646.4801,48708.871,44132.5307,54751.2621,-3596.2164,-3455.2217,22113.8299
51790.8633,24435.8629,50884.9919,37831.7088,33576.116,35284.2808,4651.8445,48733.9944,44139.728,54756.6265,-3585.8005,-3444.5822,22115.9309
51798.7311,24441.3614,50887.3612,37843.7787,33589.4823,35290.0922,4656.6725,48750.1323,44150.1886,54758.3252,-3572.9259,-3435.418,22119.3284
51787.5999,24437.7851,50887.6741,37839.5319,33578.1723,35291.2545,4656.4937,48743.7397,44139.415,54757.2076,-3581.2855,-3441.8106,22117.7638
51768.5115,24433.4489,50884.1872,37830.3677,33558.7263,35287.5888,4656.5384,48733.905,44136.3305,54759.3087,-3594.2048,-3455.5346,22112.8911
51769.0927,24428.3974,50881.6391,37823.5281,33549.4727,35286.4712,4654.3479,48731.6251,44138.1633,54757.4311,-3596.5741,-3458.3956,22108.2419
51783.7554,24432.6442,50877.9734,37834.9274,33572.6738,35291.5674,4654.7055,48754.0662,44147.4169,54759.5769,-3584.2359,-3445.8786,22112.3099
51791.3997,24434.2089,50874.8889,37847.7126,33587.9177,35298.3624,4653.9456,48760.0118,44147.7299,54757.8335,-3579.2738,-3440.3354,22114.3216
51778.2122,24427.9057,50875.0677,37836.8944,33566.2365,35289.9581,4648.447,48733.7708,44138.3421,54751.9326,-3592.7743,-3447.6221,22110.343
51765.6952,24421.9154,50871.9832,37830.323,33544.2871,35287.7229,4645.8542,48718.0352,44122.2489,54741.6508,-3604.1737,-3460.5861,22104.7997
51775.3959,24424.8211,50870.9997,37832.3346,33547.9528,35288.3041,4645.4072,48724.0255,44128.0156,54742.4555,-3600.0162,-3459.1109,22103.4139
51788.941,24430.3197,50871.5808,37838.6378,33568.9634,35286.7395,4641.8309,48738.42,44139.4597,54748.401,-3586.6499,-3448.8738,22108.2419
51793.1879,24426.7881,50869.0327,37844.6281,33580.9886,35285.9348,4641.2051,48747.0478,44138.3421,54751.0833,-3580.8831,-3449.0526,22109.7171
51792.1597,24424.687,50873.5478,37841.1412,33569.9022,35285.756,4642.7697,48736.4531,44138.1633,54753.1396,-3582.9395,-3452.003,22110.6559
51778.0334,24423.7483,50874.1736,37835.2851,33550.4562,35282.0009,4641.6968,48718.214,44124.7523,54742.0979,-3596.44,-3464.52,22106.2303
51780.8944,24420.0826,50873.2796,37832.0664,33554.9712,35287.2759,4641.3839,48724.7407,44126.3169,54740.9356,-3601.1785,-3459.6026,22107.1243
51800.7427,24426.2069,50875.5147,37843.0635,33582.2403,35298.72,4643.932,48750.2217,44139.9515,54745.9424,-3584.1018,-3445.8339,22111.4606
51808.4764,24432.1972,50878.9122,37846.595,33591.1363,35308.5548,4645.2731,48760.2353,44150.3227,54753.5866,-3580.6149,-3443.5987,22111.2818
51792.9643,24430.4091,50881.4156,37839.666,33573.3443,35305.8726,4646.8824,48749.8641,44150.1439,54753.0502,-3588.6168,-3452.45,22108.5548
51782.7719,24428.0398,50883.3379,37831.5747,33552.9596,35301.8045,4644.3343,48731.2227,44132.1284,54747.507,-3603.9054,-3464.3412,22107.2584
51789.9245,24427.3692,50884.679,37837.2073,33547.3716,35305.962,4641.965,48726.9312,44129.7591,54744.646,-3599.4798,-3458.7085,22108.5101
51819.2053,24435.997,50885.7518,37852.7194,33577.0547,35316.1097,4646.346,48751.8758,44144.2877,54752.8714,-3582.1348,-3438.8602,22117.4061
51817.4171,24433.9406,50882.5332,37846.8186,33586.8895,35311.3711,4646.5695,48764.3927,44145.7629,54753.1396,-3577.2622,-3434.1663,22117.7638
51806.733,24428.3974,50876.5429,37835.3745,33569.0975,35306.4984,4641.965,48750.8029,44127.211,54741.8743,-3589.1533,-3448.5608,22111.5053
51796.0936,24425.894,50877.7052,37825.3162,33549.6515,35301.1787,4640.4898,48720.2704,44118.4044,54735.6606,-3604.3078,-3458.038,22109.7618
51794.529,24421.6472,50878.8228,37825.8079,33552.9149,35297.8259,4641.8309,48719.0187,44115.6328,54734.9006,-3608.2864,-3457.9933,22108.4654
51801.5027,24422.3624,50877.2582,37830.9935,33571.8244,35298.6753,4640.0428,48736.2742,44127.8368,54741.1144,-3593.8025,-3448.3373,22111.5053
51803.3803,24433.6277,50880.0298,37836.9838,33584.252,35299.3906,4649.4752,48747.0925,44132.7542,54747.6858,-3578.0668,-3439.039,22116.5568
51786.5717,24423.9271,50877.2582,37822.2317,33573.7467,35286.7395,4647.3742,48727.8253,44112.9953,54743.7519,-3588.0804,-3451.3772,22112.2652
51760.8672,24415.9251,50874.9336,37805.3784,33551.3502,35272.4344,4638.6123,48695.8623,44094.488,54731.3243,-3607.7499,-3471.0914,22103.9057
51754.0723,24421.5131,50876.7217,37812.6651,33555.9994,35276.4577,4642.725,48694.1189,44096.902,54733.0678,-3605.7383,-3467.1128,22103.9951
51758.945,24426.0728,50873.4584,37822.4999,33569.4551,35280.1234,4646.5248,48698.8127,44101.9982,54736.1523,-3593.3554,-3451.7348,22106.1856
51759.9732,24426.6093,50869.301,37824.4221,33568.2034,35275.8765,4647.1953,48702.2102,44099.2266,54735.7053,-3590.405,-3448.7396,22110.1642
51745.6234,24430.4985,50871.7597,37824.4221,33553.8536,35271.4062,4647.6424,48686.3852,44090.0177,54729.5362,-3595.233,-3455.2217,22109.7171
51733.8216,24431.482,50875.3806,37819.8177,33540.1744,35268.4557,4650.861,48656.6573,44071.8681,54725.6023,-3607.3476,-3465.8164,22107.7055
51733.8216,24433.4936,50874.0395,37818.8789,33543.5271,35271.8532,4651.7551,48643.3804,44076.3384,54725.6023,-3607.4817,-3466.7104,22108.2866
51752.2395,24440.3332,50875.2465,37830.0995,33556.8041,35278.2011,4653.5879,48659.429,44082.284,54731.1455,-3592.1484,-3456.2051,22112.7123
51761.7613,24442.1661,50880.5215,37833.944,33564.3589,35281.2409,4658.1924,48661.7088,44083.8039,54731.9502,-3586.9181,-3450.8407,22116.065
51739.2308,24438.4557,50876.2747,37822.4105,33545.0023,35270.6015,4652.828,48643.1122,44068.3812,54725.4682,-3598.094,-3457.2333,22110.9241
51725.328,24433.4936,50877.5264,37813.5145,33526.0928,35265.4606,4652.6045,48624.292,44053.3161,54718.7626,-3613.472,-3466.0399,22109.0019
51721.8411,24431.5267,50877.2582,37812.978,33522.1589,35269.3945,4651.0845,48620.8051,44047.9517,54714.5158,-3613.8743,-3467.5151,22104.3974
51742.807,24440.9591,50877.7052,37828.356,33536.0616,35273.999,4651.8445,48634.0821,44052.2432,54718.0027,-3598.1387,-3456.6075,22105.9173
51750.8984,24445.0271,50877.9734,37836.045,33540.3979,35271.8532,4653.9009,48630.7293,44044.0625,54713.8453,-3591.5673,-3456.4734,22102.1175
51737.6214,24440.4227,50879.4039,37835.1063,33521.98,35269.6627,4655.5549,48611.1492,44041.7826,54712.7277,-3596.2611,-3465.1458,22101.7599
51724.7915,24434.5665,50877.3476,37823.7516,33500.9247,35268.9475,4652.6045,48593.2678,44033.4231,54707.4974,-3605.8724,-3475.6064,22100.3294
51729.8877,24431.7055,50874.7548,37823.5281,33495.0238,35266.9805,4649.207,48592.1502,44036.4182,54705.5751,-3603.5925,-3474.0865,22100.24
51744.6399,24431.482,50872.162,37838.8613,33510.4913,35271.4956,4649.3858,48606.9918,44041.3803,54705.0834,-3595.5459,-3461.5695,22101.447
51751.3901,24436.5782,50875.3806,37849.1879,33524.1258,35275.1613,4654.8843,48613.3844,44045.4036,54709.5984,-3584.8618,-3453.5229,22106.7667
51739.7672,24429.2468,50875.2912,37834.6145,33501.1929,35268.6346,4650.1905,48588.5292,44035.2112,54704.1446,-3596.0823,-3462.8659,22102.0281
51725.8644,24419.0991,50873.369,37815.9285,33479.8694,35258.9339,4647.0612,48565.4622,44017.1063,54694.5333,-3614.3661,-3477.2158,22095.6355
51727.2949,24413.5559,50874.2183,37819.773,33485.502,35255.0894,4646.5248,48562.9141,44016.4357,54697.3944,-3610.1639,-3474.8018,22096.2167
51736.6379,24413.6453,50872.6537,37826.9702,33504.5457,35250.8426,4645.6307,48569.7538,44024.7059,54698.8696,-3598.2728,-3464.7435,22098.5413
51739.6778,24419.5461,50873.6372,37831.5747,33508.3455,35245.0311,4644.2002,48573.33,44031.4114,54702.0882,-3594.5624,-3459.4685,22101.6258
51739.0966,24425.2235,50875.1571,37826.2997,33499.7177,35244.3606,4645.7648,48560.9025,44023.8565,54703.6976,-3595.9035,-3464.2518,22104.1292
51728.9937,24415.8804,50875.3359,37813.5145,33480.6293,35241.7231,4644.2449,48541.2329,44015.8099,54699.9425,-3611.4156,-3476.277,22101.447
51728.949,24417.5345,50876.2747,37810.0723,33483.848,35245.5229,4643.4402,48538.1484,44022.426,54699.4507,-3610.5216,-3475.3382,22106.3644
51752.5524,24430.5879,50881.4156,37822.3211,33504.1434,35257.7716,4649.8328,48559.8296,44034.4065,54707.6315,-3591.5673,-3460.9884,22113.3828
51758.8556,24424.1059,50876.5429,37827.7302,33510.4018,35255.6258,4647.7765,48570.2902,44037.8487,54709.5537,-3582.716,-3453.5676,22109.2254
51752.6865,24421.8707,50878.1075,37825.1374,33505.6186,35254.7765,4648.4023,48557.9967,44032.2161,54706.0668,-3585.9793,-3457.3227,22106.9008
51743.567,24417.6239,50877.6605,37817.2696,33487.7819,35253.4801,4647.1059,48545.2116,44024.4824,54698.4673,-3599.4798,-3471.1808,22103.0563
51752.1054,24420.3508,50877.884,37818.9236,33494.6662,35258.8445,4651.5316,48557.058,44027.7904,54702.8929,-3594.2495,-3466.3528,22108.3313
51766.3658,24436.3993,50878.4652,37829.8312,33522.6506,35262.8231,4655.242,48576.8616,44042.6767,54716.2145,-3577.9327,-3451.1089,22116.2885
51779.6427,24443.0602,50884.3213,37836.1344,33533.5582,35269.3945,4658.7288,48588.708,44046.8341,54724.44,-3573.2836,-3443.1964,22120.5354
51771.909,24440.4227,50884.9025,37834.3016,33523.0082,35268.9922,4657.0748,48581.4661,44042.4979,54718.5838,-3584.3253,-3454.1935,22115.2157
51750.2278,24432.8678,50884.8578,37816.1073,33506.2891,35263.7619,4651.9339,48566.6692,44030.6067,54711.7889,-3598.541,-3468.3645,22107.482
51755.5922,24440.6909,50891.8315,37817.6272,33510.5807,35264.7007,4658.5947,48576.7722,44042.4085,54719.165,-3590.4497,-3461.7484,22113.2487
51777.4969,24449.5422,50893.5302,37830.2336,33533.3347,35269.8416,4662.8863,48595.5924,44058.3229,54729.4021,-3576.5916,-3447.8456,22118.3449
51776.6923,24438.1875,50886.2436,37823.3492,33535.7934,35261.035,4654.2138,48591.6138,44053.6737,54725.2446,-3578.2903,-3453.0759,22110.0748
51761.4931,24428.2186,50882.0415,37813.6486,33514.4699,35250.4402,4653.275,48579.2309,44045.3589,54718.405,-3589.958,-3462.0613,22106.3197
51747.9032,24419.6355,50883.2037,37809.2676,33495.1133,35244.4947,4655.3761,48556.0745,44034.183,54717.1086,-3602.7431,-3470.7338,22106.3197
51741.1977,24414.0476,50880.7451,37808.8206,33501.0141,35244.7629,4652.6045,48553.437,44034.8089,54714.2029,-3600.4633,-3473.863,22100.5529
51760.3755,24426.2964,50886.0648,37826.4785,33523.947,35258.621,4658.0583,48580.7061,44046.9235,54720.7296,-3584.0571,-3454.6405,22106.3197
51772.669,24435.2371,50886.2883,37830.8147,33532.5301,35262.9125,4659.4441,48587.501,44052.1985,54721.4448,-3573.1941,-3445.6551,22110.0301
51760.6437,24427.0563,50881.4156,37826.7914,33525.1987,35265.4159,4659.5335,48581.0637,44044.733,54720.9084,-3578.6033,-3453.0759,22111.3265
51751.8818,24422.9883,50875.9618,37813.6933,33510.6701,35263.3595,4658.2818,48569.4408,44034.4512,54717.1533,-3592.6849,-3465.2799,22108.1525
51758.9897,24430.275,50874.7548,37816.1967,33511.6982,35263.0019,4657.2536,48569.7985,44036.8652,54716.4828,-3593.8025,-3460.899,22106.0961
51772.2666,24437.4722,50875.6489,37825.7632,33539.6379,35264.2536,4651.9339,48592.4184,44052.6009,54718.0027,-3582.3584,-3451.2877,22109.6724
51776.4241,24438.9474,50878.8675,37835.0616,33554.3901,35271.138,4655.3761,48602.6555,44063.732,54723.7694,-3573.9988,-3446.1021,22114.0087
51762.253,24440.1544,50876.3194,37834.2569,33536.0616,35270.1098,4656.4937,48595.8159,44056.5348,54719.3885,-3584.1018,-3453.4782,22114.2322
51748.4397,24434.4324,50874.3525,37823.9304,33519.4767,35262.5549,4652.2468,48576.504,44046.7,54711.8783,-3598.4069,-3469.6162,22108.3313
51752.0159,24427.4586,50872.609,37818.1636,33516.5709,35266.0418,4649.967,48578.8733,44039.5474,54709.7325,-3599.0328,-3473.8183,22106.8114
51779.2404,24435.6394,50876.4088,37832.2899,33541.8284,35274.893,4652.2021,48602.2979,44057.2053,54715.9016,-3583.6548,-3456.6075,22111.1029
51783.7107,24442.7919,50874.263,37839.5319,33548.981,35276.0106,4649.5646,48608.1541,44058.0994,54716.6616,-3580.1679,-3456.5628,22109.5383
51767.7069,24434.6559,50869.6139,37829.3395,33536.3299,35276.0553,4644.9602,48602.432,44050.6339,54709.6878,-3591.3438,-3468.4539,22103.548
51751.5242,24421.826,50865.5459,37813.9168,33514.9169,35274.2225,4639.1487,48582.6731,44042.0508,54703.8317,-3608.3758,-3478.4228,22099.3012
51755.1452,24425.894,50862.9978,37814.4979,33517.0627,35276.5471,4642.1438,48591.3903,44043.7049,54706.3798,-3603.3243,-3474.8912,22101.5364
51770.702,24429.068,50864.2942,37822.8575,33545.3153,35279.4081,4640.8921,48610.1657,44052.8691,54709.6878,-3590.3156,-3465.0117,22101.8493
51776.2005,24427.0116,50862.6401,37828.1772,33552.4678,35281.4645,4641.7862,48620.9393,44058.2335,54708.1679,-3587.231,-3460.5861,22102.2516
51763.6836,24413.9582,50862.1931,37821.7399,33536.2852,35272.5238,4637.9417,48612.0433,44050.0528,54700.4789,-3597.3787,-3472.209,22098.586
51754.6982,24413.8688,50862.8637,37817.6719,33519.7002,35269.618,4637.8076,48590.228,44045.6271,54697.0814,-3605.0677,-3481.8202,22095.8591
51765.874,24419.8143,50862.9531,37815.6602,33528.5515,35270.4674,4639.864,48600.778,44055.4619,54701.6859,-3603.2796,-3476.6346,22096.3061
51774.8594,24423.3012,50865.1435,37820.8905,33550.0538,35275.1166,4639.7299,48619.2852,44069.32,54706.2457,-3590.4497,-3466.8446,22099.3012
51769.8079,24418.1156,50863.4895,37822.5893,33551.7079,35273.1049,4638.8805,48619.9558,44066.9507,54707.095,-3587.4993,-3468.1857,22099.6141
51757.3804,24413.5112,50861.4331,37811.0111,33532.0383,35259.4703,4638.1205,48607.1259,44051.2151,54708.302,-3603.369,-3475.9641,22097.6472
51734.4028,24406.9844,50859.5556,37792.2356,33509.8654,35245.7464,4637.6735,48587.6352,44041.8273,54701.0154,-3621.6974,-3489.5092,22092.8639
51738.6496,24405.1069,50860.0473,37792.6826,33508.122,35245.6123,4638.8805,48577.8451,44051.8409,54705.1728,-3619.9093,-3487.4082,22094.8756
51755.0558,24412.7512,50860.0026,37801.6233,33529.7585,35251.1108,4640.5792,48607.26,44066.6825,54715.991,-3603.5031,-3472.4325,22098.2283
51763.5494,24419.7696,50860.2709,37806.4513,33541.8284,35252.6307,4643.0826,48626.7954,44069.767,54723.1883,-3598.0046,-3465.414,22099.48
51750.6748,24419.0097,50860.1815,37800.1034,33532.3513,35247.9368,4641.1157,48619.6429,44065.9672,54722.6965,-3607.884,-3472.209,22096.8425
51738.6496,24413.9135,50858.7956,37788.0335,33519.3872,35244.9417,4641.8756,48587.501,44057.25,54718.0027,-3621.0269,-3486.9164,22092.5063
51738.4708,24413.5112,50857.4992,37780.8809,33524.1258,35246.9534,4640.0875,48583.4777,44060.2005,54716.6169,-3618.7917,-3486.5141,22090.897
51753.5359,24417.1768,50858.6168,37789.1064,33540.3979,35249.4568,4641.6074,48606.4106,44073.9691,54719.5226,-3604.7548,-3473.6395,22095.8591
51758.2297,24419.9932,50860.7626,37796.6166,33546.0752,35248.2945,4642.0544,48619.5087,44074.1479,54721.4895,-3604.576,-3473.7289,22096.3061
51754.6088,24415.5228,50862.6848,37799.0752,33539.6379,35247.4004,4641.1604,48606.0977,44067.8447,54720.9084,-3605.0677,-3476.5452,22095.7696
51741.2871,24407.7891,50863.3554,37792.2356,33523.7682,35246.2828,4642.1438,48587.6352,44057.9206,54715.8569,-3619.1046,-3487.4976,22091.1652
51743.3882,24412.6171,50864.2048,37794.4708,33529.5349,35251.8708,4644.0661,48587.6799,44057.1159,54717.5556,-3615.886,-3481.3285,22091.9698
51757.6486,24413.6006,50859.645,37800.4611,33544.0636,35251.3343,4641.3839,48617.1842,44062.2568,54718.9862,-3604.8442,-3470.9573,22095.3673
51767.7963,24415.791,50863.3107,37806.3172,33545.7623,35252.6754,4641.965,48627.0189,44064.9837,54721.9366,-3596.887,-3469.6162,22096.0379
51751.8371,24411.9912,50861.0308,37802.5621,33528.8197,35251.4237,4642.3227,48603.9966,44059.4852,54718.1368,-3606.6324,-3481.1497,22091.5228
51734.2687,24404.2128,50857.3204,37794.292,33507.4961,35247.311,4639.8193,48578.6051,44049.4269,54711.163,-3625.0502,-3489.4198,22087.9465
51738.4708,24401.4412,50856.784,37797.9577,33515.3639,35246.864,4638.3888,48576.2805,44050.3657,54711.3419,-3622.8597,-3485.7988,22089.0641
51748.9314,24399.8319,50855.13,37802.428,33533.6924,35249.5015,4635.7065,48585.6235,44056.9371,54715.097,-3610.5663,-3476.8581,22091.5228
51756.1734,24398.312,50855.4876,37800.9975,33536.9557,35248.3839,4631.6832,48598.6322,44060.6922,54711.3866,-3609.7616,-3477.8863,22089.7347
51734.3134,24393.5287,50853.5206,37794.6496,33518.8955,35242.7065,4624.933,48589.6021,44049.0693,54703.474,-3624.2008,-3490.6268,22082.9844
51719.2483,24389.416,50854.2359,37790.8945,33500.8353,35242.9301,4623.726,48565.3728,44039.771,54698.5567,-3632.5604,-3497.8241,22081.8669
51722.2434,24390.7124,50857.231,37794.5602,33505.2162,35245.9252,4626.9894,48574.4476,44038.9216,54700.4789,-3624.782,-3492.4597,22085.3537
51739.4096,24390.1759,50852.716,37806.5407,33527.7468,35247.1322,4630.8339,48598.5875,44056.0877,54705.3069,-3610.2533,-3484.726,22088.8406
51745.4892,24391.07,50850.1679,37805.5125,33537.2686,35249.5015,4629.8951,48607.3494,44062.9274,54706.3351,-3604.5313,-3481.0156,22087.2313
51742.4494,24393.931,50852.403,37812.3075,33539.4144,35254.553,4634.6784,48594.296,44058.2335,54709.7325,-3604.4419,-3483.966,22087.9912
51728.6807,24394.2887,50851.2855,37805.2443,33520.9519,35250.172,4633.1137,48575.9676,44053.6737,54706.5139,-3617.5847,-3491.2974,22090.3158
51741.6447,24400.9942,50858.7062,37804.5291,33523.3212,35254.4188,4636.4665,48593.8489,44060.6922,54711.6995,-3613.6061,-3487.9446,22096.3061
51758.2297,24410.2478,50861.0755,37814.2297,33543.8848,35258.5763,4641.2051,48620.4475,44081.6581,54722.3836,-3593.7577,-3471.8066,22101.9387
51760.6884,24418.6968,50864.1154,37823.5281,33545.0917,35257.5481,4641.2498,48621.5651,44082.284,54725.6023,-3589.3321,-3468.0068,22100.0165
51749.8255,24412.9747,50865.0094,37813.5145,33526.3163,35246.6404,4634.0525,48600.4651,44067.8895,54716.9745,-3605.8277,-3482.8931,22091.9698
51734.0004,24404.3469,50865.4565,37800.1928,33510.0889,35244.1818,4633.8737,48583.1201,44057.8759,54710.0455,-3621.3845,-3492.2808,22089.8241
51733.4193,24398.0438,50860.9861,37797.9577,33517.7779,35245.8805,4637.1371,48589.021,44066.5931,54711.8336,-3620.5351,-3488.0787,22091.9251
51754.6535,24402.827,50857.2757,37803.9926,33540.1744,35248.6074,4634.9466,48614.2784,44083.491,54722.8754,-3604.3078,-3477.8863,22096.0379
51756.2628,24403.1847,50852.403,37806.0937,33546.0752,35247.0875,4633.5161,48617.2289,44087.2908,54724.9764,-3603.4137,-3478.8251,22096.3061
51737.3085,24398.8484,50850.5255,37801.7575,33527.7021,35247.4451,4632.4879,48599.3475,44077.3666,54721.6684,-3609.851,-3486.0671,22092.7298
51722.4669,24391.3829,50849.7208,37789.3299,33505.708,35243.9582,4629.4034,48584.9977,44061.2733,54717.0192,-3625.4972,-3501.6239,22087.9912
51730.0218,24392.6793,50851.1513,37788.0782,33514.2463,35248.4286,4632.2644,48594.8324,44059.1723,54714.8287,-3624.7373,-3497.1088,22089.0194
51750.496,24401.2177,50859.5556,37811.324,33547.3716,35257.1011,4639.4616,48614.949,44076.1149,54723.8588,-3603.2349,-3479.4062,22095.8591
51754.0723,24398.6249,50857.1416,37811.0111,33550.9926,35247.0875,4636.9135,48615.7537,44081.0323,54722.8307,-3600.4186,-3477.7075,22095.7249
51750.5854,24397.999,50855.4876,37805.8255,33539.8167,35248.8756,4638.1652,48607.5282,44082.0158,54724.5741,-3603.9501,-3479.4509,22096.7978
51730.4242,24391.6065,50851.2855,37792.7274,33516.258,35243.8241,4629.8951,48584.64,44070.3034,54717.7345,-3625.0502,-3492.9961,22090.5393
51729.0384,24388.7007,50853.0289,37789.1064,33519.2531,35243.6006,4627.3023,48580.4826,44071.0634,54717.1086,-3625.0055,-3493.2196,22087.3207
51750.2725,24389.6842,50851.5984,37796.0354,33536.7322,35241.6337,4627.5705,48608.0647,44080.7194,54726.1387,-3611.4603,-3483.7425,22089.4665
51757.7827,24390.3995,50851.5537,37804.9314,33548.5786,35241.6337,4627.2129,48627.6001,44084.8321,54730.4302,-3606.5429,-3478.4228,22090.0476
51743.2988,24384.0069,50850.9278,37800.2822,33542.3201,35240.2478,4628.1964,48613.7867,44076.249,54726.0493,-3615.4389,-3484.5024,22088.483
51731.4523,24383.4704,50853.2077,37794.7837,33521.98,35239.6667,4628.6434,48595.7712,44071.3316,54722.5177,-3626.9724,-3492.9961,22084.0573
51732.1676,24385.1244,50853.5653,37796.4824,33527.7915,35245.2099,4627.8834,48606.4553,44080.0935,54723.3671,-3624.1561,-3489.3751,22082.2245
51755.2793,24391.07,50852.8501,37811.3687,33552.5572,35251.1108,4629.7163,48633.948,44090.1071,54729.3574,-3607.884,-3477.2158,22085.4878
51763.0577,24396.3897,50853.7889,37811.8157,33557.5193,35244.7182,4628.9116,48646.152,44090.5541,54733.5595,-3602.3855,-3475.517,22084.0126
51746.8303,24397.9543,50851.2408,37799.2094,33538.9674,35240.2031,4626.4529,48635.4679,44084.5191,54728.8209,-3613.5614,-3485.5753,22078.1118
51723.8081,24391.9194,50846.234,37789.5087,33519.9684,35238.2362,4622.072,48621.431,44065.5202,54717.5109,-3631.1299,-3499.9251,22072.6132
51722.6011,24391.6959,50846.0999,37791.7886,33524.8411,35238.8173,4625.2012,48625.2755,44065.3414,54717.4215,-3630.0123,-3497.5111,22076.726
51741.5106,24397.6414,50848.335,37800.2822,33550.5903,35243.5112,4627.8834,48645.705,44086.4414,54728.2845,-3614.8578,-3485.62,22085.309
51758.7215,24404.4811,50852.2689,37806.0043,33562.6602,35247.9815,4630.1186,48654.8692,44098.5113,54730.8773,-3609.1357,-3480.792,22085.2643
51752.0159,24398.3567,50852.0454,37805.9149,33549.5174,35248.1604,4627.9728,48645.5262,44095.4268,54729.2233,-3618.3894,-3484.5024,22083.4315
51732.7935,24393.1711,50849.1844,37792.0568,33521.6671,35244.137,4623.1449,48628.7177,44076.4278,54721.5343,-3636.9413,-3497.6006,22077.62
51746.3833,24402.9164,50854.2359,37798.3153,33525.6457,35247.8474,4630.1186,48645.0344,44082.9098,54730.1173,-3631.1746,-3490.3139,22081.0622
51767.4387,24408.102,50857.4992,37814.5874,33551.1267,35258.7551,4632.3985,48669.979,44103.8311,54736.8228,-3612.4438,-3473.5501,22090.9417
51767.7963,24409.7114,50855.8005,37814.6768,33558.7263,35260.8114,4632.8008,48681.8254,44110.0001,54739.058,-3605.9618,-3471.9855,22091.8357
51755.5028,24414.0923,50856.6052,37808.0159,33541.4261,35256.2964,4635.1254,48672.3483,44106.3344,54737.8063,-3615.8413,-3480.792,22090.4052
51742.3153,24410.2925,50860.405,37800.2375,33522.3377,35252.6754,4631.415,48651.74,44096.1868,54735.6158,-3628.9394,-3494.963,22087.9018
51748.2609,24407.6103,50864.2495,37805.8255,33528.1044,35257.861,4634.0525,48658.1326,44100.076,54740.8909,-3620.7139,-3486.9164,22093.1321
51768.7798,24408.6385,50865.5459,37819.7283,33550.5903,35266.5335,4639.7299,48677.1315,44112.8165,54747.1941,-3601.7597,-3467.2916,22101.3129
51775.1724,24414.0923,50866.6635,37823.5281,33564.8954,35268.9475,4640.3557,48687.6369,44116.3927,54748.3116,-3593.9366,-3462.0166,22103.1457
51766.4552,24411.3207,50864.1601,37810.877,33554.9265,35266.8911,4636.4665,48671.5436,44109.2849,54740.9356,-3605.6489,-3467.9621,22096.9766
51751.8371,24404.2128,50869.0327,37801.8469,33537.4027,35263.2254,4639.1487,48657.6408,44114.9175,54739.818,-3614.0531,-3476.8581,22096.4402
51754.117,24399.5637,50867.8705,37802.2939,33542.5436,35259.828,4634.1419,48664.704,44113.7552,54737.2252,-3615.4836,-3476.2323,22094.1603
51767.0363,24401.62,50859.7344,37811.0558,33568.6505,35260.8114,4630.3421,48679.322,44124.7523,54738.3428,-3604.2631,-3470.4208,22094.1603
51765.7846,24406.5821,50856.4264,37810.9217,33569.321,35258.2186,4628.107,48686.9663,44123.5006,54739.1027,-3604.8442,-3469.8397,22092.9086
51752.8653,24401.7541,50857.3204,37807.5689,33549.2045,35254.1059,4622.8319,48670.1578,44108.212,54736.5546,-3614.3661,-3480.1215,22088.7512
51737.9791,24394.691,50853.5206,37793.532,33524.9752,35246.3722,4619.6133,48653.5281,44091.0906,54727.1222,-3632.471,-3496.7512,22078.4247
51745.8916,24393.2605,50853.2524,37796.393,33531.4572,35246.9534,4621.2673,48656.3891,44092.387,54729.0891,-3630.4146,-3495.1419,22080.3022
51763.6836,24392.5899,50853.6994,37809.357,33548.3998,35252.0049,4622.9213,48664.8381,44105.7533,54732.7548,-3618.7917,-3484.0554,22086.3372
51767.6622,24390.4889,50850.8384,37815.392,33557.4299,35252.8095,4620.8203,48675.9245,44115.6775,54736.0182,-3611.3709,-3480.3897,22086.9631
51749.9596,24389.6842,50851.1066,37813.6039,33546.4329,35252.8095,4619.3451,48673.1082,44112.5035,54733.2019,-3619.6858,-3489.7327,22084.7279
51731.6759,24379.2236,50849.9444,37799.6564,33519.0296,35246.864,4615.1429,48654.2881,44099.8971,54728.6868,-3637.8801,-3501.4898,22082.9844
51742.3153,24383.3363,50856.0687,37803.0092,33525.3328,35249.8144,4616.6629,48660.2336,44107.5414,54739.4603,-3632.3369,-3496.17,22086.7842
51761.6272,24386.555,50854.5935,37809.7594,33550.7691,35255.5811,4615.3665,48684.6417,44122.5171,54745.8977,-3617.0036,-3484.413,22088.7959
51761.6272,24380.6541,50850.3914,37808.6865,33548.0869,35249.9485,4612.5948,48681.9595,44127.9709,54746.6576,-3616.1989,-3481.9096,22089.2429
51747.3668,24372.9651,50847.4857,37800.8634,33524.7517,35243.7794,4609.5997,48668.2802,44119.969,54737.7616,-3625.8996,-3492.9514,22084.8173
51731.1394,24365.6784,50842.9706,37787.7653,33499.6283,35235.6881,4604.0565,48652.3211,44109.5978,54728.3292,-3638.0589,-3504.7978,22077.2177
51739.499,24371.6687,50849.4079,37796.4824,33509.2843,35245.9252,4607.0963,48656.6573,44116.1245,54733.9618,-3629.2523,-3496.5724,22080.3916
51756.1734,24378.0613,50853.2077,37809.3123,33533.1112,35256.654,4610.0914,48681.0654,44122.4724,54740.2203,-3617.8976,-3480.2556,22084.0126
51757.5145,24382.8893,50852.5819,37803.188,33538.1627,35257.6822,4609.555,48698.9915,44121.8466,54739.058,-3614.679,-3478.0204,22083.3421
51746.9645,24376.4073,50851.6431,37797.9577,33531.9936,35252.2731,4609.2868,48685.9381,44113.5764,54737.2699,-3622.7703,-3489.7774,22083.5209
51732.704,24376.452,50854.1465,37791.2968,33516.7944,35251.2002,4612.9525,48667.2521,44105.3063,54732.3972,-3631.7557,-3498.9864,22083.208
51730.3348,24379.76,50851.4196,37789.4193,33517.5991,35257.861,4614.5618,48670.2472,44108.0779,54733.5148,-3634.0356,-3496.6171,22081.6433
51752.4183,24384.3645,50858.3486,37805.5573,33544.7341,35268.5004,4620.865,48698.4998,44120.4607,54745.8977,-3616.1095,-3481.8649,22088.1701
51759.7944,24385.2586,50858.9745,37808.8206,33549.5174,35269.2604,4616.2158,48708.8263,44119.8349,54749.6527,-3614.3661,-3480.0321,22088.8406
51749.8255,24385.8844,50856.4711,37803.5009,33532.0383,35260.0068,4606.3364,48696.8905,44108.8825,54740.0415,-3623.5303,-3493.8455,22079.8999
51734.3581,24382.3528,50853.2077,37799.2988,33514.1569,35254.8212,4607.4092,48680.2161,44096.2315,54732.7995,-3636.2708,-3501.4451,22075.966
51740.0801,24386.9126,50854.7723,37808.5524,33525.3775,35263.0019,4614.4724,48695.6835,44114.3364,54742.0979,-3625.5419,-3487.3635,22086.2478
51751.256,24390.7124,50854.1465,37826.0761,33551.2608,35266.31,4619.3451,48713.7437,44130.4743,54744.7354,-3606.5429,-3472.4325,22091.1205
51755.0558,24387.4937,50850.6596,37825.7185,33560.738,35263.8066,4617.6463,48719.6892,44128.9544,54743.8413,-3605.6042,-3472.7454,22089.8241
51750.049,24383.2916,50847.7986,37818.2083,33547.5057,35256.9669,4616.6182,48705.3394,44125.4228,54733.2466,-3617.2718,-3482.4014,22082.6268
51736.8615,24373.1439,50849.3632,37806.2278,33522.9188,35252.1837,4612.9972,48680.976,44116.9739,54726.1834,-3627.2854,-3490.4033,22080.3916
51740.9742,24374.0827,50852.1795,37806.5854,33521.8459,35257.5481,4615.9923,48686.3852,44122.2489,54730.4749,-3623.3962,-3486.9611,22084.9067
51757.6486,24378.2401,50851.9113,37818.5213,33545.6729,35265.4159,4618.451,48715.8895,44134.587,54742.0532,-3609.4487,-3475.07,22089.377
51764.4435,24382.5316,50852.2242,37824.2433,33550.3221,35265.8182,4615.9029,48723.5785,44127.7027,54745.7188,-3605.2912,-3470.5102,22089.4665
51742.0471,24374.0827,50845.1164,37810.117,33529.5349,35255.3129,4611.6114,48702.389,44109.419,54736.1076,-3620.7139,-3482.0884,22083.8785
51721.1705,24371.2664,50844.3564,37802.5174,33512.3688,35246.3275,4608.5268,48679.5455,44102.9817,54732.5313,-3638.0142,-3496.8853,22076.6813
51721.707,24367.3325,50844.8929,37795.0519,33517.912,35244.45,4606.4705,48682.1383,44107.1838,54737.3593,-3640.0706,-3496.6618,22074.8484
51737.2638,24366.6619,50843.3729,37800.2375,33538.3415,35246.9534,4606.8281,48694.7447,44110.5366,54740.9356,-3625.0949,-3485.62,22077.2177
51753.1335,24371.9369,50852.4477,37821.2035,33555.6865,35260.3644,4614.2042,48711.2403,44123.59,54748.6693,-3610.3427,-3474.3994,22084.5491
51747.5903,24373.0098,50852.2689,37815.2579,33539.5038,35253.2566,4610.8514,48698.9915,44116.2586,54741.919,-3621.161,-3484.726,22082.1798
51737.3085,24372.6522,50850.9278,37809.8041,33519.9237,35251.826,4612.1925,48682.4512,44113.7552,54740.1309,-3627.2407,-3493.1749,22081.5539
51735.9674,24375.692,50852.1795,37809.8488,33522.7847,35252.1837,4609.2868,48686.4299,44118.0021,54739.5945,-3626.2125,-3492.9067,22079.587
51746.8303,24380.7435,50849.0503,37817.359,33544.5106,35255.5811,4608.2586,48705.0712,44130.2508,54740.3544,-3619.2387,-3483.8319,22080.5705
51756.0393,24385.5715,50850.9278,37821.3376,33550.9926,35260.1409,4611.4326,48720.9409,44131.4578,54745.093,-3608.9569,-3478.0651,22086.8289
51737.6214,24379.6259,50846.681,37806.9878,33528.0597,35250.7085,4609.9573,48701.8079,44122.8747,54739.1027,-3620.5798,-3490.7609,22081.8222
51722.6458,24365.1867,50840.959,37789.8216,33507.0044,35240.9184,4603.1177,48671.9906,44103.384,54727.3457,-3640.9199,-3507.4353,22073.0156
51729.5748,24365.0973,50840.1096,37795.1413,33514.1569,35245.7911,4605.0847,48683.8371,44112.9059,54730.4302,-3634.4826,-3503.7249,22077.3071
51748.7079,24374.2615,50839.3943,37804.1267,33533.9159,35251.8708,4605.3976,48699.2598,44130.7425,54738.8345,-3622.5021,-3491.0738,22080.034
51753.5359,24376.9437,50840.959,37805.3337,33536.4193,35250.5744,4604.28,48705.5182,44133.2459,54739.0133,-3617.093,-3492.3255,22077.6647
51742.6729,24372.8757,50842.5683,37802.8303,33524.7517,35250.3955,4604.3694,48701.4949,44126.0487,54741.6508,-3623.7091,-3497.2429,22076.7707
51721.6623,24361.6551,50844.3564,37781.5515,33499.8965,35244.3159,4599.8096,48682.1383,44113.2635,54739.3709,-3640.16,-3509.0894,22073.6414
51732.1229,24367.3325,50847.5751,37788.2123,33510.5807,35249.2779,4604.6376,48680.976,44112.4141,54735.9735,-3631.8898,-3501.2662,22078.38
51755.2793,24378.2401,50852.5819,37803.0092,33536.0169,35256.4305,4613.5336,48706.457,44129.4909,54745.0483,-3611.5944,-3484.9495,22086.3819
51756.5757,24380.2071,50854.817,37800.9975,33539.2803,35253.8824,4611.4773,48722.2373,44136.4646,54753.8549,-3611.1027,-3482.8037,22087.5442
51745.981,24374.7532,50855.13,37798.1812,33528.5962,35251.7366,4610.762,48712.3579,44127.9709,54749.2951,-3622.5915,-3486.4694,22087.9912
51720.1871,24376.7649,50852.4477,37790.4922,33500.12,35246.551,4611.209,48695.5494,44112.1906,54737.5828,-3634.2144,-3499.1205,22083.4315
51716.879,24376.452,50848.9162,37791.6992,33502.534,35245.2546,4615.1429,48699.7515,44113.3976,54734.1853,-3632.1133,-3496.9747,22083.0739
51737.2638,24379.8941,50851.7325,37803.7691,33530.3396,35254.1953,4619.5239,48725.1878,44132.1284,54741.6955,-3618.9258,-3481.5967,22089.6453
51748.6632,24384.5433,50852.8501,37807.9265,33534.2288,35259.5598,4620.0156,48737.1236,44137.4928,54740.6226,-3615.573,-3476.6346,22085.0408
51740.2142,24381.0117,50851.0172,37804.5291,33520.1472,35256.6093,4618.8086,48730.4628,44130.2508,54739.5498,-3625.8996,-3487.4082,22078.827
51725.015,24375.6026,50849.1844,37807.3454,33506.6468,35252.8989,4618.2722,48726.216,44117.3762,54733.783,-3636.0025,-3500.7745,22075.0719
51726.9373,24375.2897,50846.9939,37809.7147,33513.4417,35254.8212,4616.2158,48726.3948,44115.3646,54729.1338,-3636.4496,-3499.2546,22071.2274
51738.4708,24373.5909,50846.3234,37820.2647,33534.1394,35257.414,4616.2158,48741.4598,44136.8669,54734.7665,-3622.5021,-3486.2906,22072.9262
51741.6447,24372.9204,50843.6412,37820.8011,33540.8449,35252.0943,4616.037,48747.5395,44137.3587,54738.3428,-3618.0317,-3490.3586,22072.7026
51723.3163,24362.4151,50841.3166,37807.6583,33518.1355,35246.7746,4611.7902,48729.1217,44130.7425,54734.2747,-3631.1746,-3503.5014,22067.517
51711.1123,24357.9447,50843.4623,37802.2492,33499.4495,35243.8241,4610.8514,48706.8146,44108.5249,54726.1387,-3641.0987,-3511.4139,22066.8018
51713.3474,24353.9214,50838.3662,37798.0024,33501.1929,35242.3042,4607.4539,48706.2335,44105.9321,54721.7131,-3639.9812,-3506.6307,22067.517
51735.8333,24363.1303,50843.5965,37809.9829,33522.6506,35248.6074,4610.0914,48718.8846,44120.0137,54730.2961,-3621.161,-3489.4198,22074.5802
51748.4844,24372.6075,50847.7986,37820.3094,33529.5796,35254.6424,4612.9972,48730.8651,44122.383,54735.1688,-3618.1659,-3487.9446,22076.9048
51743.3435,24373.6356,50846.0552,37814.0956,33515.6322,35253.3013,4610.0914,48726.4842,44121.623,54732.5313,-3625.1843,-3497.1982,22077.5753
51736.0568,24371.3558,50847.3068,37809.4912,33503.9645,35251.2449,4608.3033,48717.007,44111.833,54725.9152,-3635.6002,-3506.4071,22075.6084
51741.5106,24377.8825,50848.6927,37810.564,33513.4417,35253.3013,4607.901,48720.4939,44117.8232,54726.094,-3632.471,-3498.4946,22076.5918
51752.5077,24381.4588,50848.5138,37814.8556,33528.3279,35256.0282,4606.6493,48732.698,44133.9612,54730.922,-3623.0385,-3487.7211,22080.3469
51748.9314,24380.2965,50846.5022,37813.7827,33529.0879,35261.3926,4601.3743,48731.4016,44133.9612,54728.4186,-3621.608,-3487.9893,22079.0058
51737.2638,24374.7532,50842.9259,37803.5903,33514.5593,35257.5034,4598.8262,48722.9526,44121.7571,54725.9152,-3629.0735,-3494.5607,22076.1001
51727.429,24368.5395,50843.1494,37790.671,33493.0122,35250.3955,4596.4122,48706.1888,44105.8427,54718.8073,-3639.847,-3501.6239,22072.6132
51736.9062,24365.8125,50844.3564,37793.1744,33489.3465,35254.1953,4596.8145,48706.9488,44104.5016,54717.5556,-3635.4661,-3499.4781,22073.7308
51747.2327,24364.3373,50842.7471,37795.4096,33502.3999,35254.1953,4592.6571,48722.9079,44108.7484,54721.2213,-3632.2474,-3494.516,22072.9262
51750.2725,24366.2149,50845.2952,37798.4047,33509.776,35255.4917,4591.0478,48737.9283,44110.4025,54720.1484,-3628.8947,-3496.6618,22070.5569
51737.7555,24366.7513,50847.9774,37794.9178,33500.3883,35252.7648,4597.3063,48734.5308,44105.2616,54723.9035,-3632.8733,-3497.9135,22075.1166
51720.2765,24362.6833,50848.2009,37790.2687,33483.6245,35250.4402,4603.2518,48706.8146,44094.0857,54718.9415,-3641.9928,-3502.5179,22075.6084
51715.1803,24356.3801,50841.1378,37782.4455,33488.9889,35244.8523,4599.7202,48696.667,44093.5493,54715.8569,-3641.9034,-3500.8192,22072.1662
51729.396,24366.349,50845.8763,37789.8663,33517.465,35247.8474,4602.8048,48718.1693,44108.1673,54720.3273,-3629.9676,-3485.3965,22080.3022
51738.1132,24373.5015,50849.1397,37800.0587,33531.5913,35255.0,4614.2042,48720.5386,44111.2071,54724.2612,-3617.54,-3471.9855,22086.9184
51725.2386,24377.2566,50848.9162,37796.0354,33518.7167,35251.1108,4615.2323,48700.735,44095.0245,54719.6567,-3620.7139,-3478.7357,22086.6948
51705.4796,24378.0166,50856.9628,37787.8994,33503.4728,35250.5744,4621.7144,48681.0654,44084.2509,54717.5109,-3629.297,-3488.7046,22087.723
51698.1483,24376.7202,50854.1912,37784.9489,33508.7478,35251.1108,4623.5919,48678.5173,44082.5969,54717.7792,-3626.6595,-3484.5471,22087.276
51718.0413,24393.3052,50853.1183,37805.1996,33544.8235,35258.4869,4631.8173,48690.2297,44089.973,54726.3622,-3604.7101,-3468.3645,22091.9251
51718.7119,24395.0933,50851.509,37805.0208,33547.6846,35253.6142,4631.3256,48685.6252,44082.5969,54725.7811,-3602.7431,-3461.7931,22093.9815
51707.8042,24393.037,50856.4711,37791.7439,33528.9538,35242.1701,4632.8455,48662.4688,44068.3812,54721.7578,-3618.7023,-3473.5948,22089.5112
51680.7139,24390.8465,50857.9463,37778.8246,33500.5224,35231.2177,4629.0457,48638.9548,44051.8856,54715.9463,-3638.64,-3496.3042,22078.7823
51677.4952,24390.5783,50855.0853,37777.4835,33497.5719,35231.8883,4623.726,48633.5456,44044.5989,54710.5819,-3641.1434,-3497.69,22077.173
51699.9811,24401.7541,50855.0406,37798.7623,33526.3163,35244.6735,4631.4597,48653.9751,44056.5348,54718.0921,-3615.886,-3474.6677,22088.8406
51710.7099,24409.5773,50854.37,37802.9644,33533.3347,35244.4947,4635.2148,48655.048,44061.1839,54722.2495,-3609.5381,-3471.9408,22087.9018
51699.1764,24406.1351,50853.3865,37798.2706,33514.4252,35241.1419,4636.7794,48636.809,44049.6057,54712.6383,-3620.1775,-3485.0389,22082.3139
51686.9724,24408.2808,50855.2641,37799.2094,33497.4825,35236.001,4638.9252,48606.4106,44039.1004,54705.5751,-3630.1017,-3494.963,22081.5539
51693.7673,24414.7629,50859.8685,37803.3221,33501.8635,35241.589,4643.0826,48608.9587,44037.044,54707.5868,-3624.8714,-3488.3916,22085.4878
51701.9928,24413.5112,50857.991,37813.6933,33520.8178,35246.9981,4641.965,48620.4475,44048.3987,54708.0785,-3609.091,-3475.07,22088.8406
51700.0705,24409.9349,50854.4594,37813.8721,33517.0627,35247.8027,4639.8193,48617.4524,44048.7564,54709.5537,-3606.4982,-3469.8397,22089.5112
51698.193,24413.9135,50857.3651,37814.5874,33500.3883,35246.4169,4640.5792,48610.9704,44031.7243,54706.4692,-3614.0978,-3477.6628,22090.897
51685.6313,24409.9349,50855.577,37814.8556,33479.7353,35244.6288,4638.7017,48588.8422,44010.7584,54697.5732,-3623.0832,-3489.2857,22084.4597
51688.3582,24412.483,50860.3603,37818.5213,33489.3912,35250.172,4641.1604,48597.4252,44019.4309,54702.6694,-3612.9355,-3484.1448,22090.3605
51702.4398,24419.9932,50861.3437,37829.1607,33514.6934,35254.8659,4641.9203,48618.257,44038.3852,54710.3137,-3595.9929,-3467.2916,22095.2779
51706.0161,24421.1107,50861.7461,37834.838,33513.8887,35252.6307,4639.3722,48618.3912,44041.3356,54707.3632,-3595.2777,-3463.76,22095.0544
51702.4845,24418.0709,50863.1319,37831.3959,33498.0637,35250.6638,4637.897,48598.3193,44023.0072,54704.3234,-3606.99,-3473.5054,22091.2993
51688.7605,24415.2993,50861.6567,37823.3045,33478.4389,35246.0593,4637.7182,48581.332,44009.9537,54698.9143,-3618.0764,-3486.0671,22089.2876
51692.3368,24417.5345,50861.1202,37826.4338,33483.0433,35244.0923,4636.4665,48580.3038,44021.7108,54699.5401,-3612.6673,-3481.4626,22092.4169
51702.3057,24420.3061,50862.0143,37831.4853,33496.812,35240.829,4634.7678,48592.7761,44028.5057,54704.0552,-3601.8938,-3473.5054,22093.5345
51704.1832,24409.9349,50858.6615,37825.2715,33497.7061,35234.3023,4630.0739,48591.6138,44024.8847,54703.6082,-3606.0959,-3474.8912,22090.8523
51699.3999,24409.3984,50860.4497,37830.9935,33489.0336,35235.1964,4630.2974,48582.8966,44026.7175,54702.6694,-3612.0862,-3482.8931,22093.5345
51688.0006,24404.2128,50858.6168,37819.773,33471.9121,35229.1614,4628.3305,48559.9637,44018.5368,54696.1874,-3624.8714,-3493.0408,22089.3323
51693.812,24398.2226,50855.2641,37814.9003,33477.9024,35232.5141,4628.107,48555.4934,44016.704,54691.3147,-3622.1892,-3489.5986,22088.8406
51708.5642,24402.2459,50857.5439,37824.5562,33499.6283,35241.0078,4630.5209,48568.6809,44030.2938,54699.0484,-3604.8889,-3477.5287,22092.9533
51712.7663,24396.345,50858.3486,37820.4882,33497.1696,35235.9563,4628.0622,48581.6002,44033.5572,54705.1281,-3603.1902,-3477.1711,22092.9533
51705.3008,24393.484,50853.5206,37813.5145,33480.1823,35229.9213,4626.6764,48570.0667,44022.3366,54703.6976,-3613.5167,-3486.2906,22091.6122
51702.8868,24393.037,50850.6149,37806.4513,33468.2018,35230.4578,4627.6152,48546.4633,44019.2968,54698.4673,-3625.2737,-3493.4878,22090.0476
51707.536,24390.1759,50851.7325,37796.8848,33466.3689,35227.1944,4626.5423,48550.263,44025.8682,54703.9211,-3627.4195,-3490.0904,22086.516
51719.9188,24392.6793,50854.0571,37805.1996,33480.0482,35229.8766,4624.9777,48564.6576,44036.8652,54705.6198,-3616.0648,-3478.6016,22088.1253
51723.4057,24396.5238,50854.8617,37810.7429,33487.1113,35231.8436,4625.38,48569.7538,44035.8371,54706.1563,-3611.9074,-3472.209,22092.3275
51715.4485,24394.8698,50852.3583,37805.602,33483.1774,35231.6201,4624.3966,48564.0317,44029.0421,54705.0387,-3616.7353,-3479.7639,22091.8357
51700.1599,24383.9622,50848.1562,37790.5816,33459.574,35224.7357,4616.3499,48540.5177,44016.3016,54696.9473,-3633.5886,-3494.7842,22083.6997
51702.3504,24381.5035,50842.4342,37784.9936,33457.4282,35222.277,4610.8067,48541.0094,44015.4523,54691.9405,-3631.0405,-3496.6171,22079.9446
51719.74,24381.2352,50840.646,37787.8994,33479.3776,35224.244,4611.8796,48565.1046,44033.3337,54698.8696,-3621.8315,-3486.4694,22081.4645
51722.4669,24378.553,50841.3166,37798.4047,33484.742,35223.3052,4612.729,48575.1182,44032.6184,54701.5518,-3620.1775,-3482.9825,22082.6268
51707.3125,24374.038,50837.6956,37793.4873,33472.091,35217.5385,4611.1196,48563.3612,44026.7622,54698.2884,-3628.0453,-3494.3372,22077.62
51692.158,24366.6619,50835.8181,37780.4339,33452.4661,35210.9671,4607.2751,48545.6139,44017.151,54691.3594,-3644.7197,-3508.6423,22068.3664
51696.4048,24358.8388,50835.1922,37780.9256,33454.1649,35209.626,4606.6046,48539.9812,44024.3483,54691.717,-3641.5011,-3505.6025,22065.1031
51709.5923,24366.4384,50835.5945,37787.9441,33476.606,35213.3363,4606.3811,48556.2086,44032.7525,54698.4673,-3628.1347,-3496.2147,22068.9476
51719.2483,24375.6473,50837.8744,37798.4941,33492.0734,35216.5997,4606.7834,48564.8364,44034.0936,54701.2389,-3623.4409,-3491.7891,22072.0321
51710.9334,24379.1789,50839.4837,37796.0354,33482.5069,35220.6677,4609.3762,48558.1756,44023.9012,54698.6014,-3631.7557,-3495.0078,22070.8698
51701.2328,24381.2352,50842.9259,37791.6992,33462.3903,35226.4345,4615.5453,48550.3525,44021.3978,54698.0202,-3636.9413,-3502.8309,22072.7473
51713.258,24386.8232,50848.6927,37795.946,33474.4602,35235.0622,4618.3616,48561.7071,44029.0868,54699.3613,-3628.3135,-3498.7628,22075.4296
51738.5155,24401.9777,50855.3982,37815.2132,33503.8304,35245.3887,4629.1798,48592.6867,44044.4201,54710.5819,-3605.0677,-3479.7192,22085.6667
51740.8401,24404.4363,50853.7441,37818.2083,33510.7595,35248.071,4632.3091,48601.4038,44053.182,54716.751,-3601.1338,-3475.2488,22086.6054
51728.9042,24405.5092,50855.3982,37815.392,33499.4942,35246.551,4632.5773,48597.7829,44051.7068,54716.0804,-3613.2038,-3483.1613,22080.6599
51717.9072,24405.0622,50858.9745,37807.4348,33486.3514,35246.4616,4631.7726,48586.1152,44042.8108,54714.1582,-3620.6245,-3487.9893,22083.655
51726.8926,24405.7328,50860.0026,37810.3405,33495.2474,35248.8756,4634.589,48589.2445,44041.3356,54717.5556,-3617.7188,-3481.5967,22091.6122
51744.1928,24410.7395,50855.4876,37821.9634,33515.8557,35254.6424,4634.589,48609.6293,44055.6854,54721.4895,-3605.1571,-3469.035,22093.5345
51745.1316,24412.7512,50852.8948,37832.3346,33514.2463,35258.8445,4631.5491,48615.4407,44058.2335,54721.4895,-3601.0444,-3467.6045,22091.5228
51743.4776,24413.7347,50856.784,37829.1607,33506.8256,35261.7055,4632.8008,48612.3115,44054.8807,54720.8637,-3600.9103,-3474.2653,22092.4616
51735.3863,24407.4762,50854.37,37811.3687,33486.3514,35252.0496,4621.7591,48597.7381,44047.2364,54713.7111,-3618.7917,-3490.6268,22088.5724
51742.0918,24403.5423,50854.1912,37814.7215,33494.8897,35255.8941,4620.8203,48606.5894,44057.5629,54712.5936,-3619.7305,-3485.9329,22087.6783
51751.9712,24405.7775,50850.0338,37817.2249,33508.9266,35255.447,4619.3451,48628.1365,44068.8282,54713.5323,-3608.5993,-3478.6463,22087.5889
51763.3706,24408.3703,50857.6781,37829.0713,33523.5447,35260.1409,4624.2625,48632.2939,44081.7922,54722.1601,-3596.9317,-3469.7056,22091.4781
51751.4795,24397.7308,50853.163,37815.9285,33507.7643,35252.3178,4623.6366,48621.878,44064.5814,54720.0143,-3609.7616,-3482.4908,22087.2313
51731.81,24386.5997,50852.3583,37801.7575,33488.8548,35245.2546,4625.0671,48606.7235,44055.7748,54719.0309,-3622.7703,-3492.862,22088.0359
51734.7157,24389.6842,50851.8219,37808.1053,33496.812,35243.9135,4622.2955,48610.8363,44058.6805,54723.9482,-3620.1328,-3488.481,22090.5393
51757.6933,24400.9048,50855.8452,37824.2433,33523.7235,35251.6472,4625.0671,48632.8304,44074.6397,54732.4419,-3603.5925,-3473.5501,22096.0826
51760.4202,24406.4927,50856.4264,37824.9139,33531.1443,35251.1555,4630.0739,48636.362,44081.4793,54733.6042,-3595.4565,-3469.0797,22096.9319
51745.8022,24405.7328,50859.8238,37812.7992,33519.7896,35245.5229,4631.1021,48623.9344,44071.734,54731.8161,-3606.8112,-3477.4393,22093.0427
51729.3513,24395.138,50855.0853,37806.2278,33503.1599,35239.6667,4626.587,48602.4767,44060.4687,54725.9599,-3625.4972,-3490.2245,22085.7114
51731.4523,24393.5287,50854.5935,37807.0325,33503.9645,35240.4714,4630.1633,48606.5447,44064.6261,54729.1785,-3619.8646,-3485.3518,22087.4548
51750.0043,24400.1001,50854.2359,37813.5592,33524.9752,35247.311,4635.8407,48632.8751,44078.9312,54736.8675,-3600.6421,-3472.209,22096.8872
51756.3969,24399.0719,50854.0571,37826.3444,33537.358,35251.5578,4638.4335,48635.5573,44083.5804,54740.8909,-3591.0755,-3467.0234,22101.0
51748.2162,24398.8484,50857.3651,37819.0577,33530.1161,35247.5345,4638.5229,48621.0734,44081.8369,54742.1426,-3601.402,-3473.2819,22098.0048
51736.9509,24395.5404,50859.645,37804.6632,33513.2182,35245.7017,4639.2381,48603.0579,44074.595,54739.6839,-3612.3991,-3481.7755,22095.7249
51735.4757,24393.6628,50856.1581,37802.6515,33516.3474,35242.7959,4639.3275,48612.9373,44078.9312,54742.5449,-3608.7334,-3480.0321,22096.1273
51748.2609,24393.484,50855.3088,37810.4299,33530.1608,35246.2381,4639.8193,48633.1433,44097.8408,54747.6411,-3598.3175,-3467.0681,22099.5247
51757.1568,24394.7357,50856.9628,37826.2103,33541.292,35250.172,4644.1108,48638.9995,44104.2781,54748.6246,-3592.3719,-3460.5414,22101.4917
51746.3386,24393.1711,50860.405,37821.7399,33530.3396,35250.4849,4644.379,48632.9198,44099.2266,54751.4409,-3605.4254,-3467.0234,22099.1671
51721.8411,24393.1264,50852.1348,37804.9314,33507.3173,35243.7347,4637.2265,48620.0899,44084.9662,54741.7402,-3620.401,-3479.0933,22092.2381
51721.6623,24392.8134,50846.0104,37798.4047,33504.9927,35238.4597,4633.5161,48624.3367,44087.9613,54736.3311,-3619.8199,-3478.1992,22090.0029
51727.6078,24388.5666,50840.646,37805.9149,33523.5,35238.1021,4628.0622,48633.6797,44091.7164,54732.7995,-3613.6955,-3473.7736,22083.8338
51728.5913,24388.3878,50842.4789,37806.496,33536.7322,35236.2245,4629.5822,48638.1948,44087.8719,54737.6722,-3611.4156,-3473.6842,22083.8785
51720.0083,24385.035,50845.5634,37800.1481,33521.3989,35237.655,4629.5375,48630.1482,44087.9613,54735.437,-3621.9656,-3482.2226,22084.1467
51695.019,24377.9272,50840.6013,37782.535,33491.7605,35226.8368,4619.8368,48615.1725,44076.6513,54728.9997,-3644.0939,-3498.9864,22074.759
51698.1483,24379.9388,50836.8015,37783.1161,33494.398,35226.9709,4618.004,48620.7157,44077.5454,54726.1834,-3639.4447,-3495.4548,22073.6414
51727.7867,24389.4607,50841.4507,37804.1267,33523.7235,35240.069,4623.1002,48647.7613,44090.0624,54732.6654,-3611.1027,-3476.3664,22083.7444
51734.1793,24387.9855,50839.9308,37806.5407,33532.2618,35241.0078,4625.6036,48647.4037,44086.7543,54732.9783,-3606.5429,-3475.2041,22081.1069
51720.6341,24386.1079,50843.6412,37797.6,33520.6389,35237.6103,4628.1964,48626.5719,44082.1946,54729.8938,-3615.126,-3484.3236,22078.7823
51705.2114,24382.4422,50841.853,37794.9178,33503.5175,35236.4033,4629.4481,48607.707,44068.5153,54725.0211,-3624.4243,-3493.9796,22078.0671
51708.4301,24382.2187,50838.7685,37802.0704,33510.0442,35239.7114,4628.5987,48623.3085,44069.007,54723.5012,-3620.4457,-3488.7493,22082.2245
51731.0053,24383.0234,50839.439,37814.7662,33539.1015,35248.6968,4630.7445,48647.1802,44078.4395,54730.2067,-3602.2067,-3472.209,22083.8338
51747.7691,24387.9408,50842.3448,37819.9965,33554.3454,35251.7366,4637.2265,48662.2006,44085.4132,54736.1076,-3595.3671,-3463.8494,22090.0476
51739.0519,24383.0234,50839.7073,37813.0227,33536.1958,35246.0593,4632.8455,48647.1355,44074.9526,54731.1455,-3612.8908,-3475.6064,22085.5772
51717.639,24375.8261,50838.232,37801.7575,33505.5292,35238.1021,4626.14,48626.8848,44061.7651,54721.9366,-3626.3019,-3489.9116,22080.1234
51716.6555,24373.7251,50841.9424,37796.9295,33508.6137,35233.8105,4622.0273,48628.4494,44066.6378,54721.4895,-3626.436,-3488.9281,22078.2012
51738.3814,24386.3761,50844.5352,37807.7924,33532.7089,35243.2877,4624.8883,48645.7944,44082.2393,54726.3622,-3609.5381,-3478.0204,22081.6433
51740.8848,24391.517,50841.6295,37805.2443,33539.1462,35249.9932,4626.9894,48653.2152,44087.9613,54732.6654,-3606.7218,-3476.1429,22081.4198
51718.533,24375.6473,50839.1708,37793.1744,33519.1637,35243.5112,4623.0555,48635.8702,44081.9263,54729.9832,-3623.3515,-3490.4927,22077.8435
51705.569,24374.5297,50839.3496,37785.1278,33507.2279,35234.6599,4620.8203,48619.5534,44071.5551,54726.7199,-3632.5604,-3501.1321,22076.7707
51721.2152,24376.7649,50839.8861,37792.7274,33518.0908,35233.6317,4619.7921,48628.4047,44071.3763,54727.9269,-3628.2688,-3495.5442,22078.3353
51739.5884,24376.1837,50837.8297,37800.5505,33533.0665,35233.9894,4618.1381,48642.7099,44083.5804,54730.8773,-3618.2553,-3484.726,22080.7046
51738.5155,24376.8543,50835.2816,37800.4164,33532.2618,35231.0389,4615.6794,48644.9003,44091.3141,54729.6256,-3618.4788,-3482.1332,22078.7823
51729.6642,24378.1507,50838.992,37799.2988,33527.568,35231.486,4620.8203,48631.4446,44085.5026,54728.3739,-3622.5021,-3490.7609,22076.1895
51714.3756,24374.3062,50839.752,37788.4805,33512.9946,35224.4228,4621.4014,48619.9111,44079.11,54725.2446,-3633.4544,-3500.3722,22074.6249
51716.1638,24374.4403,50838.9473,37791.8333,33512.8158,35223.3052,4618.0934,48626.6166,44078.8418,54726.8093,-3630.951,-3493.6219,22075.1613
51731.81,24386.4655,50839.1261,37806.6301,33538.1627,35230.4578,4616.6182,48651.3376,44090.7329,54735.8841,-3614.2319,-3481.8202,22079.1847
51736.0568,24381.5929,50837.2039,37811.4581,33539.7273,35233.7211,4614.0701,48664.5699,44100.3442,54740.8015,-3612.4438,-3481.552,22079.1847
51732.1676,24375.8708,50835.2816,37803.4562,33529.5796,35233.5423,4616.6629,48646.2861,44095.2927,54737.7616,-3622.2786,-3490.001,22077.4412
51726.535,24373.278,50833.0017,37792.2803,33510.1336,35232.5588,4616.5735,48621.6098,44085.8603,54731.8608,-3630.2358,-3501.5792,22074.9825
51730.4242,24373.1886,50836.7121,37792.1462,33515.051,35236.8057,4620.7309,48627.9577,44087.5143,54731.5478,-3626.436,-3496.9747,22077.8435
51737.2191,24372.6969,50838.4109,37800.9528,33536.7769,35245.4334,4617.3781,48642.2628,44102.6241,54736.2417,-3615.7966,-3485.2177,22080.6599
51736.8615,24377.1672,50838.1873,37808.1948,33542.2754,35244.7182,4618.6745,48652.9917,44116.3927,54742.1426,-3607.2135,-3480.1662,22085.7114
51722.1987,24370.8193,50838.7238,37805.4231,33529.222,35235.8669,4619.7474,48641.3687,44107.7203,54739.5945,-3617.0036,-3485.3518,22083.655
51709.9947,24364.6502,50839.8414,37798.5388,33515.5427,35232.2906,4618.5851,48635.0656,44101.283,54737.3593,-3628.0453,-3492.5491,22081.2857
51715.7614,24370.6852,50841.3166,37801.3551,33527.0315,35234.5258,4618.451,48639.7594,44102.4452,54738.8345,-3623.3962,-3488.9281,22081.6433
51731.4523,24372.6075,50838.1426,37806.0043,33546.1646,35237.5656,4619.6133,48658.222,44110.3131,54741.025,-3611.4603,-3476.5899,22082.4033
51742.8964,24373.8592,50839.2155,37811.1452,33553.943,35241.7231,4622.9661,48670.7836,44116.7057,54741.3826,-3606.8559,-3476.8134,22086.2478
51733.4193,24374.5297,50840.5566,37801.8022,33540.7555,35239.8902,4619.3451,48655.4503,44103.2946,54737.4487,-3620.5798,-3489.1963,22081.7775
51705.3008,24368.6736,50835.8181,37785.5301,33513.6652,35226.3898,4612.1925,48636.7643,44090.867,54730.3408,-3635.332,-3499.6122,22076.5471
51705.6584,24370.6852,50836.0863,37788.2123,33517.4203,35229.2955,4610.4491,48653.394,44097.1255,54731.5031,-3629.5205,-3496.7065,22076.0107
51730.3795,24373.6804,50838.0979,37801.6233,33539.2356,35237.4762,4610.2703,48678.2044,44106.8709,54738.9239,-3618.4788,-3490.5374,22077.7094
51722.7352,24370.1488,50832.5994,37803.7691,33543.8401,35233.1847,4607.7222,48677.2209,44106.5133,54738.5216,-3620.5798,-3490.7609,22075.4743
51709.5923,24367.4219,50835.5498,37799.0752,33536.0616,35234.8834,4613.8912,48671.6777,44107.765,54738.2087,-3624.6926,-3491.1633,22079.4082
51697.3883,24365.9467,50835.8181,37785.9324,33515.6769,35233.9,4607.8563,48653.5281,44094.6668,54729.0444,-3635.332,-3501.0427,22069.3946
51712.0063,24370.8193,50838.8579,37788.5699,33521.2201,35239.2644,4606.9622,48658.4008,44095.1139,54732.3078,-3634.7508,-3497.4664,22072.9262
51726.3561,24376.6755,50847.7092,37798.5388,33541.6943,35244.9417,4612.8631,48683.8371,44113.5764,54746.8364,-3620.401,-3481.0156,22082.4033
51734.8498,24383.3363,50855.5323,37806.4513,33558.4134,35254.1953,4618.004,48696.9799,44122.0701,54753.4078,-3611.4156,-3473.8183,22083.655
51732.0782,24383.828,50859.0192,37806.4513,33547.2822,35260.4091,4622.2955,48695.0129,44123.9923,54749.5186,-3612.265,-3475.7406,22082.8503
51721.3941,24380.3859,50857.231,37797.153,33527.3445,35250.6638,4622.3849,48689.3803,44118.8514,54745.2718,-3624.2455,-3487.9446,22081.8669
51725.1045,24383.828,50856.6052,37803.0092,33534.9441,35253.6589,4624.5307,48699.7962,44123.8582,54749.161,-3619.0599,-3481.5967,22084.3703
51746.2045,24395.6298,50858.2592,37813.6039,33555.8206,35263.0913,4629.0904,48716.56,44137.2246,54755.0172,-3602.922,-3465.4588,22089.4665
51747.0986,24397.4179,50855.0853,37816.3308,33560.2462,35262.1526,4627.7046,48717.5435,44142.7231,54756.2242,-3604.6654,-3466.174,22088.4383
51734.6263,24389.0136,50853.2077,37808.1053,33547.461,35252.9883,4622.3849,48703.3725,44134.3188,54752.8714,-3618.6129,-3477.3499,22084.3256
51728.1443,24382.9787,50853.3418,37798.5835,33525.1987,35246.6404,4619.211,48686.6087,44126.5851,54747.8199,-3631.5769,-3487.2293,22079.2294
51730.1112,24384.7221,50854.7723,37807.9265,33530.6972,35251.5131,4621.8932,48698.0975,44130.519,54751.9773,-3626.7489,-3484.6812,22083.2527
51746.3386,24388.8348,50857.3204,37822.5893,33557.0276,35260.0068,4625.1565,48716.6941,44138.6998,54757.7888,-3605.6042,-3471.2702,22089.377
51750.2278,24390.2653,50857.8569,37819.773,33565.2083,35260.6773,4625.4247,48727.6465,44137.8057,54756.5371,-3604.129,-3470.9573,22089.0194
51740.6166,24389.7289,50856.2028,37813.3357,33555.3735,35261.3032,4627.8834,48721.835,44132.3966,54756.3136,-3615.9307,-3481.1944,22087.3654
51729.8877,24385.035,50858.885,37809.2229,33537.7157,35262.2867,4625.2906,48703.9536,44132.0837,54749.8316,-3625.1396,-3488.8387,22085.0855
51741.7789,24378.6424,50860.6285,37806.8984,33534.7205,35254.5083,4620.6862,48705.25,44129.625,54749.3845,-3630.8616,-3487.9446,22086.2478
51761.806,24388.1196,50864.7859,37827.2831,33555.5524,35263.8513,4627.0788,48729.7028,44145.5394,54760.2922,-3611.3262,-3471.7619,22095.9932
51764.1306,24389.5948,50864.8753,37827.7302,33560.6486,35264.7901,4627.3917,48736.9448,44147.6405,54763.9132,-3606.0512,-3466.0399,22094.2944
51759.5708,24387.449,50865.0988,37819.9518,33544.9576,35258.4869,4624.6201,48725.5901,44140.5773,54758.817,-3616.0648,-3475.1147,22089.4665
51745.6681,24377.8378,50865.0094,37811.8157,33527.5233,35252.4966,4619.211,48712.5367,44136.6434,54758.7276,-3628.09,-3485.3965,22090.1817
51745.1316,24378.3742,50865.7247,37814.5874,33534.5417,35254.553,4619.3451,48716.113,44137.2246,54760.3816,-3622.9938,-3482.4461,22091.1652
51757.1121,24379.6706,50865.0988,37822.6787,33549.8303,35260.0515,4622.6084,48736.0507,44147.5511,54764.6731,-3611.1027,-3469.035,22095.8591
51769.048,24386.8232,50868.7645,37826.0761,33559.8439,35264.7007,4624.9777,48749.73,44151.5297,54771.0657,-3606.4088,-3460.139,22099.8824
51763.1918,24385.035,50868.3622,37817.3143,33547.6846,35262.1078,4624.7989,48736.1401,44144.1536,54762.125,-3617.7635,-3471.0914,22094.1603
51744.1034,24377.3013,50866.0376,37799.7011,33523.3659,35251.0661,4621.4908,48716.4259,44140.0409,54755.9112,-3634.572,-3485.8435,22085.5772
51754.6088,24388.4325,50873.8607,37811.4581,33539.0121,35262.5996,4626.0059,48729.077,44149.5627,54764.2708,-3621.8762,-3475.1147,22090.9417
51775.9323,24398.4908,50882.6673,37829.6524,33565.6554,35274.2672,4638.344,48745.2149,44162.9291,54776.8325,-3596.5294,-3457.1439,22101.1341
51777.9887,24399.8766,50882.9355,37835.5533,33564.9401,35271.7638,4638.7464,48758.2237,44165.1642,54774.7761,-3591.2991,-3456.5628,22100.1506
51767.0363,24401.4859,50879.851,37826.0761,33550.0985,35268.0534,4631.9962,48753.351,44156.2235,54770.3058,-3606.8559,-3467.6939,22095.2779
51749.8702,24394.1098,50880.4321,37817.0013,33534.1841,35264.5665,4630.6551,48732.9662,44145.2712,54765.6119,-3618.2553,-3478.9145,22095.3226
51751.5242,24390.0418,50878.3758,37818.0742,33546.254,35268.0534,4631.2362,48735.3355,44148.311,54770.3058,-3615.6178,-3474.8912,22097.6472
51773.2054,24397.0603,50881.3262,37831.6194,33573.2549,35273.3284,4632.3985,48754.1556,44172.8979,54783.6274,-3599.1222,-3457.8592,22100.7317
51781.2967,24400.0107,50884.0978,37832.5135,33573.1208,35278.2458,4638.0311,48758.8942,44178.7541,54784.4768,-3594.2048,-3451.5113,22104.3527
51769.5844,24399.2954,50884.0084,37829.0713,33554.256,35276.1,4638.7017,48752.4122,44162.9291,54778.6653,-3607.2135,-3457.8592,22101.447
51750.1831,24396.1215,50880.8345,37817.3143,33529.5796,35271.2721,4635.2595,48741.9516,44146.5229,54771.9151,-3620.8481,-3467.9621,22097.0213
51751.2113,24397.7755,50877.1688,37816.3308,33537.4475,35268.6346,4633.6502,48747.6289,44148.1322,54772.4515,-3615.573,-3464.2518,22097.2896
51766.1422,24401.0389,50876.4535,37825.8526,33553.5854,35271.8532,4633.6502,48765.2421,44160.7386,54772.675,-3606.7218,-3458.7979,22097.3343
51767.0363,24400.0554,50874.0842,37827.0149,33563.152,35271.6744,4630.8786,48764.0798,44161.9456,54770.3505,-3605.8724,-3458.1721,22093.758
51752.463,24392.0088,50871.7149,37818.0742,33547.1034,35265.7735,4627.3917,48749.8641,44149.8756,54769.0541,-3613.5614,-3468.141,22089.0194
51736.8615,24384.3198,50865.7694,37805.0208,33525.8245,35254.5083,4622.3849,48727.6018,44134.9447,54761.9462,-3628.5371,-3480.3003,22079.8552
51738.8284,24378.1954,50860.6732,37796.3036,33526.0034,35251.826,4619.3898,48727.9594,44134.4529,54758.3699,-3628.4477,-3480.6579,22081.2857
51742.0024,24378.5977,50855.3982,37800.9081,33534.8994,35245.9699,4615.4559,48745.6173,44139.3703,54757.7441,-3619.9093,-3476.5005,22080.8387
51745.8022,24376.0943,50852.4925,37808.463,33539.2803,35245.0311,4613.0866,48743.1586,44141.829,54757.2523,-3616.4224,-3478.6016,22079.4976
51732.6593,24370.2829,50849.3185,37796.2142,33519.5214,35236.8951,4607.7222,48728.4511,44133.4695,54748.8481,-3632.5157,-3492.102,22074.5802
51721.6623,24360.8952,50846.5916,37787.5865,33500.8353,35233.0953,4601.5084,48718.1693,44122.7406,54741.025,-3649.3242,-3503.2779,22069.6181
51736.2803,24366.8854,50850.2573,37787.8547,33509.016,35238.1915,4601.0166,48725.7242,44127.4345,54746.0318,-3646.4185,-3496.4383,22073.8202
51747.0092,24378.7766,50854.37,37801.1763,33530.5631,35245.5229,4603.3412,48749.4171,44144.5559,54757.0288,-3630.2805,-3481.8202,22080.5258
51760.9566,24385.1691,50856.024,37812.0393,33542.0966,35254.9106,4609.7338,48759.2965,44151.9767,54765.2096,-3617.9423,-3471.7172,22086.1137
51747.9926,24379.5365,50859.9579,37801.6233,33520.9519,35248.7862,4611.2984,48750.5347,44147.864,54762.2591,-3629.9676,-3479.9874,22083.208
51731.6759,24371.0428,50860.4497,37789.1511,33503.4281,35242.483,4608.5268,48734.4414,44135.6599,54755.4642,-3645.9714,-3493.3537,22077.2177
51737.085,24372.9651,50862.6848,37793.7555,33511.4747,35246.1487,4609.6891,48744.2762,44145.7629,54757.1182,-3636.8072,-3486.9164,22076.3236
51752.6418,24377.5696,50864.1154,37805.3337,33540.2191,35252.586,4615.59,48765.7338,44161.0068,54763.5108,-3619.0152,-3471.0467,22082.6715
51749.6914,24380.967,50857.2757,37803.5456,33546.3881,35250.932,4613.623,48774.4957,44155.0165,54764.0026,-3620.9375,-3468.9456,22081.7775
51736.1015,24378.4636,50857.7675,37794.7837,33525.2881,35242.6171,4615.59,48768.1031,44151.8426,54758.5487,-3627.1513,-3480.1215,22079.6317
51719.4718,24372.3392,50854.1018,37783.8314,33502.2211,35237.5209,4614.0701,48749.9535,44143.483,54754.3466,-3638.9977,-3495.6336,22075.966
51727.2502,24373.5909,50855.6217,37787.5865,33508.8819,35242.3489,4613.8018,48757.1508,44147.9981,54759.4875,-3635.7343,-3489.1963,22077.3965
51744.6846,24382.3081,50856.8287,37797.6447,33534.0947,35248.6968,4614.6512,48774.6298,44166.9971,54768.5623,-3619.2834,-3474.5336,22082.0457
51751.3901,24384.6327,50855.0406,37798.7623,33540.1744,35248.8756,4615.6794,48783.1682,44170.9757,54769.0988,-3619.8199,-3471.3149,22083.5209
51740.2142,24378.3742,50857.9463,37799.8352,33526.5845,35245.5229,4613.0419,48769.8913,44166.0583,54762.9297,-3629.8782,-3478.4675,22080.3022
51726.1326,24369.6123,50853.2971,37784.636,33505.708,35237.7892,4608.6162,48745.3938,44150.1886,54754.3019,-3650.0841,-3495.1866,22072.9262
51736.5932,24374.3956,50854.9958,37788.6593,33511.0277,35244.0923,4612.2819,48754.6027,44155.8212,54758.4146,-3644.675,-3486.7376,22075.206
51762.8789,24390.5336,50869.5692,37807.6583,33539.4144,35258.0845,4623.5025,48783.7046,44173.2556,54773.5691,-3618.1659,-3465.1458,22084.6832
51767.1257,24392.5005,50869.9715,37808.9547,33547.1928,35258.1292,4623.6366,48786.0739,44170.1263,54769.7246,-3612.0862,-3466.2634,22087.9018
51751.4795,24389.0136,50865.5012,37800.4611,33529.4455,35254.6871,4624.7095,48767.7008,44158.5928,54761.4545,-3621.9209,-3476.8581,22083.655
51732.6593,24382.4869,50866.0376,37791.4757,33514.4252,35250.8873,4622.3849,48754.4686,44145.897,54758.7276,-3628.5818,-3484.5024,22082.3139
51736.1015,24388.2537,50870.0162,37800.5505,33521.6224,35258.4869,4628.8669,48761.7552,44158.0117,54762.7062,-3620.4904,-3474.623,22089.1982
51763.46,24392.9029,50875.2018,37818.5213,33551.0373,35267.6958,4638.2993,48788.0856,44179.4693,54773.5244,-3599.9268,-3454.3276,22100.5082
51765.874,24393.8416,50874.3972,37822.9022,33561.7214,35271.2274,4639.2381,48802.7036,44185.7278,54780.0064,-3593.4001,-3450.349,22102.6987
51755.5028,24391.7406,50875.7383,37820.98,33552.9149,35269.4392,4637.7182,48798.6803,44171.9145,54772.5409,-3600.8209,-3459.0214,22097.5131
51740.8401,24395.9874,50876.99,37816.152,33541.9178,35268.1875,4639.3722,48789.4267,44163.5549,54771.5127,-3609.9851,-3465.8164,22094.5179
51745.3104,24396.1662,50874.3525,37816.0179,33543.7059,35267.3829,4633.829,48795.9981,44164.0466,54772.9433,-3609.8063,-3464.6541,22092.4616
51756.6204,24397.552,50870.0162,37823.7963,33560.8274,35266.8017,4627.3917,48808.6045,44173.1215,54772.988,-3597.8258,-3454.417,22093.7133
51764.5776,24393.1711,50869.3904,37826.3891,33566.013,35268.1875,4630.208,48821.6132,44178.7988,54773.3903,-3594.5624,-3451.4219,22097.2002
51756.978,24382.3081,50865.8588,37819.2812,33548.5339,35257.9504,4628.3305,48800.2896,44161.275,54767.4447,-3604.4866,-3462.4636,22090.3605
51730.6924,24370.3723,50860.6732,37808.6865,33524.7517,35246.5957,4621.9826,48776.7756,44141.1138,54759.9792,-3621.5186,-3478.1545,22080.8387
51724.7468,24365.6784,50857.991,37805.4231,33518.8061,35248.6968,4619.3898,48776.3286,44141.4267,54755.196,-3620.1328,-3475.4276,22078.6482
51741.0636,24374.7532,50859.5109,37818.7895,33545.4047,35257.0117,4619.8815,48793.3159,44155.3742,54761.678,-3604.9336,-3463.2236,22083.8338
51754.2511,24382.5763,50862.6848,37828.356,33559.8886,35260.4985,4620.1497,48794.7911,44162.482,54765.7907,-3595.5906,-3457.6803,22086.2925
51745.0869,24382.8893,50859.5556,37815.7943,33537.8945,35255.2235,4617.3781,48781.5142,44152.4684,54759.7557,-3608.8228,-3468.2304,22083.1633
51733.911,24379.0448,50857.2757,37797.6,33516.9733,35254.6871,4616.3946,48763.454,44143.7066,54753.6761,-3628.1347,-3479.0933,22077.7541
51749.0208,24395.1827,50860.8967,37810.117,33530.1161,35264.7901,4623.8601,48786.968,44151.6638,54755.5089,-3620.6245,-3471.5384,22081.8669
51763.6389,24402.38,50860.2709,37818.7001,33550.0985,35268.1428,4623.3684,48813.0748,44161.5433,54760.5604,-3609.1805,-3460.0943,22083.5209
51767.5728,24404.9728,50861.5226,37819.9518,33551.529,35268.2769,4619.4345,48816.7852,44160.5151,54762.6615,-3610.1639,-3461.3013,22084.415
51760.0626,24406.895,50863.4448,37817.7166,33535.1676,35266.9358,4618.0487,48797.6074,44157.2517,54756.3136,-3620.4904,-3469.6609,22083.5209
51739.8119,24394.0204,50859.2427,37804.2161,33516.7944,35260.1409,4614.1595,48781.4695,44142.6784,54747.6411,-3635.0191,-3480.0321,22077.9777
51744.2822,24391.8747,50862.4166,37805.0208,33525.1093,35261.8396,4610.8514,48783.3023,44146.8805,54747.1493,-3625.676,-3476.2323,22080.5258
51761.5378,24396.4791,50862.9084,37815.3026,33543.9295,35268.0534,4610.762,48805.1176,44156.0,54753.4078,-3608.2417,-3465.9952,22087.0078
51766.4999,24386.0632,50860.6732,37811.5922,33550.4562,35265.8629,4610.3597,48806.6375,44151.6191,54755.196,-3603.4137,-3466.934,22087.4995
51752.5971,24371.4452,50861.7461,37799.6117,33542.2307,35266.31,4612.1478,48788.4432,44147.9981,54755.3301,-3613.6955,-3472.4772,22085.8902
51734.5369,24371.0876,50862.0143,37787.3629,33523.4553,35263.3148,4613.7124,48774.0934,44137.1799,54749.0716,-3625.8996,-3482.8037,22081.8669
51736.8168,24370.3276,50863.0425,37788.8829,33531.0996,35255.8941,4614.383,48779.9495,44134.4082,54752.7373,-3621.8315,-3478.691,22083.8785
51748.6632,24372.1604,50860.9861,37800.3716,33552.8255,35255.4917,4620.105,48802.9271,44138.8339,54760.024,-3603.369,-3463.8941,22089.6006
51750.6301,24376.452,50861.5673,37805.9149,33557.6087,35255.8047,4626.7658,48799.485,44135.5705,54760.8733,-3600.508,-3460.7202,22090.5393
51734.0451,24374.5297,50865.2329,37794.739,33545.4494,35253.0777,4628.8669,48777.4909,44124.35,54760.0687,-3611.3262,-3468.9456,22090.0029
51712.2298,24365.6784,50862.2378,37774.1307,33520.6389,35239.6667,4622.4743,48747.9419,44109.866,54752.4244,-3632.5604,-3484.9048,22083.7891
51714.2862,24378.6424,50862.1484,37779.361,33528.8644,35237.6997,4622.3849,48737.4812,44111.3412,54754.3019,-3630.2358,-3480.4344,22084.8173
51736.7274,24393.484,50865.9035,37794.8731,33556.1335,35240.7843,4628.3305,48749.283,44116.7951,54759.9792,-3609.7616,-3466.4869,22089.2429
51729.0831,24395.6745,50865.8141,37795.2307,33560.2015,35238.7726,4628.6434,48742.3539,44110.4919,54753.7208,-3608.5099,-3469.2138,22085.6667
51704.6303,24392.1876,50861.0308,37787.2735,33541.1578,35234.2576,4625.2906,48716.8282,44092.5211,54746.7023,-3625.4078,-3480.9709,22079.9893
51693.812,24392.9923,50858.0357,37783.5184,33516.8839,35228.6696,4623.8154,48697.2034,44077.5454,54738.2534,-3636.0025,-3491.5656,22075.6084
51694.1696,24396.5685,50853.7441,37775.9635,33515.2745,35225.8086,4624.2625,48686.2063,44071.0634,54737.1358,-3634.885,-3493.0855,22074.0885
51703.2444,24406.7609,50857.1863,37783.0714,33530.9654,35232.8718,4627.3023,48698.2316,44077.8136,54739.9968,-3621.4739,-3479.6745,22081.0175
51706.9101,24411.3654,50861.0308,37793.1297,33535.7934,35236.001,4633.2031,48702.7466,44080.5852,54741.5167,-3611.6391,-3471.8066,22086.6501
51698.9976,24418.6521,50866.9317,37798.0471,33531.3231,35238.9961,4638.6123,48687.9945,44070.214,54741.5614,-3615.886,-3477.8863,22085.8455
51684.469,24418.1603,50868.6751,37790.1793,33508.3455,35239.7114,4638.1205,48671.9012,44054.389,54732.5313,-3623.0832,-3486.5588,22083.6103
51697.5671,24418.5179,50870.8209,37796.4824,33514.604,35249.4568,4641.6521,48668.1461,44059.5746,54734.0065,-3616.1095,-3476.0982,22087.0972
51715.5379,24426.8328,50872.9219,37805.5573,33540.8896,35258.2633,4646.9271,48680.5737,44074.4162,54742.1426,-3601.2679,-3461.2566,22095.0544
51714.018,24431.3926,50870.8209,37811.2346,33545.2259,35260.2303,4648.4023,48686.2957,44075.8914,54738.8792,-3594.6518,-3457.7698,22094.0262
51703.6468,24424.0165,50870.0162,37811.5922,33525.3328,35255.1341,4644.9602,48662.3794,44063.5085,54732.1737,-3602.2961,-3468.8115,22091.1652
51687.3747,24416.8639,50867.6022,37802.0704,33499.7177,35249.5015,4639.0593,48630.9975,44051.9303,54726.854,-3616.6012,-3480.6579,22089.8241
51694.7061,24414.8076,50867.6916,37805.1549,33506.7362,35248.1604,4635.7065,48628.4941,44052.7797,54726.1387,-3612.8014,-3478.1098,22090.0923
51711.7381,24417.3557,50864.026,37814.8556,33520.6389,35245.657,4633.6055,48651.0694,44056.9818,54726.0493,-3602.6537,-3464.0282,22088.8853
51710.4417,24415.3887,50860.2709,37818.6107,33523.0976,35243.6453,4631.9515,48652.8575,44055.6407,54721.3107,-3602.0726,-3463.9388,22086.9184
51697.6565,24408.0573,50859.5109,37805.289,33499.2707,35239.9349,4626.4082,48625.1414,44051.3045,54712.9065,-3614.1872,-3479.3615,22080.7493
51678.0317,24391.9194,50857.7228,37794.3367,33482.5963,35236.4928,4622.9661,48604.1307,44036.3288,54705.9774,-3628.6265,-3492.4597,22073.3285
51684.2902,24391.7406,50858.2145,37798.4941,33492.5652,35236.1798,4619.6133,48607.6176,44030.2044,54706.7374,-3623.7538,-3492.415,22072.9262
51703.7362,24395.3615,50861.299,37808.0606,33508.6584,35238.1021,4624.3072,48625.2308,44048.5328,54714.2923,-3610.298,-3478.7357,22079.5423
51707.2231,24393.6181,50859.4662,37805.8702,33511.7877,35233.6764,4622.9661,48626.8401,44049.1587,54713.9794,-3611.1027,-3476.9028,22079.0058
51700.6069,24391.7406,50860.4497,37796.1248,33499.9859,35230.5472,4624.9777,48604.7566,44035.2112,54711.6101,-3619.7305,-3485.0389,22079.5423
51685.4525,24383.6045,50861.5226,37782.3114,33477.2319,35222.3665,4623.726,48580.6167,44030.6962,54707.1397,-3632.1133,-3494.7842,22073.8202
51697.3883,24385.035,50862.5507,37786.4689,33484.4738,35231.3966,4626.9447,48590.8538,44033.1101,54710.0455,-3623.1726,-3489.1963,22078.2459
51718.1754,24389.9971,50860.2709,37796.9742,33503.294,35233.2294,4629.1798,48608.6011,44045.4036,54717.4662,-3610.3427,-3476.8581,22083.2974
51720.2765,24388.2984,50855.8452,37794.4261,33500.9247,35227.1944,4624.3072,48610.121,44041.9167,54713.577,-3613.025,-3478.4675,22079.8552
51703.0656,24379.76,50857.8569,37780.8362,33482.6857,35227.4179,4619.8368,48593.4913,44036.5076,54713.2194,-3626.7489,-3489.4198,22076.5471
51700.0705,24382.6658,50860.6285,37775.8294,33471.9121,35229.966,4620.5074,48579.4097,44037.7593,54715.3652,-3632.0239,-3494.1584,22075.966
51716.5214,24383.6939,50857.8569,37781.1044,33485.8149,35230.279,4622.8319,48590.1833,44045.1801,54717.4662,-3625.8101,-3487.6764,22078.6035
51726.3114,24379.9835,50856.2028,37785.1725,33498.6895,35233.9,4621.7144,48604.4437,44059.7087,54718.1368,-3615.2601,-3476.7687,22082.5821
51729.5748,24388.2984,50857.8569,37791.1627,33499.9412,35233.8552,4626.8553,48613.4291,44059.9322,54717.7792,-3610.4321,-3474.7571,22082.8503
51719.2483,24382.5763,50856.6052,37783.4737,33479.9141,35224.6016,4624.3519,48602.879,44046.4765,54716.7957,-3621.7421,-3486.6929,22075.9213
51713.8392,24384.4986,50858.6615,37775.6953,33471.5992,35226.2557,4625.1565,48591.7479,44046.9235,54716.7063,-3631.3534,-3492.102,22076.1895
51720.3212,24393.4393,50861.299,37779.361,33486.4408,35232.4694,4626.7658,48607.5729,44053.8526,54718.405,-3622.6809,-3486.6035,22079.6317
51733.5087,24396.7026,50863.8024,37792.325,33507.5408,35236.1351,4628.554,48634.7526,44063.285,54722.6071,-3609.1357,-3473.1925,22080.9728
51743.1647,24408.5938,50866.2164,37798.5388,33519.7002,35241.589,4634.5443,48639.5806,44071.9575,54729.5809,-3605.3807,-3466.5316,22085.4878
51734.7604,24415.6569,50869.0774,37793.8002,33504.7245,35235.9116,4636.6453,48621.0287,44066.2801,54729.3127,-3612.2203,-3473.2819,22084.415
51711.7828,24402.9611,50867.7363,37783.6078,33480.9422,35229.966,4633.6949,48604.7566,44055.149,54723.0989,-3626.1678,-3482.1332,22076.9942
51710.4417,24397.5073,50867.1105,37784.5019,33483.4903,35228.8932,4632.5326,48614.8149,44060.7369,54726.3175,-3622.1892,-3477.7522,22077.7988
