FC3,FCz,FC4,C5,C3,C1,Cz,C2,C4,C6,CP3,CPz,CP4
57227.2092,28529.5397,54293.5431,42786.2853,37033.5281,39744.0344,5680.874,50205.2307,43589.2493,55811.6734,1032.1587,-454.8132,26507.1541
57234.5406,28527.9304,54293.6772,42783.3349,37036.4785,39742.291,5679.8458,50215.9148,43592.7361,55812.6569,1036.6738,-451.684,26510.2834
57264.939,28534.9041,54292.5596,42793.8849,37058.8303,39743.8109,5682.7515,50235.6291,43592.1103,55816.6802,1055.0469,-439.5247,26516.2736
57274.9525,28531.6855,54290.1456,42803.7196,37065.2676,39745.3308,5681.321,50247.5649,43594.6584,55816.7249,1055.941,-438.72,26511.535
57251.2597,28516.3969,54287.0164,42789.5039,37036.4338,39736.7477,5676.1354,50231.2481,43586.6117,55807.0689,1037.7914,-452.7122,26505.4554
57241.0226,28510.049,54288.2234,42783.6031,37022.8887,39735.0043,5671.9333,50203.8449,43577.0005,55805.3255,1022.2793,-466.5256,26503.7566
57240.6203,28506.0257,54282.3225,42776.987,37020.0723,39730.9363,5661.1598,50200.8945,43576.6876,55804.4314,1020.4911,-467.2408,26498.571
57256.2665,28514.6981,54280.7579,42785.0783,37042.737,39734.9596,5657.9858,50230.3541,43589.0257,55806.8454,1031.7117,-455.8414,26497.5876
57263.2402,28513.5359,54285.0047,42794.1084,37050.4707,39738.67,5662.7244,50240.4124,43595.0607,55816.5908,1035.5115,-450.7005,26500.1357
57244.3306,28508.0373,54286.8823,42784.0501,37026.7779,39734.8702,5662.9479,50224.7214,43595.3289,55813.3721,1024.2015,-459.5518,26498.7946
57227.4327,28501.6447,54283.6636,42771.5331,37004.1579,39734.5126,5658.4775,50207.0189,43580.2191,55798.7988,1009.0023,-472.1582,26490.2562
57233.1548,28506.1151,54283.0825,42779.8033,37012.7857,39740.0111,5661.6068,50212.6068,43585.3601,55805.1914,1010.4328,-468.7607,26491.7314
57256.3112,28517.2015,54286.167,42794.8684,37049.3084,39746.1355,5666.2112,50250.1577,43605.2531,55820.8376,1030.2812,-453.3827,26501.4321
57263.7767,28517.1568,54287.2399,42799.4281,37053.6,39743.7215,5667.3288,50258.3832,43609.2764,55822.9387,1036.3162,-450.1194,26502.952
57246.6552,28504.2375,54282.0543,42789.191,37040.6806,39742.4698,5664.1549,50230.5329,43595.7313,55816.9037,1022.9945,-463.9328,26495.4865
57225.1529,28493.464,54276.4664,42771.399,37017.7031,39732.635,5655.9741,50208.7623,43575.4359,55805.2808,1004.9343,-479.6684,26487.7528
57226.0022,28493.5087,54279.8638,42777.9704,37028.5213,39741.978,5659.1928,50226.5543,43589.2045,55809.617,1017.5854,-468.269,26492.8043
57249.9186,28508.1267,54284.1554,42798.3552,37052.1694,39753.9139,5665.0937,50261.4677,43604.8508,55819.0048,1039.7583,-449.4488,26502.192
57251.7067,28509.4678,54281.4285,42799.1599,37061.1101,39752.0363,5664.1102,50266.5639,43611.5563,55822.4916,1041.0994,-442.6092,26504.6507
57236.0605,28500.9742,54279.5956,42783.2007,37047.0732,39743.9003,5661.2939,50253.5105,43595.9101,55812.0757,1027.4649,-454.5003,26500.0015
57227.7457,28497.532,54282.0096,42773.813,37024.1404,39738.0888,5666.256,50238.1325,43584.466,55807.1136,1011.9081,-466.9726,26496.2912
57227.1645,28491.8994,54279.4168,42776.7187,37025.0344,39742.6039,5665.1831,50244.8827,43587.327,55810.0194,1015.5737,-463.3069,26499.4651
57248.1304,28497.085,54276.6005,42790.9344,37057.6233,39749.7118,5663.9761,50265.8933,43606.0131,55812.5675,1034.7068,-451.237,26504.159
57259.0828,28496.2803,54277.3604,42795.8071,37068.3074,39752.9304,5664.3337,50266.0722,43615.8925,55814.9368,1040.5183,-448.3312,26505.6342
57237.1781,28486.1773,54274.41,42779.848,37041.6641,39740.6369,5657.8517,50248.3696,43594.7478,55802.2857,1021.3852,-465.9891,26493.6984
57221.6213,28479.5165,54272.5772,42769.298,37020.6088,39736.3901,5657.9411,50227.9848,43578.7439,55794.5967,1007.6165,-477.165,26487.9763
57228.1927,28484.6127,54273.0242,42771.5331,37026.8673,39740.7264,5658.9246,50230.8905,43586.7459,55806.2643,1008.6,-470.0571,26487.7528
57252.0196,28499.3649,54276.6005,42790.5321,37053.7788,39746.0461,5661.5621,50260.0819,43606.8177,55819.8094,1030.4153,-452.9357,26496.2912
57260.6027,28496.2803,54277.9863,42791.7838,37055.1199,39747.7001,5658.254,50269.8272,43619.1559,55820.8376,1038.149,-452.5781,26497.8558
57245.8953,28488.6807,54275.4382,42780.1162,37040.7701,39738.5359,5655.0801,50248.9954,43607.2201,55813.9086,1023.218,-467.0173,26491.195
57221.3084,28478.846,54269.7161,42764.9617,37016.6749,39728.1647,5648.911,50224.0956,43590.0986,55804.2973,1002.3415,-484.4069,26484.7577
57222.9624,28481.9752,54272.8454,42770.5944,37016.4961,39731.6962,5647.3464,50231.2034,43594.3455,55808.9018,1006.9907,-481.9483,26489.228
57247.1023,28494.2687,54278.4333,42793.9296,37048.6379,39745.8225,5653.3366,50259.7243,43611.0646,55819.4965,1030.3259,-461.6082,26495.4418
57250.2315,28498.2473,54280.3556,42797.1035,37054.047,39749.5776,5656.0189,50274.9681,43611.9139,55818.1107,1036.0926,-453.1145,26496.3806
57233.8253,28493.4193,54277.3604,42788.6099,37034.7798,39742.2016,5654.4542,50266.0722,43598.1005,55812.9698,1022.1899,-466.1679,26493.8772
57215.6757,28479.9635,54267.481,42771.0861,37006.3037,39729.1929,5644.3065,50235.9867,43578.9227,55801.3022,1001.1345,-483.0658,26483.8636
57225.4211,28480.7682,54269.4926,42777.7916,37020.0723,39733.0374,5649.4474,50236.8361,43583.3931,55802.5092,1007.4824,-475.511,26483.9977
57240.0838,28488.0549,54266.274,42785.5253,37048.1908,39735.4066,5650.9227,50270.4084,43598.8158,55806.1302,1019.6418,-462.5022,26488.6916
57241.2908,28486.6244,54265.2458,42793.3484,37059.8584,39738.7594,5650.3415,50275.1023,43607.0859,55809.0806,1027.4202,-462.6811,26490.0774
57229.8914,28488.9936,54264.8435,42785.6594,37039.6972,39736.5242,5649.3133,50260.3501,43595.3736,55805.4596,1014.9032,-479.8919,26486.9928
57207.0032,28484.6574,54260.999,42766.7946,36996.8712,39730.1763,5641.6243,50229.1918,43575.2571,55790.8416,985.4436,-501.439,26477.5604
57218.9391,28482.0199,54259.792,42772.7401,37004.3367,39733.3056,5641.9373,50235.3609,43580.1744,55791.7804,988.8411,-498.4438,26479.0803
57244.2412,28492.1676,54264.9776,42790.0404,37037.1044,39740.324,5645.8712,50263.1664,43602.8391,55804.4761,1013.8303,-476.9415,26486.0988
57256.043,28498.5602,54272.0854,42795.2707,37051.4095,39745.0179,5649.8945,50275.9069,43618.4406,55809.7512,1019.4629,-466.7938,26490.0327
57237.2228,28493.1064,54275.3488,42782.709,37031.9635,39744.2132,5651.6379,50261.8253,43610.7516,55811.2711,1010.3434,-471.8006,26489.8986
57219.9225,28491.8994,54274.9017,42771.3096,37004.9179,39741.531,5649.1792,50244.8827,43589.2045,55807.7395,998.1394,-480.3836,26487.0822
57222.9177,28491.8994,54277.8969,42779.5798,37014.4844,39740.9946,5648.1957,50252.5717,43591.2609,55813.1039,1008.3765,-472.6052,26492.8937
57242.4531,28500.7954,54277.8969,42794.8236,37042.3347,39748.3706,5654.0519,50284.7135,43615.3561,55821.1058,1028.7613,-454.8579,26498.5263
57252.3326,28503.6564,54277.8075,42795.4495,37052.9294,39751.7234,5657.36,50303.6678,43614.6408,55822.1787,1031.7564,-456.4673,26496.8276
57238.0275,28498.4708,54277.6734,42786.5535,37036.0315,39749.4882,5655.84,50289.5415,43606.8177,55817.2613,1017.4066,-468.0455,26492.5808
57216.4804,28487.1608,54274.857,42769.3874,37005.9907,39740.9052,5649.358,50264.8652,43598.5476,55810.9134,998.6311,-483.4235,26485.2047
57223.4094,28487.9655,54270.6549,42775.1541,37013.188,39744.2132,5648.0616,50260.8418,43594.3902,55809.2147,999.5252,-482.5741,26485.2494
57241.1567,28500.0801,54272.2195,42797.7741,37047.2968,39750.1588,5650.878,50297.4093,43603.912,55814.7132,1019.2841,-464.3351,26488.1104
57253.3607,28503.6564,54267.3469,42804.2114,37055.7457,39745.912,5647.704,50304.2936,43605.1637,55809.3488,1023.1733,-464.648,26484.3106
57233.8253,28492.1676,54261.1778,42786.5088,37032.3211,39729.8187,5640.8197,50280.422,43592.6914,55798.7988,1002.6544,-483.1105,26476.4875
57214.5581,28484.2998,54263.5918,42773.0978,37006.7954,39724.7672,5635.4105,50260.0372,43567.3445,55795.9378,990.1375,-496.164,26474.2523
57216.391,28490.8265,54263.2341,42776.1376,37014.7973,39735.3619,5636.0364,50269.3355,43574.7653,55799.067,994.2502,-493.1241,26475.9958
57237.5804,28502.6729,54263.2341,42793.0802,37041.977,39740.8158,5641.4902,50306.0818,43601.1404,55805.5043,1011.3269,-476.4497,26481.7178
57249.248,28502.1812,54261.5354,42798.4446,37045.9557,39743.7662,5643.2784,50315.6036,43612.8974,55808.6336,1020.4911,-473.544,26486.2776
57231.009,28486.6691,54256.9757,42783.6478,37019.7147,39734.3785,5635.1423,50297.4093,43598.0111,55802.4198,1004.3085,-487.6256,26482.1649
57202.4882,28474.5097,54257.4674,42768.2251,36994.5914,39723.1132,5627.9451,50267.9944,43572.7537,55788.0253,990.5398,-499.2038,26477.024
57209.6407,28479.0695,54260.239,42772.5613,37000.8051,39724.5884,5629.5097,50264.3287,43582.6331,55791.9592,1001.7604,-490.4419,26478.9462
57235.1217,28480.0977,54261.0884,42782.9772,37022.1287,39731.3833,5633.7118,50285.0711,43598.2347,55794.3285,1016.0655,-478.4167,26481.3602
57239.9497,28479.2036,54261.446,42786.5088,37034.7351,39731.428,5637.5116,50299.0633,43604.672,55802.8668,1019.4629,-470.683,26481.8966
57212.0994,28471.2464,54261.0884,42780.3397,37020.6535,39725.5719,5632.2813,50278.3656,43595.3289,55800.5869,1005.5155,-481.7247,26476.3534
57191.7593,28466.4631,54260.3731,42770.2367,36998.9723,39717.2123,5630.5379,50253.3317,43581.6944,55791.4674,989.3775,-499.1591,26469.9161
57196.4979,28471.3358,54262.1613,42771.5331,37002.5486,39722.8003,5632.3707,50264.3287,43588.7128,55793.2109,993.669,-495.4934,26473.4477
57224.5717,28480.2318,54269.4926,42784.9442,37030.0859,39739.9664,5639.0762,50302.9972,43607.8459,55806.2196,1015.529,-475.5557,26481.4049
57235.8817,28485.0597,54265.8269,42785.3465,37038.8031,39743.2297,5638.4504,50322.1303,43613.2103,55807.2031,1018.0771,-470.7724,26477.4263
57214.9605,28484.0763,54260.239,42771.7566,37015.2891,39730.1763,5632.1472,50312.9661,43603.152,55804.4314,1003.325,-484.4964,26474.3418
57197.3026,28477.1919,54259.2555,42754.7693,36987.3494,39723.3367,5629.1521,50294.0565,43584.3766,55798.8435,988.1258,-497.9521,26472.8665
57215.4969,28481.2599,54263.0553,42770.1026,37009.0306,39730.7128,5635.8129,50290.8826,43593.4514,55800.1399,1001.8498,-490.7548,26477.6945
57243.1237,28485.015,54267.481,42783.0666,37036.5679,39735.3619,5639.4786,50308.6746,43616.6972,55805.9514,1018.0324,-475.8239,26483.4613
57241.2014,28485.5068,54270.7443,42786.6429,37038.1325,39731.3833,5636.0811,50306.4394,43610.841,55808.0524,1023.9333,-468.7607,26483.6401
57225.734,28481.707,54270.2079,42782.1726,37023.8274,39730.4893,5635.6341,50284.8923,43597.43,55802.8221,1010.7011,-481.7247,26481.092
57216.7933,28481.4388,54268.6433,42771.5778,37002.0568,39728.4329,5636.1705,50256.595,43588.981,55804.0738,995.2337,-489.8608,26481.4496
57225.1976,28487.429,54267.5257,42768.4039,37006.1696,39721.325,5633.8906,50262.4959,43592.7808,55799.7823,1000.2851,-490.6654,26480.2873
57250.9021,28492.0782,54264.307,42782.0385,37038.4455,39730.0422,5634.2483,50297.901,43610.2599,55805.0126,1016.9595,-479.5343,26485.4282
57254.4783,28496.5932,54261.893,42786.9558,37041.7982,39738.1783,5632.5495,50310.9097,43610.6622,55808.4995,1021.9663,-477.165,26487.3952
57240.9332,28494.5369,54263.3682,42780.8762,37025.9732,39730.3551,5629.1968,50296.247,43594.3007,55792.585,1005.426,-489.369,26476.0405
57220.2802,28476.9237,54257.4227,42765.1852,36998.4359,39718.5534,5618.155,50262.183,43580.7109,55788.1594,981.8226,-508.2339,26464.7305
57229.7573,28476.3873,54257.1545,42766.7052,36999.6876,39723.3367,5614.9364,50262.7194,43584.1084,55788.1147,983.5213,-504.4341,26462.853
57251.7067,28485.2833,54256.5286,42776.8975,37023.5592,39734.9596,5616.2775,50292.2684,43600.0228,55786.103,1003.1015,-491.336,26469.8714
57253.5396,28489.3066,54257.2439,42775.8247,37025.7497,39733.842,5616.188,50308.8087,43600.9169,55787.7123,1003.8167,-491.336,26468.4856
57238.8321,28486.0879,54255.1875,42769.0297,37009.2988,39732.4115,5613.1035,50296.1576,43583.4825,55780.6045,985.8459,-500.232,26464.0599
57217.7321,28476.8343,54252.5053,42758.3009,36978.5428,39731.6515,5611.0471,50272.0624,43557.8674,55770.6356,967.7857,-511.6761,26456.9968
57211.3842,28475.0015,54253.6229,42757.9433,36987.0365,39732.0539,5612.7906,50272.0624,43560.9072,55772.4237,974.5806,-504.8364,26460.6178
57238.6086,28485.2386,54261.446,42771.7566,37022.7098,39741.4863,5618.9597,50305.2771,43590.0986,55785.3878,998.7205,-485.9716,26468.3962
57239.1897,28486.5797,54264.7988,42772.6507,37035.0927,39738.0888,5620.7031,50316.0506,43587.327,55789.2323,1002.4309,-484.5411,26470.8102
57224.6164,28480.5447,54263.9047,42768.8956,37014.7526,39734.0655,5621.9995,50285.0711,43569.7585,55781.8562,991.0315,-492.9006,26468.8432
57203.6058,28480.0529,54259.032,42757.4515,36994.8149,39729.774,5623.2065,50260.0372,43554.4252,55768.0428,977.8887,-504.5682,26464.1941
57203.6952,28484.2998,54257.0651,42759.1503,37000.3134,39729.5952,5623.0724,50260.5289,43555.2299,55773.7201,982.7167,-504.3447,26463.9258
57217.1956,28493.5534,54257.8697,42769.8791,37032.9469,39733.5291,5630.0908,50286.2334,43566.1823,55784.6278,1003.5932,-488.1173,26470.542
57216.078,28490.1559,54256.3051,42771.1308,37039.6525,39729.6399,5633.5777,50290.9273,43564.3047,55784.7172,1007.84,-485.6139,26467.9939
57197.5708,28487.1161,54255.6792,42767.331,37023.1122,39721.4592,5636.5728,50270.9001,43549.5973,55776.4918,993.2667,-497.2368,26464.8646
57171.0616,28483.2269,54254.7405,42756.9151,37003.845,39712.3843,5639.4339,50239.9653,43532.8782,55767.5064,975.7876,-508.0104,26462.093
57168.9159,28485.3727,54257.1992,42752.4894,37003.4873,39707.6905,5640.5962,50226.4202,43524.7868,55768.8028,976.9946,-505.7752,26463.0765
57191.6252,28500.3483,54260.239,42762.5924,37026.599,39713.1443,5645.7371,50239.0265,43529.6148,55773.4072,994.4737,-490.4866,26468.9773
57200.8342,28509.8255,54266.8104,42769.3427,37042.5135,39714.7536,5653.8731,50241.9323,43538.0638,55780.2469,1003.4144,-477.165,26473.1348
57180.6282,28501.7788,54269.9844,42762.9501,37023.3804,39705.1424,5652.8896,50212.9197,43526.7091,55781.0515,994.1608,-488.2067,26473.3136
57153.4038,28501.5106,54264.8435,42748.7344,36995.396,39694.6371,5644.6195,50183.1919,43502.4351,55769.0263,981.7332,-506.8481,26465.0434
57159.9305,28511.8818,54260.7754,42753.7858,37001.878,39698.3922,5646.8546,50187.6622,43493.4944,55763.483,985.8459,-505.3729,26464.8646
57183.4445,28521.4484,54260.0155,42771.9802,37035.0033,39712.4738,5652.4873,50210.8186,43524.608,55767.0593,1007.1695,-491.6489,26470.4525
57184.2045,28521.5825,54259.9261,42767.7333,37035.5844,39713.8149,5650.8332,50214.3502,43524.7421,55770.9932,1007.3036,-489.1008,26470.9443
57170.1229,28518.185,54260.3284,42760.8937,37001.7439,39707.154,5649.4474,50192.0879,43504.9832,55765.6288,995.5466,-498.3097,26471.4807
57150.4533,28507.6797,54261.1778,42751.3719,36968.8421,39703.2201,5648.2852,50160.0802,43487.2359,55760.5773,979.2745,-509.7091,26464.2835
57159.2152,28504.1034,54260.1049,42757.0045,36977.6487,39705.053,5650.565,50163.3435,43489.9628,55762.8125,987.9023,-506.9375,26467.0551
57190.8653,28513.7147,54268.0621,42777.6128,37010.3717,39718.1064,5656.9576,50192.222,43508.3359,55772.0214,1012.7127,-490.9337,26477.5157
57196.7214,28510.8089,54267.0339,42776.674,37014.9761,39717.257,5655.7506,50191.5067,43511.197,55769.3392,1018.6136,-486.3739,26476.4875
57171.6428,28505.221,54264.8882,42768.091,36991.4174,39710.7303,5650.0286,50159.1861,43484.2408,55757.6716,1006.4542,-503.6294,26466.4292
57148.7993,28497.6214,54264.5752,42758.3456,36961.2426,39700.6273,5643.8595,50121.7246,43467.3429,55750.6084,989.1093,-516.9958,26460.7519
57155.0578,28498.5155,54260.1049,42758.6138,36964.8635,39698.8392,5640.6856,50125.3456,43468.2369,55750.1167,991.8809,-512.9725,26458.2038
57176.4708,28501.5106,54258.0485,42770.9967,36998.8829,39702.1025,5640.015,50148.7255,43480.888,55749.3567,1007.7506,-500.8131,26459.3661
57189.9265,28499.3201,54257.6462,42771.2202,37000.6263,39695.8888,5639.7021,50157.3086,43488.4429,55747.8815,1007.5718,-500.5449,26459.4555
57175.4426,28496.6826,54256.8862,42765.4535,36977.8723,39690.1667,5636.4834,50135.5827,43478.9658,55744.2605,1001.3133,-509.6644,26454.4487
57153.3591,28490.9606,54251.8795,42750.8801,36953.5089,39683.1483,5632.6389,50101.1163,43459.2515,55740.2372,984.6389,-520.7062,26451.8112
57164.2667,28483.0034,54247.7667,42741.6712,36950.0667,39682.9695,5630.8061,50096.7354,43460.1456,55737.0186,985.1754,-519.4545,26451.0065
57187.4231,28496.3697,54251.1642,42758.2562,36979.0792,39691.7313,5637.154,50127.1784,43474.1825,55746.004,1005.9625,-502.7801,26456.7733
57194.0839,28496.325,54255.0981,42766.124,36990.6127,39691.4631,5638.7186,50129.503,43481.4245,55759.9515,1016.2443,-491.6936,26459.4555
57184.5174,28493.5981,54262.5189,42757.9433,36977.4699,39684.6682,5636.6175,50106.7489,43470.5168,55756.3305,1002.3862,-500.5449,26463.1212
57175.2638,28495.0733,54269.3585,42757.0045,36960.2591,39690.4349,5643.3231,50087.437,43459.9221,55753.693,993.7584,-506.0434,26465.9822
57185.2773,28500.5271,54276.9581,42760.089,36969.9597,39691.776,5651.0568,50093.8743,43475.3001,55760.8455,1000.5087,-495.1358,26472.196
57214.1558,28512.6865,54279.1486,42768.4933,36998.3912,39697.5875,5654.5883,50124.5409,43497.8753,55766.7464,1019.6865,-480.8307,26479.4827
57229.802,28516.531,54277.4051,42773.4554,37008.9412,39704.7848,5655.393,50135.2251,43507.9783,55771.6638,1022.9051,-474.6169,26480.6002
57213.4852,28517.9168,54276.4664,42767.9121,36992.3115,39701.432,5658.9693,50120.2941,43505.8326,55768.4451,1015.082,-477.7461,26478.8121
57192.0723,28507.9926,54273.4712,42755.5293,36973.2231,39697.3193,5657.6282,50104.335,43490.7675,55765.3606,1002.5203,-490.5313,26477.1581
57198.2414,28510.049,54273.5159,42757.8539,36978.6769,39704.0248,5658.2987,50115.6002,43495.2378,55767.417,1007.5271,-487.5362,26476.9346
57219.3861,28519.3026,54273.2477,42768.6274,36999.6876,39707.3776,5660.4445,50148.1891,43511.4652,55773.3625,1020.2676,-475.9133,26481.4049
57229.9808,28522.1189,54274.6335,42776.0035,37013.8139,39711.8032,5661.3833,50161.2872,43531.7159,55778.7269,1029.2083,-470.5936,26486.3223
57212.8147,28512.2395,54274.41,42762.3242,36988.7352,39701.432,5656.6,50139.2484,43514.3262,55776.4471,1014.322,-481.0542,26480.1532
57189.5242,28504.1928,54267.0786,42750.746,36962.6731,39688.8256,5655.7953,50108.7606,43490.9016,55767.6405,993.0432,-500.7684,26473.5371
57185.7691,28498.7837,54266.1846,42751.8189,36965.847,39682.433,5654.3201,50106.4807,43493.0474,55767.3275,994.7419,-499.8296,26473.5371
57206.5562,28497.0403,54269.3585,42760.5808,36994.5019,39686.5904,5652.8896,50126.3291,43504.6256,55771.1273,1008.6,-488.162,26475.4593
57209.5513,28497.3979,54265.4693,42758.9267,37002.4592,39685.5623,5651.4591,50137.6837,43512.0463,55769.2051,1013.5621,-481.4118,26475.2805
57192.4746,28491.3629,54259.6579,42747.3038,36974.3407,39677.1133,5642.6525,50124.0939,43508.783,55760.175,998.1394,-492.1407,26468.9773
57180.8517,28488.4572,54258.585,42743.9511,36953.5983,39675.191,5643.0995,50105.8996,43497.5177,55751.6366,982.9849,-506.267,26463.1659
57182.1481,28491.05,54259.8367,42748.9132,36964.9082,39684.3106,5646.1841,50119.2659,43503.5527,55754.6765,988.8411,-498.3097,26465.2669
57213.2617,28501.0189,54264.6199,42765.677,37002.1015,39703.2201,5651.8614,50151.0501,43521.2553,55764.1089,1011.9975,-480.7413,26475.1464
57225.0634,28515.3687,54268.2856,42776.0035,37024.6768,39710.9538,5658.8799,50173.0889,43530.8218,55778.0564,1020.0888,-473.991,26480.3767
57207.4503,28519.4367,54264.8435,42766.5263,37007.2871,39704.2036,5656.2871,50156.5486,43524.8315,55771.5297,1009.807,-484.5411,26477.6945
57188.6748,28519.6155,54267.7492,42760.6255,36986.2765,39698.4369,5654.6777,50137.1473,43509.9453,55765.1371,995.2784,-498.7568,26472.196
57193.5922,28518.4085,54268.4197,42762.056,36989.8081,39706.2153,5651.7273,50150.6031,43518.3048,55763.8407,999.2123,-495.6722,26475.3252
57215.9439,28529.6738,54266.274,42772.7848,37009.8799,39719.3134,5651.325,50180.1521,43531.09,55768.5792,1015.7973,-481.3671,26478.9462
57233.6465,28538.2122,54265.9611,42780.4738,37022.7098,39728.9246,5650.878,50196.1559,43535.4263,55768.0428,1020.8488,-477.7014,26478.231
57224.1247,28524.22,54263.3682,42772.3378,37007.2424,39730.3998,5643.0995,50182.9684,43519.6459,55760.4879,1007.6612,-489.7714,26473.3583
57208.2102,28512.8653,54260.4178,42757.4515,36978.8557,39728.7458,5637.9586,50158.605,43503.5527,55754.14,990.5398,-504.0765,26467.5468
57218.492,28513.2676,54264.3517,42766.4369,36990.8363,39732.8138,5642.876,50170.9878,43516.4273,55757.001,1001.9839,-497.6392,26472.9112
57243.7048,28524.22,54267.168,42781.8149,37016.6302,39743.0062,5647.1229,50208.1811,43543.6964,55766.2994,1025.2297,-477.7014,26478.5439
57251.8855,28532.6242,54269.4032,42786.9558,37022.5757,39747.1189,5650.7885,50220.9663,43551.3854,55772.7814,1031.4435,-470.6383,26481.7178
57232.4842,28529.942,54268.5986,42778.5069,37009.2988,39736.9713,5650.6991,50205.7672,43535.9627,55768.5792,1014.4562,-479.0425,26478.0968
57205.528,28515.1452,54260.2837,42751.6848,36978.2299,39719.4922,5638.8527,50173.5806,43507.7101,55755.5705,990.7633,-503.093,26467.5468
57214.9158,28510.1831,54260.2837,42757.988,36983.3708,39720.2969,5640.5962,50170.0938,43503.0162,55755.8835,994.3843,-503.9871,26467.6362
57242.1849,28518.4979,54263.0553,42778.2834,37017.3454,39727.4494,5644.6195,50189.8974,43528.5419,55766.7911,1018.1665,-486.2398,26473.4924
57250.5444,28521.6272,54264.7094,42776.674,37029.1024,39728.2541,5646.8546,50200.4027,43536.8568,55772.2449,1026.7943,-480.2495,26476.4428
57234.6747,28515.3687,54264.3517,42763.0842,37010.8187,39719.4028,5645.4241,50189.8527,43524.8762,55768.4004,1010.3881,-493.9288,26471.3019
57212.01,28508.6632,54262.8765,42752.0871,36987.9305,39706.9305,5641.982,50171.7031,43512.6722,55764.5112,988.8411,-507.3398,26467.2786
57215.4969,28506.4727,54261.893,42746.0521,36989.674,39705.2765,5641.4008,50166.6516,43514.4603,55762.8125,989.8245,-507.6528,26467.0104
57233.5571,28516.8439,54257.5568,42754.3223,37010.2823,39709.9704,5643.2784,50186.187,43531.1794,55765.3159,1007.1248,-492.8112,26470.3184
57244.9565,28530.2997,54266.274,42762.1454,37031.5164,39716.0053,5653.6943,50197.3629,43543.2047,55783.1526,1015.7079,-479.0425,26480.9132
57233.4677,28521.5378,54266.3187,42748.3767,37010.8634,39704.4271,5650.7438,50190.6574,43534.7557,55782.8397,1002.7885,-493.3923,26480.7343
57215.5863,28515.9051,54264.4411,42735.9939,36989.7187,39697.4534,5650.118,50171.5243,43526.7091,55780.3363,988.7069,-501.6625,26482.8354
57219.9672,28524.667,54265.2458,42741.8053,36996.2901,39701.432,5651.0121,50181.7614,43538.0191,55784.0466,995.8148,-493.3923,26486.7246
57245.627,28526.0081,54266.4081,42754.4117,37022.7098,39712.3396,5652.4873,50210.461,43544.5905,55789.9028,1010.3434,-479.4449,26486.4117
57249.7398,28528.4668,54266.3187,42759.7761,37031.2035,39715.0666,5655.9741,50220.9663,43549.9549,55792.8532,1014.9479,-473.4546,26486.6352
57238.5192,28520.8225,54260.5072,42751.6401,37009.6117,39706.2153,5652.1744,50196.0218,43550.089,55789.6793,1007.3483,-482.6188,26481.7178
57221.666,28507.0091,54260.4625,42735.2339,36987.8858,39699.8227,5652.2638,50170.1832,43527.6031,55780.9621,988.3046,-498.8462,26474.0735
57223.7223,28508.2608,54261.4907,42733.1775,36991.2386,39704.9636,5651.0568,50180.4203,43529.1231,55781.8115,991.568,-493.6606,26477.3816
57247.4152,28521.6719,54262.1613,42749.7625,37018.3289,39718.3299,5653.9178,50202.9061,43546.7809,55788.2041,1012.7574,-475.7345,26483.506
57254.2101,28522.6554,54264.2176,42757.228,37026.6885,39718.7769,5654.4542,50205.8119,43549.7761,55788.0253,1022.2793,-473.991,26484.4894
57241.0226,28516.084,54262.9659,42751.9083,37011.7128,39709.4339,5649.0004,50185.0694,43538.3767,55785.6113,1014.1432,-481.5459,26480.1532
57216.1227,28507.1433,54258.1379,42737.6032,36985.2483,39699.778,5641.4902,50150.4242,43524.1163,55777.5646,992.1491,-497.1474,26475.2358
57224.4376,28511.256,54260.5966,42743.4593,36988.5564,39702.1025,5642.9207,50161.2872,43523.2222,55772.6026,994.2949,-492.9006,26474.7888
57236.8205,28512.0159,54259.6579,42756.781,37013.7244,39714.6642,5649.5816,50192.8926,43540.6566,55780.1574,1011.6845,-474.751,26480.6002
57239.905,28512.15,54259.2108,42757.4962,37017.7925,39717.8829,5654.946,50201.0733,43541.3718,55783.3761,1015.3949,-472.337,26482.4331
57226.4045,28503.7458,54257.0204,42749.7625,36999.464,39713.0996,5650.3862,50180.3309,43531.0453,55780.2916,998.3629,-489.0114,26477.2475
57197.3473,28487.6525,54253.5782,42729.0648,36973.089,39701.879,5641.4455,50147.6079,43506.1902,55764.243,982.7167,-507.8316,26466.7422
57190.3288,28483.8974,54254.0699,42729.3777,36975.8606,39698.3027,5636.4834,50143.6293,43499.7976,55761.1585,984.1472,-507.0716,26465.1775
57217.0615,28494.1345,54258.8979,42747.6615,37001.3863,39706.4835,5643.0995,50171.2114,43523.4457,55774.346,1004.2191,-486.7762,26474.8782
57224.08,28494.4922,54258.1379,42751.4613,37014.0374,39710.328,5642.5631,50186.0976,43532.6099,55779.4422,1011.8186,-481.4118,26475.5487
57222.0683,28493.9557,54264.1282,42750.9695,37003.4426,39711.0432,5645.8712,50182.566,43529.5254,55777.2517,1007.0354,-484.9881,26475.504
57204.7681,28488.4125,54264.4858,42732.0153,36976.0841,39699.3309,5646.3182,50164.3717,43519.8694,55769.9651,990.0033,-496.9686,26473.5371
57204.321,28485.4174,54266.3634,42731.1212,36986.8129,39700.3144,5652.1297,50160.8849,43521.747,55771.6638,992.4173,-491.8724,26473.8947
57232.1266,28499.9907,54270.789,42749.6731,37027.1355,39716.5418,5658.7905,50189.3163,43550.089,55782.482,1014.635,-477.0756,26483.8636
57238.3851,28512.15,54270.2973,42758.1221,37038.8925,39724.052,5660.9809,50211.9362,43555.8558,55788.7852,1024.3803,-471.8453,26489.6303
57222.2024,28503.1646,54270.8337,42749.092,37013.0539,39714.2619,5659.5057,50191.4173,43540.2542,55782.1244,1013.9197,-480.6519,26486.9928
57204.321,28500.2142,54273.963,42739.0337,36991.3727,39706.5729,5658.567,50167.1433,43529.8383,55776.8941,998.9887,-491.5595,26486.2776
57216.3016,28507.6797,54275.6617,42744.4875,37001.6992,39717.0335,5662.0985,50181.0014,43541.4165,55783.4655,1003.1909,-484.1387,26491.0161
57240.5308,28517.6039,54278.2545,42755.7081,37030.533,39725.7507,5666.8371,50201.0733,43559.5661,55790.0816,1015.6184,-471.2641,26496.1123
57249.3374,28519.6602,54278.6121,42759.7314,37042.6476,39722.3085,5668.3123,50200.671,43570.0268,55798.0388,1027.9566,-465.9891,26498.7499
57235.3452,28509.7808,54276.7346,42747.6615,37023.6039,39714.0384,5663.9761,50191.1491,43559.0297,55797.3683,1017.1384,-476.5838,26494.5924
57215.2734,28502.7623,54276.1981,42730.0036,36993.8314,39703.9801,5657.6729,50168.0821,43541.8189,55791.2886,994.1161,-494.1076,26486.5458
57225.4211,28503.5223,54273.4712,42738.0502,37006.4378,39711.535,5659.5951,50170.6749,43547.8985,55790.171,997.9606,-494.3311,26486.5458
57247.2364,28509.0655,54272.756,42755.574,37027.2249,39721.325,5662.1879,50192.0432,43561.8013,55797.1448,1020.4017,-481.4565,26491.9996
57251.7514,28513.0441,54275.2594,42759.1056,37030.3988,39722.7108,5665.0937,50206.5718,43567.2551,55798.2177,1026.6602,-473.6334,26495.6653
57242.9895,28510.2725,54275.7958,42749.4049,37021.6817,39719.6263,5666.5689,50191.2385,43560.7731,55797.1448,1015.7526,-479.0872,26489.7645
57231.0984,28502.0024,54274.5888,42734.8763,36997.7653,39712.3843,5661.7409,50170.362,43542.3106,55790.0369,996.9324,-492.6324,26482.7013
57227.8351,28500.3483,54271.549,42733.4905,37002.1015,39709.121,5658.2093,50167.9927,43546.1551,55787.3994,994.7419,-493.6159,26482.3884
57249.6504,28510.5854,54269.6267,42743.057,37024.8109,39717.6147,5660.8468,50193.3396,43557.778,55795.2672,1010.7905,-477.3885,26489.7645
57251.1256,28514.4299,54272.0854,42750.5672,37034.5563,39723.5602,5661.6515,50221.2793,43572.8878,55800.2293,1022.7263,-467.0173,26491.9102
57243.7048,28511.6136,54275.8852,42751.2378,37026.599,39718.8663,5664.289,50212.0703,43568.4174,55799.6482,1016.6913,-470.4595,26492.5361
57225.3317,28499.9907,54276.6452,42740.9559,37005.8119,39712.1608,5665.943,50190.7915,43552.4136,55796.653,1001.3133,-483.647,26488.9151
57228.4609,28508.1267,54278.3886,42738.9443,37008.8518,39721.2356,5665.4513,50201.1627,43558.3591,55798.9776,1003.5932,-483.1553,26485.8752
57253.4949,28520.5543,54282.5013,42755.1717,37039.116,39730.2657,5670.771,50231.2034,43577.3134,55811.0029,1025.4532,-464.0669,26493.9666
57272.7174,28528.0645,54282.7696,42766.3922,37047.2968,39734.7808,5673.9002,50249.0848,43588.534,55813.5509,1034.8409,-457.9425,26498.5263
57260.8262,28519.5708,54279.5956,42760.9831,37032.9022,39729.9081,5670.4134,50240.3677,43578.5204,55806.1302,1024.4697,-471.9347,26492.849
57236.5522,28504.9081,54277.9416,42746.7674,37011.3999,39720.1627,5662.8585,50208.8964,43557.1522,55795.8484,1002.2968,-490.3525,26485.16
57240.9779,28503.3882,54273.6501,42744.6216,37016.4514,39715.2901,5658.254,50203.979,43558.0909,55793.4791,1001.4027,-488.922,26484.7577
57262.9273,28513.8041,54274.4547,42761.609,37047.7438,39730.0869,5663.7526,50236.5679,43584.0189,55802.4198,1025.9449,-473.2311,26496.1123
57269.454,28524.8458,54281.0708,42769.3427,37056.0139,39738.0441,5668.5805,50246.9838,43595.6866,55808.6336,1041.0547,-464.5139,26503.0414
57253.2713,28520.2861,54279.8191,42760.8043,37034.0645,39729.9975,5665.2725,50234.6009,43581.4261,55803.2691,1023.9333,-471.8006,26498.9734
57238.8768,28510.7195,54279.9532,42751.1036,37016.7643,39721.4592,5661.875,50215.7807,43564.26,55794.1049,1004.532,-482.7976,26493.2066
57245.0906,28510.2278,54284.513,42754.5458,37016.9878,39727.4941,5662.2326,50221.8604,43565.7352,55793.4791,1007.3036,-481.4565,26494.8159
57250.9915,28519.2579,54285.4071,42761.9666,37037.3279,39730.534,5664.1549,50241.0382,43583.5272,55801.8386,1025.7661,-468.5819,26498.0346
57261.0945,28525.2929,54283.3954,42775.5117,37055.2093,39735.496,5667.8206,50264.5522,43587.8634,55810.377,1035.735,-459.2836,26500.8062
57249.248,28520.0626,54281.339,42772.2037,37037.1938,39729.6399,5666.703,50244.1674,43568.5962,55797.413,1025.3191,-468.7607,26494.6818
57239.6368,28512.4183,54286.6588,42776.9423,37020.877,39731.2045,5667.91,50221.771,43562.1589,55795.446,1016.3784,-477.8355,26494.3689
57240.0838,28505.7575,54287.4187,42772.8742,37025.0344,39730.8022,5666.7477,50227.3142,43567.7022,55799.3799,1012.6233,-475.511,26494.9948
57260.8262,28513.7594,54286.5247,42782.2173,37052.3483,39739.877,5667.5524,50247.5202,43583.1249,55803.9397,1027.5543,-464.5586,26499.331
57269.6775,28518.4085,54284.513,42787.2241,37065.1335,39740.4581,5669.5193,50256.4609,43592.8702,55807.1136,1034.8856,-457.406,26500.1357
57254.3442,28513.9829,54284.96,42779.1327,37047.6544,39737.3289,5670.2346,50243.4969,43582.812,55805.3702,1020.2676,-468.4478,26494.4583
57237.1334,28511.703,54289.8327,42765.9899,37019.4465,39732.1433,5670.9051,50220.4299,43574.9888,55801.9727,1002.4756,-481.5012,26489.228
57241.7378,28508.8867,54291.7103,42761.5196,37024.3639,39728.3882,5667.9994,50221.3687,43582.4543,55802.7327,1006.3648,-477.7014,26490.5244
57262.1673,28509.7361,54290.5033,42776.7187,37053.8682,39735.0937,5669.4299,50247.0732,43591.9315,55809.2147,1021.6534,-467.9114,26492.9384
57264.8495,28510.5407,54289.6986,42783.9607,37062.6301,39737.5971,5668.1335,50261.2442,43598.6817,55816.2779,1027.6437,-462.1893,26496.8276
57252.7349,28502.5388,54286.0329,42772.8742,37041.083,39729.2823,5662.4115,50239.2054,43589.6069,55815.3838,1013.8303,-472.5605,26495.0395
57230.4726,28492.8828,54281.652,42761.3407,37015.0656,39722.845,5657.6729,50214.4396,43567.5681,55812.791,999.9275,-485.301,26491.0161
57234.3618,28494.3134,54285.9435,42763.1289,37015.5126,39731.428,5658.3881,50233.0363,43572.5302,55814.8026,1004.8896,-482.0377,26495.4865
57257.5629,28503.1199,54285.4965,42776.987,37047.9673,39740.9499,5664.9595,50258.2043,43593.6749,55821.3741,1028.0907,-466.9726,26503.0861
57260.2004,28507.5456,54278.9251,42776.3164,37062.2277,39740.5475,5666.5242,50262.7194,43602.7944,55825.7103,1036.4503,-464.2457,26505.053
57248.1304,28505.6233,54282.5013,42768.2251,37050.3813,39741.2181,5664.5125,50250.873,43598.9946,55823.0728,1024.738,-474.1251,26503.2202
57234.6747,28501.5553,54280.8473,42759.2844,37027.6272,39735.0043,5661.0703,50232.9916,43582.9014,55814.4897,1007.7059,-486.3739,26496.4253
57241.3355,28509.0208,54281.5626,42763.7547,37035.8974,39736.1666,5663.7526,50238.0431,43587.7293,55814.0427,1009.807,-481.2777,26497.1405
57270.0351,28520.7778,54284.4683,42780.0715,37075.3706,39746.6719,5668.1335,50263.4346,43599.3969,55819.72,1029.2083,-467.509,26500.4039
57278.7523,28527.0363,54289.5198,42782.3961,37083.1043,39751.2764,5668.9829,50275.6834,43608.2482,55832.1476,1033.9469,-461.0717,26504.7401
57260.9603,28522.0742,54293.3196,42775.8247,37063.3006,39748.4154,5667.0606,50268.7544,43602.8838,55828.4372,1025.0062,-470.1018,26505.053
57235.3899,28508.842,54287.0164,42761.1619,37029.2366,39737.1948,5657.6282,50247.8778,43584.466,55813.5062,1000.9557,-491.1572,26493.4301
57239.145,28500.9295,54279.4615,42759.9996,37029.8177,39734.8255,5653.0237,50242.2899,43583.4825,55810.8687,997.5582,-492.0512,26490.3903
57262.6144,28511.6136,54275.3935,42772.0696,37056.8186,39740.5475,5652.6661,50268.5308,43596.7594,55819.8094,1014.9032,-480.3836,26493.2066
57269.8116,28519.0791,54273.5159,42772.3378,37064.9546,39741.5757,5650.2521,50276.354,43606.5942,55822.4022,1023.8886,-475.4663,26494.056
57255.6853,28512.5524,54271.1914,42759.7314,37039.2501,39736.4348,5646.6758,50253.4211,43599.4416,55815.0262,1010.2093,-484.7646,26486.9481
57235.2111,28499.3201,54269.3138,42749.4496,37010.9975,39727.9859,5644.6642,50229.9964,43582.499,55804.7891,992.2832,-499.6955,26482.2543
57240.7097,28497.979,54271.0125,42752.6683,37015.7808,39729.6399,5646.4523,50233.4833,43583.4825,55803.6715,992.462,-497.9968,26484.8471
57258.7252,28501.153,54271.102,42761.2066,37039.116,39733.4397,5645.6476,50267.458,43598.7711,55810.5558,1008.9576,-484.4069,26487.1269
57262.525,28503.567,54268.688,42762.5477,37048.1908,39728.9693,5644.7536,50277.7398,43607.5777,55817.7084,1012.221,-477.3438,26487.8869
57247.2364,28498.8284,54266.3634,42759.5973,37030.8459,39723.1579,5643.5466,50257.6232,43601.0063,55814.3556,1002.9674,-484.4069,26488.5575
57223.4988,28485.9538,54266.4081,42740.8218,37000.0005,39712.4738,5638.361,50231.6505,43583.6613,55803.0903,985.1754,-500.0979,26481.0473
57228.4162,28489.3513,54272.9795,42748.8238,37005.946,39718.8663,5642.9207,50239.7865,43591.5291,55806.3537,994.0267,-494.5993,26486.4564
57257.0264,28499.0966,54278.3439,42772.4272,37040.9936,39731.3833,5650.118,50274.387,43604.0014,55816.5014,1019.8653,-477.7461,26495.3524
57269.0517,28500.1695,54280.4003,42782.3961,37058.0256,39736.5689,5648.2852,50294.2801,43614.5067,55822.3128,1027.6884,-472.4711,26497.4982
57255.6853,28496.9062,54278.6568,42773.366,37041.9323,39732.635,5647.704,50283.8194,43610.7516,55816.9037,1016.5125,-481.5906,26497.677
57233.0654,28498.6049,54276.6899,42766.571,37017.256,39728.1647,5646.8099,50262.9876,43593.362,55811.3158,1003.9508,-493.8394,26493.4301
57227.8351,28498.292,54276.6899,42767.0628,37014.842,39724.946,5649.358,50259.769,43591.6632,55811.8522,1006.2754,-492.6771,26493.3407
57246.8787,28504.2375,54276.5558,42772.0696,37037.9984,39728.6117,5651.325,50286.0993,43609.4999,55817.3954,1024.4697,-476.9862,26497.0511
57260.2898,28511.0325,54281.3838,42781.6808,37059.4114,39737.6418,5656.0189,50303.936,43629.0801,55828.0796,1038.0596,-461.6976,26502.4602
57255.0595,28503.5223,54283.0378,42777.6128,37048.9508,39734.0655,5658.8352,50282.1654,43610.5281,55827.722,1025.9002,-468.9842,26499.0628
57238.7427,28496.7721,54281.9202,42766.1687,37022.7993,39728.4776,5656.2424,50257.1315,43597.6535,55817.3507,1005.5155,-484.4069,26491.4185
57237.7145,28498.6943,54279.5509,42764.5594,37020.6535,39733.5738,5653.9178,50253.2423,43601.1851,55814.5344,1006.2754,-488.3409,26493.0278
57257.9205,28502.9858,54279.2827,42774.3495,37045.2851,39737.5524,5654.5883,50276.2645,43614.5514,55822.5363,1021.9663,-478.372,26497.0064
57269.1858,28501.1977,54276.1981,42779.088,37060.3949,39737.9547,5655.0354,50289.765,43629.2589,55829.8677,1027.4202,-472.784,26496.1571
57262.8826,28499.186,54276.1534,42774.2153,37040.4571,39740.1005,5652.9343,50276.1304,43607.6671,55821.4188,1011.2822,-483.7364,26493.296
57244.6436,28489.8877,54276.5558,42762.3689,37009.6117,39729.5058,5649.0004,50248.8166,43593.8984,55813.5957,993.4902,-500.5002,26487.8869
57243.6154,28485.4621,54275.6617,42753.4729,37005.499,39722.3979,5646.3182,50250.1577,43593.5408,55816.7249,993.222,-500.9025,26486.6352
57264.0449,28493.2852,54275.2147,42770.5944,37035.1821,39727.9412,5646.7652,50279.4832,43605.4319,55822.0446,1014.4114,-483.7811,26491.2397
57260.4239,28495.0733,54277.2263,42773.5448,37050.2025,39728.3882,5647.7487,50289.8097,43608.3823,55825.5762,1026.5708,-475.958,26492.7596
57244.0177,28487.0267,54277.584,42765.0511,37035.2268,39719.671,5647.4805,50282.1654,43599.8887,55827.5878,1015.9314,-480.473,26492.5808
57225.8681,28479.9635,54279.2827,42752.3106,37012.741,39705.8129,5643.636,50258.249,43588.7128,55818.2895,997.9606,-498.0415,26487.0822
57228.1927,28484.1657,54278.3886,42751.7295,37014.7079,39716.05,5645.5135,50266.8768,43593.4514,55816.5908,998.05,-496.5663,26485.0706
57254.8807,28494.0451,54278.031,42768.3145,37042.8711,39726.4659,5649.671,50309.9263,43608.6953,55820.7482,1014.2326,-478.1932,26490.5244
57262.6144,28498.6049,54282.7249,42778.6857,37055.5222,39728.6117,5651.5932,50330.1322,43624.5203,55829.5101,1022.4581,-471.577,26493.3407
57249.4715,28495.0286,54281.8308,42773.4107,37038.4455,39726.1977,5657.36,50321.1915,43611.2434,55822.1787,1010.6564,-481.2777,26492.3126
57230.0255,28484.4339,54273.4265,42757.9433,37008.4494,39720.5651,5650.3415,50291.8214,43591.7079,55809.4382,992.9985,-496.5216,26486.3223
57236.7758,28482.9587,54276.8687,42760.8937,37012.428,39722.6661,5650.2521,50290.0779,43599.7993,55813.0145,998.8546,-493.3476,26487.1716
57259.0381,28488.5913,54277.3604,42778.1492,37033.841,39728.6564,5655.9294,50308.5405,43618.8877,55821.9105,1018.8818,-477.3885,26493.8772
57269.0964,28490.9159,54279.3274,42788.1181,37047.565,39732.2327,5658.4328,50319.2693,43622.8216,55822.4469,1032.0246,-469.2972,26496.5594
57249.6057,28483.4504,54273.8289,42776.5399,37034.4669,39729.1481,5652.6661,50298.3034,43612.2268,55813.0145,1017.4066,-480.473,26492.089
57229.5785,28476.119,54271.7725,42760.5808,37011.981,39715.7371,5648.1957,50265.8933,43594.3007,55805.7725,996.843,-498.0862,26487.5293
57234.4959,28477.8178,54277.4498,42754.814,37005.1414,39714.9771,5644.2171,50261.9594,43593.2726,55809.3041,993.4455,-498.9356,26487.7081
57258.2781,28489.9324,54279.8191,42769.7897,37036.2103,39725.706,5644.4407,50292.4025,43607.3095,55814.8026,1010.8799,-485.5245,26491.642
57276.9642,28497.0403,54274.5888,42772.1143,37045.0616,39727.7623,5641.1773,50309.5686,43608.9188,55813.9086,1016.9148,-480.9648,26489.8539
57261.1839,28494.2687,54269.2244,42764.2912,37021.7711,39727.0918,5636.1258,50295.5765,43597.2512,55805.1914,1001.5815,-494.0182,26484.3106
57240.8438,28487.0267,54267.4363,42756.2445,36996.2007,39721.4144,5631.2084,50275.3705,43589.8304,55801.7492,985.98,-506.1328,26480.6896
57244.6883,28490.2006,54267.8386,42754.1435,37001.2522,39724.4096,5631.0296,50276.2198,43587.2823,55801.1681,983.4766,-506.7587,26478.1415
57271.9127,28496.1462,54269.3138,42769.7897,37032.3211,39741.6651,5636.2599,50306.7523,43600.1122,55806.2196,1002.6097,-490.8442,26483.0142
57282.2392,28504.5505,54275.5723,42780.2503,37049.9343,39747.6554,5641.7137,50321.6833,43612.4504,55814.7132,1020.8488,-477.4779,26490.3009
57270.0351,28506.875,54275.2147,42775.8694,37031.5164,39749.6223,5640.9091,50320.7445,43602.0344,55810.1982,1014.7244,-483.5576,26489.4515
57247.7728,28500.1695,54272.756,42766.3028,37004.1132,39743.2297,5636.2599,50301.5667,43589.6516,55803.4927,996.8877,-499.5167,26486.6352
57244.8671,28502.5388,54269.9397,42763.4865,37014.9761,39737.3289,5633.7118,50294.3248,43588.7128,55799.4694,996.4854,-498.1309,26486.0988
57267.5318,28508.6632,54271.9513,42770.1026,37044.8381,39746.8954,5636.7964,50320.1187,43603.2414,55807.6054,1015.0373,-478.9531,26491.195
57278.9311,28507.3668,54274.0971,42775.5117,37052.2588,39750.0694,5643.636,50334.3791,43611.154,55817.2166,1026.4367,-471.3088,26495.8441
57269.1411,28506.6515,54274.5888,42770.9073,37040.9936,39746.6272,5650.7885,50324.4102,43606.1025,55818.6918,1019.7759,-478.6849,26494.503
57238.5639,28498.8731,54270.2526,42756.6469,37018.7759,39737.7312,5646.944,50291.1508,43582.2308,55801.0787,999.1229,-500.0085,26485.4729
57232.216,28500.8401,54269.2244,42755.0375,37020.5641,39733.5291,5645.5582,50282.1654,43567.8363,55797.86,999.9275,-504.3447,26484.2212
57249.8739,28512.1053,54272.1301,42765.4535,37052.2141,39737.3289,5651.0121,50304.6066,43568.3727,55801.5257,1018.7477,-490.8442,26489.4515
57249.2033,28518.2297,54267.7939,42769.1191,37064.9546,39732.188,5651.772,50306.5735,43560.9967,55803.6268,1023.1733,-485.301,26489.1386
57220.7272,28507.0091,54264.5752,42755.127,37041.3512,39718.9111,5649.8945,50275.1917,43551.3854,55802.8668,1007.84,-490.7101,26488.1998
57199.8954,28505.8022,54271.6384,42742.9676,37008.7624,39710.8197,5653.1131,50239.4736,43535.0686,55797.7259,991.3892,-503.0036,26487.1716
57200.9236,28513.357,54274.8123,42743.4146,37014.7973,39713.2337,5659.7739,50227.5378,43525.9044,55799.6482,996.4406,-499.6061,26487.2164
57213.3958,28520.1967,54275.2594,42760.2679,37047.6097,39724.9907,5667.7759,50246.2238,43537.9744,55807.2925,1016.8254,-479.9813,26493.9666
57219.8778,28524.9799,54272.3089,42761.8325,37058.6962,39719.6263,5665.7642,50250.6942,43538.8237,55808.9912,1024.5144,-476.5838,26495.0395
57215.0499,28520.9566,54276.6452,42752.7577,37046.5368,39707.1093,5661.6962,50232.321,43528.1396,55805.2808,1015.9314,-485.7928,26493.3407
57182.5057,28510.3172,54276.6899,42736.8879,37012.2492,39693.3407,5658.0305,50193.2502,43509.4535,55794.1496,994.6078,-503.4059,26485.8305
57181.7905,28507.6797,54272.6219,42732.1494,37005.8119,39688.2445,5657.6729,50175.8158,43498.2777,55789.4558,989.8692,-508.4574,26482.2543
57198.6437,28518.185,54270.4314,42745.2028,37028.8342,39692.2231,5659.9081,50188.6457,43505.4749,55798.5306,1009.2258,-496.611,26486.7246
57198.2414,28518.0509,54266.6316,42754.1882,37037.5514,39694.19,5659.461,50191.9538,43504.4467,55796.4742,1014.1879,-491.1125,26485.3388
57181.0752,28508.2161,54258.1826,42745.2922,37013.0986,39687.2163,5651.5038,50176.8887,43484.4643,55787.1759,995.7254,-504.3894,26477.6051
57159.8858,28498.6049,54258.1826,42726.8296,36977.2911,39675.5934,5646.4523,50149.8431,43463.2301,55778.7716,973.9101,-525.9365,26469.2456
57149.7381,28501.5106,54257.1545,42725.0415,36967.4116,39671.7042,5643.5019,50140.4554,43460.235,55778.0564,971.4514,-523.4778,26468.7091
57173.7885,28509.5572,54257.5568,42739.9278,36998.2123,39683.3718,5646.2288,50164.8635,43481.5139,55786.6395,995.8148,-504.6576,26473.85
57185.0538,28518.9897,54257.4227,42746.4545,37004.6049,39682.7906,5647.6593,50172.9101,43487.7723,55785.2536,1005.5602,-497.6839,26474.6994
57175.979,28510.1384,54254.2934,42744.4428,36990.5233,39678.6332,5644.2171,50152.0783,43476.1494,55778.5928,997.1112,-505.1941,26472.5983
57154.879,28494.4475,54246.7386,42732.6411,36960.7061,39663.6575,5642.5184,50119.5788,43456.2117,55769.9651,980.705,-525.4447,26465.5352
57151.0345,28493.1958,54248.1244,42736.2621,36964.0142,39669.6031,5645.7371,50106.7042,43461.1738,55769.518,986.4271,-524.3272,26468.7091
57175.6661,28501.2871,54256.3498,42753.7411,36988.3329,39678.5885,5649.4027,50120.6964,43476.6412,55781.4986,1003.6379,-506.4011,26478.5886
57187.9148,28512.6418,54258.0932,42762.9054,37003.4426,39677.2921,5651.6826,50125.6585,43486.4759,55783.3761,1010.5669,-494.957,26482.6119
57179.9576,28507.9032,54257.6462,42752.1318,36983.5496,39669.1114,5646.0053,50111.2193,43476.4177,55776.6706,1003.7273,-505.1047,26477.1581
57160.4669,28495.2074,54255.0087,42738.3631,36946.6692,39660.6177,5638.2269,50083.3243,43455.8988,55766.21,979.3639,-522.4943,26467.815
57158.187,28490.1112,54253.1312,42735.0104,36948.7256,39654.2251,5636.2599,50074.5177,43459.5644,55766.4335,980.1686,-523.9248,26466.9657
57177.946,28493.464,54255.5004,42743.1911,36980.3756,39659.5448,5640.9985,50103.4856,43476.9094,55777.8329,998.1394,-511.229,26477.471
57192.2511,28495.7439,54258.3615,42743.1911,36988.7352,39663.5234,5641.982,50111.8898,43472.5732,55783.9572,1009.1364,-503.853,26481.5837
57180.6729,28493.2405,54257.9144,42735.5915,36976.1735,39661.333,5641.7137,50088.197,43462.4255,55778.861,998.944,-507.3398,26475.4593
57173.878,28495.2521,54263.3682,42724.9521,36953.5536,39663.5681,5646.8993,50066.7393,43452.9483,55776.0894,983.4319,-512.3466,26473.3136
57186.6632,28496.7273,54267.7492,42720.3029,36956.6381,39668.3514,5647.8828,50062.0008,43461.2632,55777.9223,983.6107,-511.8549,26476.6663
57214.9158,28508.8867,54270.789,42742.2971,36985.9189,39682.433,5653.5155,50089.0911,43482.2291,55779.5763,1008.6,-490.3078,26485.607
57228.5503,28512.0606,54272.756,42752.5342,37004.4708,39687.2163,5660.4892,50106.4807,43485.8948,55788.7405,1020.7146,-477.8355,26491.5526
57217.285,28509.0208,54274.5441,42748.9579,36992.4456,39681.4495,5659.8634,50087.75,43482.0056,55796.1613,1017.8536,-484.0046,26490.5244
57205.3045,28501.1977,54272.6666,42736.1727,36969.7809,39673.6711,5655.7059,50075.1436,43472.0367,55784.0019,1006.186,-497.8627,26486.0988
57209.3725,28499.6331,54266.9445,42729.8248,36965.3553,39676.4874,5652.532,50077.6917,43471.1874,55778.3246,1004.979,-498.1756,26483.8189
57223.0518,28511.8818,54268.8668,42736.0386,36991.1939,39687.4845,5657.5835,50102.2786,43486.163,55794.0155,1017.1831,-484.3175,26488.1998
57235.8817,28517.2015,54266.8551,42745.9627,37002.9956,39693.1618,5659.5504,50115.3767,43498.0094,55799.2905,1024.425,-482.1271,26489.7645
57228.5503,28509.1102,54263.9494,42738.8996,36986.3659,39685.7858,5654.0966,50118.9083,43489.4264,55790.7969,1011.3269,-494.644,26483.1483
57210.5795,28500.4824,54262.206,42723.3875,36960.0803,39679.7061,5653.1578,50089.2699,43476.82,55783.5102,992.8197,-500.9025,26480.2873
57210.4007,28489.1278,54260.239,42724.1027,36959.0074,39676.3086,5650.6991,50082.2067,43480.4857,55783.2867,990.7186,-499.8296,26481.0473
57221.1742,28489.1278,54257.5121,42735.815,36981.8509,39671.0336,5649.8945,50102.5021,43498.1436,55790.2604,1005.3366,-486.8656,26484.3553
57226.941,28483.9869,54257.7356,42740.2854,36990.1657,39667.0103,5651.9955,50115.7343,43507.6654,55796.3401,1019.7312,-479.4449,26483.0142
57217.3297,28470.7993,54257.1098,42727.8131,36970.3621,39660.0366,5647.6146,50102.5915,43493.3156,55789.1876,1006.7672,-492.0065,26479.125
57188.9877,28460.6516,54251.5665,42718.336,36947.8762,39654.3145,5643.1442,50064.2359,43469.131,55775.7765,985.4883,-511.7208,26475.7723
57183.3998,28467.3572,54254.8299,42724.7733,36950.5584,39661.5118,5641.8926,50063.6101,43470.9191,55774.1672,988.4387,-510.2456,26477.8286
57207.3162,28470.2629,54250.896,42727.7237,36976.1735,39667.9044,5641.5349,50096.0648,43489.4711,55779.2634,1003.9955,-499.6955,26476.6663
57225.0187,28482.3328,54252.103,42741.2689,37000.224,39677.605,5646.8546,50120.16,43505.2514,55789.6346,1019.6865,-485.8822,26482.5225
57209.8196,28477.2813,54244.5928,42741.2689,36981.4932,39677.9627,5643.636,50108.5371,43489.8287,55782.1244,1010.7458,-494.6887,26481.0473
57187.6019,28473.0345,54237.619,42732.507,36962.0472,39670.7207,5641.5796,50086.9006,43473.4225,55770.5015,989.4222,-511.3631,26474.2076
57193.1005,28475.225,54237.5743,42733.0881,36964.9529,39673.7605,5643.0548,50085.9618,43476.3283,55771.5297,989.1987,-510.6926,26469.5138
57209.4172,28474.2415,54237.932,42741.7159,36984.2649,39680.4661,5639.9703,50108.4924,43484.5984,55778.6375,1006.0519,-499.4273,26471.3466
57210.2666,28475.1356,54236.3226,42745.471,36989.9869,39678.9461,5637.5116,50119.2659,43490.1863,55773.586,1010.2987,-496.7451,26472.6877
57199.806,28471.2464,54230.7347,42737.782,36970.1833,39672.5982,5630.3144,50106.3019,43486.923,55762.9913,996.7983,-501.6625,26468.0386
57179.5106,28462.9762,54229.1701,42720.7947,36949.1726,39678.3203,5626.0675,50082.0726,43477.4011,55760.3985,983.6555,-513.9112,26464.7305
57180.1811,28456.3601,54226.3538,42719.0959,36948.1444,39685.6517,5624.9946,50081.8044,43471.5003,55756.1517,983.5213,-519.4545,26464.5964
57200.6106,28452.8732,54225.8173,42727.8131,36972.8655,39692.8489,5625.8887,50112.2922,43489.9181,55761.4714,1000.8216,-506.5799,26472.643
57206.735,28448.1347,54224.1633,42732.7752,36986.5447,39698.3922,5623.43,50127.4467,43501.3175,55765.2712,1009.7176,-498.9803,26475.4146
57196.2744,28434.0531,54218.3071,42728.0366,36967.2328,39692.8042,5621.2395,50107.9559,43491.5721,55757.5822,997.0665,-503.7636,26467.9939
57176.1131,28422.8325,54215.7143,42709.5294,36941.2154,39679.4826,5618.4679,50076.5741,43475.7918,55743.3665,975.6535,-523.9695,26457.6674
57164.4902,28418.3621,54208.9641,42702.7345,36937.3262,39675.504,5610.913,50070.5838,43468.4157,55734.7387,973.8654,-530.9433,26450.8724
57172.8498,28412.3719,54202.8844,42708.1883,36958.8733,39677.158,5606.1298,50099.2388,43478.3399,55742.6959,991.7021,-521.5555,26453.3758
57177.8119,28407.9462,54199.8893,42708.9483,36976.1288,39671.0336,5604.1628,50110.1464,43476.7306,55744.4841,998.5864,-513.6877,26453.957
57168.5135,28408.3486,54193.7202,42706.4449,36962.6731,39662.0035,5601.7041,50097.3165,43463.5431,55740.3713,983.4319,-521.5108,26445.508
57145.3124,28401.5983,54193.0944,42692.9891,36931.023,39657.8014,5597.9043,50078.4069,43456.2117,55735.0069,963.2707,-535.816,26440.5012
57129.3533,28391.4506,54185.7183,42686.7753,36921.0988,39651.8111,5591.8694,50068.9745,43457.5081,55734.3811,962.4213,-540.5098,26440.4565
57136.4164,28391.6742,54181.1138,42683.9143,36941.3495,39641.8422,5585.2085,50084.3972,43461.889,55735.4093,974.8489,-534.6984,26442.0658
57155.9072,28399.1843,54183.2149,42686.9094,36952.3913,39639.6965,5585.4321,50099.2388,43468.2369,55740.0137,976.2794,-534.7431,26440.5906
57153.2249,28404.1017,54183.796,42689.3681,36949.6197,39638.7577,5595.1774,50095.7966,43465.1971,55739.3879,971.6749,-536.0842,26441.1271
57142.2279,28401.3301,54183.8855,42679.9357,36931.5594,39632.5439,5598.3514,50080.508,43455.0047,55738.4938,963.0919,-546.813,26440.3671
57138.0705,28407.0075,54183.0361,42679.2204,36928.3408,39632.991,5594.9539,50071.8355,43455.407,55741.4889,960.499,-549.8081,26438.579
57156.9353,28416.2164,54182.3655,42685.8366,36945.1493,39638.8471,5596.8761,50086.0959,43472.8861,55742.5171,974.8042,-537.2465,26440.7694
57172.1792,28421.7149,54186.1206,42691.2904,36969.9597,39646.6255,5600.9442,50113.9909,43478.0717,55750.519,980.0345,-528.3505,26445.955
57166.7701,28421.7596,54190.0545,42694.4196,36967.9481,39647.9219,5608.8567,50112.2922,43470.6062,55750.4296,970.3785,-529.9151,26446.0891
57152.6885,28419.9715,54193.2732,42685.3895,36944.6576,39647.2067,5609.259,50088.5993,43468.3263,55749.312,959.0685,-538.1852,26443.4516
57155.1472,28425.3359,54203.9126,42689.5022,36940.679,39653.5993,5613.9976,50099.9987,43484.9113,55757.5375,961.0355,-532.6867,26451.3195
57184.5621,28436.1988,54213.9709,42708.5459,36981.5826,39670.4525,5625.9781,50139.3825,43506.2349,55769.2945,982.672,-509.8432,26462.853
57201.9517,28440.7139,54217.9048,42716.1455,36998.3464,39682.2989,5633.98,50150.2901,43510.5711,55772.1555,993.982,-496.9686,26466.161
57191.5805,28442.3679,54219.1118,42708.1883,36984.2201,39677.6497,5633.2648,50129.9053,43508.3807,55771.4403,989.3775,-504.3447,26464.8199
57165.8313,28434.813,54215.0885,42692.095,36959.7226,39664.7751,5622.5359,50098.4341,43490.0075,55758.6104,970.4232,-528.7975,26454.851
57163.015,28437.0482,54215.4908,42691.8715,36949.5749,39665.5351,5619.4514,50093.1144,43488.1747,55754.2294,966.8469,-534.1619,26454.1358
57177.6778,28444.7372,54214.9544,42702.6898,36971.5244,39672.1512,5619.5408,50117.7907,43505.6537,55760.9349,985.7118,-515.4312,26456.8627
57184.875,28447.2853,54211.3334,42709.7529,36991.5515,39674.1182,5614.2211,50137.2367,43508.9171,55761.9184,995.6807,-507.5634,26456.9074
57173.4309,28438.7469,54207.9806,42705.819,36977.3358,39668.0832,5610.1531,50128.0725,43503.8656,55758.1633,984.4154,-519.9909,26453.197
57155.6836,28433.0249,54205.6113,42693.5703,36944.7917,39663.4787,5605.6827,50103.3515,43491.0804,55746.5851,963.9859,-536.263,26446.0891
57156.8459,28434.3213,54209.59,42695.9842,36945.7752,39668.2173,5605.7721,50100.714,43483.4808,55756.9116,963.0024,-535.1901,26447.5644
57179.4659,28441.6527,54212.1381,42709.2165,36971.6585,39675.8169,5613.0141,50125.7479,43489.9181,55761.9184,982.9849,-520.1697,26451.0512
57192.9216,28447.33,54211.4228,42715.475,36983.1026,39679.7061,5616.6798,50148.3232,43501.2281,55765.5841,995.5466,-512.8384,26452.7947
57190.0606,28450.191,54218.5754,42724.4604,36980.4651,39680.6449,5623.2512,50138.8013,43499.5294,55765.2712,992.1491,-516.9511,26450.6489
57179.2424,28450.0122,54224.3421,42720.437,36961.6002,39678.9908,5623.0724,50123.0657,43489.337,55763.3042,977.3523,-526.0706,26448.8608
57182.4163,28456.986,54231.4947,42725.4885,36965.0424,39689.0044,5630.4932,50127.849,43492.4215,55770.9932,981.2862,-522.9861,26455.7004
57208.7914,28466.2396,54235.7862,42738.989,36994.5467,39693.9218,5637.8692,50151.4077,43513.1192,55781.1409,1000.0616,-504.4341,26464.1941
57223.6776,28474.1074,54233.2828,42746.0521,37010.6399,39695.0394,5639.3892,50170.2279,43527.8267,55782.3479,1011.6845,-495.5828,26468.2174
57211.0265,28470.2629,54234.9368,42736.128,36993.6079,39693.6983,5640.0597,50151.4971,43520.8082,55776.8494,1001.9839,-501.7966,26465.0881
57188.0937,28456.7177,54229.7959,42718.2913,36967.2328,39684.5341,5633.1307,50124.8538,43502.4798,55764.4218,978.8722,-523.1202,26460.8413
57186.3949,28447.8664,54229.6618,42715.8326,36969.3339,39682.2989,5630.0014,50127.1784,43500.4681,55767.6405,976.637,-520.885,26462.6294
57207.3609,28464.5855,54237.5743,42733.7587,37001.8333,39691.4631,5633.6224,50163.7459,43513.7004,55776.6259,1000.8663,-497.371,26469.782
57220.6378,28470.0394,54238.1555,42736.6644,37014.2609,39694.5924,5636.7517,50176.9781,43522.5964,55782.3032,1006.4095,-493.0347,26473.8947
57216.6145,28468.0724,54231.897,42728.5284,36996.1113,39691.9101,5633.9353,50162.1813,43521.0764,55779.621,996.8877,-506.0881,26468.3068
57196.8108,28470.3523,54233.7298,42726.1144,36977.3358,39686.3222,5634.9635,50139.8295,43513.5216,55773.2731,986.0694,-517.0405,26466.6528
57192.6087,28472.4087,54236.9932,42724.4157,36983.8178,39690.6585,5635.947,50133.884,43518.7966,55777.9223,985.7118,-509.1727,26467.9492
57218.2685,28477.4154,54239.6307,42734.0269,37010.1035,39699.018,5641.5349,50156.3698,43537.885,55788.5617,1001.9839,-492.99,26474.1182
57228.0139,28483.3163,54242.5811,42741.3136,37020.5194,39702.8178,5644.4854,50173.8042,43540.4778,55793.345,1009.3153,-492.5877,26474.6994
57216.838,28483.0928,54243.7881,42736.4409,37004.1132,39698.9733,5641.4008,50172.1948,43535.8733,55793.345,998.2735,-501.9307,26469.9161
57192.3405,28471.2017,54239.0943,42718.336,36977.0676,39681.3154,5633.7118,50144.7469,43524.6974,55784.7619,970.6914,-519.0969,26462.2718
57197.2132,28472.4087,54239.1837,42719.0512,36982.5214,39685.6964,5632.773,50139.2037,43521.7917,55783.7337,974.8042,-522.2261,26465.3116
57222.8283,28480.3659,54240.6589,42727.7684,37009.2541,39694.7265,5635.7682,50163.7012,43540.5672,55792.2721,993.4455,-504.9706,26469.1114
57239.905,28487.0714,54245.621,42738.1396,37026.0626,39700.6273,5640.5962,50187.3493,43550.849,55802.0622,1002.6097,-495.1805,26475.3252
57231.9925,28486.8032,54250.3148,42732.9987,37016.2278,39701.2085,5643.189,50176.2629,43548.2115,55801.6151,995.5913,-502.333,26473.2689
57210.4901,28480.0529,54252.55,42727.7237,36991.9538,39697.9451,5646.3629,50151.9889,43536.9909,55796.9213,984.8177,-511.229,26470.8549
57220.8613,28488.9936,54256.4839,42730.2718,36993.4738,39702.0131,5652.4873,50164.5058,43531.8053,55795.2672,986.1588,-506.4458,26473.85
57250.2315,28499.946,54260.3284,42744.5322,37022.4416,39709.5233,5656.6,50203.7555,43551.8771,55807.4266,1003.1015,-485.6139,26484.4
57260.8709,28506.875,54263.5918,42753.4729,37044.2569,39718.6875,5663.0373,50229.46,43571.4573,55819.0495,1015.2608,-474.1251,26491.5973
57251.8855,28500.4824,54264.7988,42748.1085,37034.0645,39716.1841,5660.5339,50227.3142,43563.3659,55809.7959,1007.9741,-486.5974,26488.8704
57234.7194,28499.186,54267.3022,42745.2922,37009.7011,39712.6079,5660.9362,50202.4144,43550.6254,55809.5723,993.8926,-499.025,26486.4564
57232.2607,28503.2094,54271.102,42746.5439,37006.4825,39718.464,5664.6466,50202.6826,43562.4719,55819.0495,997.9159,-494.0629,26490.1668
57241.2908,28508.9314,54270.9678,42751.4613,37030.5777,39722.2191,5659.5504,50223.2462,43576.777,55821.0164,1010.3434,-479.4896,26492.5361
57258.144,28516.7098,54272.756,42763.4865,37049.6213,39728.9693,5661.9644,50241.3064,43586.0753,55819.5412,1018.0324,-473.9016,26494.4583
57251.1256,28508.3503,54269.7608,42759.7761,37042.5582,39723.4708,5657.6282,50230.3541,43588.1764,55809.9747,1009.047,-484.6752,26487.7975
57226.7622,28496.6379,54267.3022,42746.4545,37014.3056,39712.5185,5652.2191,50200.0451,43576.1958,55799.2905,994.1161,-500.1426,26478.0968
57222.8283,28501.2424,54269.4926,42752.8918,37012.1151,39719.0452,5654.4989,50199.1063,43570.3844,55797.1448,996.3512,-500.4108,26477.1134
57244.3306,28510.7642,54273.2924,42763.71,37042.0665,39733.6185,5658.9246,50229.3259,43583.9295,55802.3304,1018.2559,-483.647,26485.6517
57247.9069,28510.049,54267.9727,42766.2134,37051.8118,39731.1151,5653.3813,50239.7418,43590.6351,55803.5374,1026.6602,-475.1533,26487.8422
57240.7544,28510.3619,54269.5373,42763.3524,37038.9819,39727.4047,5653.2025,50229.3259,43580.6215,55805.0573,1014.5009,-484.8093,26485.607
57229.2209,28502.0024,54266.0505,42754.3223,37021.0111,39720.6545,5652.4873,50206.1695,43559.7897,55793.5238,995.6807,-502.6907,26476.6216
57224.3929,28495.4756,54263.8153,42753.5623,37021.8158,39720.5651,5653.6943,50203.6661,43569.9821,55795.7143,996.2171,-500.9472,26478.5886
57250.4997,28501.0189,54266.8551,42770.9967,37052.7953,39733.7526,5657.6282,50233.1704,43582.9014,55803.8056,1017.8536,-483.4235,26488.5128
57257.7864,28501.6,54264.3517,42776.2717,37062.4959,39730.8469,5655.5718,50249.3531,43594.8372,55807.8736,1025.4979,-479.4449,26491.195
57240.665,28495.2968,54262.9212,42772.2037,37048.4143,39723.5155,5655.7506,50240.3677,43591.1715,55803.1797,1017.8089,-485.5692,26487.3952
57228.9973,28491.05,54265.2458,42761.609,37017.7925,39723.6943,5652.1744,50213.5009,43566.4952,55793.2556,1000.8663,-497.8627,26478.9015
57229.8914,28491.2735,54266.0505,42762.1901,37019.8935,39726.6448,5656.2871,50207.3318,43569.7585,55794.999,1003.2803,-494.6887,26481.539
57250.6338,28499.6331,54268.5091,42770.0132,37044.0334,39730.3998,5658.0305,50235.4056,43590.4115,55811.584,1021.4746,-481.8588,26488.5128
57265.8777,28508.842,54273.6501,42779.088,37059.322,39733.0821,5657.9858,50257.5338,43597.5194,55816.0543,1028.5378,-476.405,26490.0774
57263.1061,28511.9265,54279.7744,42778.8198,37056.2822,39732.5009,5666.1218,50246.492,43594.0772,55817.3954,1023.3074,-477.3438,26489.8986
57241.1567,28499.0966,54281.2496,42766.2581,37034.7351,39732.9479,5666.3007,50218.5971,43588.087,55809.7512,1004.7555,-490.3525,26489.1833
57229.7573,28498.1579,54279.0592,42762.5477,37023.5145,39730.4893,5664.6466,50221.1004,43584.913,55804.9232,1000.8216,-489.9055,26488.0657
57259.0381,28502.8517,54279.7744,42775.02,37048.4143,39741.6651,5670.5475,50250.4259,43603.3756,55814.7132,1019.6865,-474.1699,26491.9549
57275.489,28507.7691,54280.2662,42783.3349,37062.8983,39745.599,5674.0344,50257.8914,43610.841,55820.48,1034.1704,-465.1845,26495.7994
57256.3559,28504.3716,54280.7132,42779.2221,37054.8069,39741.3522,5674.1238,50258.1596,43601.5874,55818.1554,1026.7049,-470.1465,26497.7664
57244.2859,28494.4922,54277.3604,42771.3543,37030.3988,39739.4747,5674.9284,50237.909,43587.9081,55808.9912,1011.014,-482.9317,26496.1123
57249.3374,28495.5204,54282.2331,42768.3592,37029.013,39739.7429,5677.6553,50240.5912,43597.2512,55814.445,1010.6564,-480.3389,26500.1357
57264.3131,28499.186,54281.4285,42769.7897,37051.4095,39744.2579,5675.5096,50268.352,43610.841,55820.9717,1025.632,-463.9775,26504.8295
57276.0701,28502.0918,54278.2098,42775.1094,37070.0061,39746.359,5674.3026,50282.2995,43618.0383,55827.0067,1037.7914,-456.7802,26505.3213
57269.7669,28507.7691,54280.892,42773.4554,37057.7574,39743.6321,5674.9284,50273.7164,43609.2764,55827.409,1028.9848,-462.0999,26504.3378
57243.3025,28495.9227,54278.6121,42763.4865,37025.4368,39730.8469,5669.4746,50249.5319,43595.1501,55816.1438,1007.3036,-476.9862,26497.2299
57248.3093,28493.4193,54277.8522,42766.124,37024.9897,39729.6846,5671.0839,50253.4211,43590.9033,55816.9484,1008.7788,-479.0425,26495.1736
57277.7689,28501.5106,54277.0028,42780.2503,37054.0917,39740.9946,5674.1685,50273.2247,43608.9635,55829.6889,1032.7846,-460.0435,26501.9685
57290.0176,28505.8022,54274.3206,42791.2027,37067.7263,39745.4649,5670.3687,50290.7038,43620.3629,55828.6607,1043.0664,-454.4556,26501.9238
57276.7407,28500.393,54271.9513,42780.6973,37058.0256,39740.9052,5667.3288,50286.6805,43614.9985,55822.8493,1027.6437,-462.7705,26499.6439
57255.9983,28491.5864,54266.6316,42765.9452,37032.634,39730.221,5661.428,50262.1382,43596.3571,55813.1039,1004.8002,-481.4118,26491.7314
57245.94,28492.5252,54264.5752,42762.5477,37020.4747,39727.1812,5656.3765,50249.9342,43594.0772,55812.4781,998.0947,-482.8423,26488.1998
57261.9885,28495.8333,54267.3022,42767.7333,37044.3463,39732.9032,5654.7225,50274.7893,43610.4387,55819.1389,1012.668,-474.2146,26489.0492
57269.9904,28491.4523,54262.3848,42772.6507,37061.1548,39733.842,5654.3648,50296.4258,43619.6923,55822.4916,1021.9663,-473.991,26488.6469
57259.6192,28482.7352,54261.7589,42764.1571,37030.1306,39732.5009,5651.5485,50275.5493,43609.947,55815.9202,1006.7672,-487.8044,26484.0871
57244.1965,28477.639,54264.4858,42744.1746,37007.6001,39725.0354,5646.2288,50249.7554,43596.7147,55804.7444,984.0578,-506.2222,26477.4263
57240.6203,28474.018,54264.7094,42739.6595,37005.3649,39726.4659,5645.9159,50247.9225,43593.5855,55803.7609,982.9402,-507.161,26475.9958
57267.8447,28487.9655,54269.6267,42760.402,37035.3609,39737.6418,5655.6165,50278.8574,43617.8595,55817.619,1009.1364,-483.0211,26487.9763
57287.3354,28507.5456,54277.6734,42783.6031,37064.4629,39754.6291,5669.3852,50305.4559,43633.5504,55827.5431,1032.0246,-460.0435,26498.6604
57270.3928,28505.3104,54279.5956,42777.3893,37053.4658,39746.7166,5670.5475,50292.4919,43620.7652,55825.6209,1023.978,-465.1397,26497.9005
57242.0508,28492.1229,54272.7113,42761.296,37024.3639,39731.8304,5664.7807,50263.6135,43595.8654,55814.3556,1002.2074,-481.1883,26488.3339
57243.5707,28489.4407,54270.1632,42766.2134,37024.5874,39734.5573,5663.4396,50259.6349,43596.8041,55813.0145,999.7934,-478.9531,26487.1716
57267.7553,28497.9343,54273.2924,42784.6313,37053.4211,39742.4251,5667.5971,50290.4356,43615.4902,55823.8775,1022.011,-460.3565,26492.2678
57276.6513,28500.393,54273.5606,42795.8965,37075.0129,39749.3988,5671.4416,50305.6794,43626.3978,55834.6957,1033.4104,-452.4887,26497.7664
57264.2237,28500.5718,54273.0689,42789.0569,37059.5455,39745.5096,5673.1403,50300.1809,43620.4523,55830.0912,1026.5708,-461.027,26497.0064
57249.8739,28491.3629,54273.2924,42771.1308,37023.3357,39739.2511,5666.0771,50272.5989,43606.3707,55819.8094,1005.2025,-478.9531,26486.4117
57244.1071,28490.8712,54271.6384,42762.4583,37021.4134,39731.1598,5660.6233,50259.0537,43600.3357,55817.0378,999.3911,-483.4682,26480.6002
57265.7883,28495.8333,54272.0407,42771.4884,37046.4027,39737.8653,5663.9761,50300.5832,43622.4192,55825.2186,1020.9829,-470.1465,26486.8587
57273.9691,28500.8848,54272.2642,42777.6128,37061.5125,39740.4581,5666.5242,50324.9913,43640.6136,55826.7385,1028.3589,-460.9376,26487.2164
57263.7767,28497.3979,54271.5937,42778.5069,37051.5436,39739.6535,5665.5407,50312.4744,43631.3152,55826.3361,1022.2793,-469.6101,26485.9647
57238.2063,28486.8032,54268.4197,42760.5808,37025.0344,39726.913,5658.254,50278.0527,43611.9586,55818.0213,996.4406,-490.6207,26478.231
57236.2393,28491.497,54270.8337,42756.1551,37016.5408,39729.1034,5663.082,50266.251,43610.1258,55817.5296,991.6574,-492.4536,26483.1483
57259.351,28502.0024,54277.4945,42770.3261,37043.8993,39735.049,5669.2064,50292.2237,43624.5203,55824.6821,1011.0587,-474.1251,26491.8655
57272.2703,28511.1219,54281.8308,42786.4194,37064.4182,39740.7711,5673.8108,50310.3286,43634.221,55827.722,1027.7331,-462.6364,26497.2299
57264.2237,28506.7409,54279.685,42783.6031,37054.1364,39741.978,5670.1005,50299.421,43624.6097,55824.3245,1019.6418,-467.062,26495.4865
57234.9876,28490.8265,54275.4829,42764.0229,37016.5408,39724.4096,5660.2657,50278.6785,43606.5942,55814.9368,999.3464,-485.2563,26485.4282
57233.5124,28484.0316,54275.6617,42755.8422,37013.4562,39723.9625,5659.6398,50280.1538,43609.2764,55818.513,997.3347,-483.6023,26487.3505
57262.7038,28493.8663,54275.6617,42774.0365,37048.2802,39733.8867,5665.6301,50306.35,43629.6165,55825.5762,1017.943,-463.9775,26494.2795
57273.2985,28499.0519,54276.8687,42778.0598,37063.9265,39741.1287,5668.8488,50332.5462,43634.8021,55831.8794,1026.3473,-459.9988,26498.9734
57267.2188,28503.7458,54278.2992,42770.8626,37051.4542,39737.6418,5666.0771,50335.899,43636.1432,55831.8794,1019.9994,-469.6101,26496.47
57247.2364,28491.1841,54274.857,42762.5477,37026.8226,39734.2443,5661.0703,50312.2061,43622.2851,55826.962,1000.8216,-483.9152,26489.228
57241.2014,28490.0218,54269.1797,42758.6585,37016.4514,39733.6632,5660.6233,50316.8553,43617.7254,55826.0679,995.5466,-484.2281,26486.0541
57263.2849,28505.1763,54272.0854,42778.7751,37047.9673,39748.0577,5666.6583,50350.0253,43638.8254,55837.6908,1017.8536,-467.1961,26493.6537
57278.0818,28511.7477,54275.3935,42790.6662,37069.1568,39750.6505,5668.1335,50359.9495,43654.9187,55846.4527,1029.7894,-460.4459,26499.9121
57266.8612,28500.4377,54272.4878,42782.0832,37052.393,39741.4416,5661.1598,50342.2469,43643.8769,55837.2885,1014.7691,-476.5838,26494.8159
57248.041,28491.3629,54274.8123,42776.4505,37028.3872,39734.1996,5663.529,50315.5142,43624.6544,55826.515,998.4523,-489.682,26489.8539
57237.8933,28484.7021,54275.617,42775.3776,37024.9003,39735.8984,5664.6466,50300.4938,43617.3677,55825.8444,999.8381,-485.1222,26488.0657
57261.3627,28491.6759,54279.2827,42784.6313,37059.1432,39748.6389,5666.9265,50328.8805,43630.3318,55833.8016,1019.8206,-466.8832,26496.6935
57276.1148,28501.8235,54282.6355,42795.9412,37073.9847,39749.8459,5670.3687,50342.5598,43634.8021,55832.3711,1035.6009,-459.5071,26497.1405
57261.0497,28497.2191,54278.2098,42787.8499,37060.3949,39739.2064,5665.2278,50326.9136,43621.7934,55825.0844,1022.2346,-473.991,26491.0161
57241.4249,28487.5631,54270.2526,42770.9073,37025.9732,39728.4776,5660.2657,50301.4773,43606.9518,55818.826,998.4076,-493.3923,26482.7013
57243.5707,28490.4242,54267.8386,42770.6838,37019.1783,39732.2327,5659.1928,50306.5735,43605.7001,55813.3721,997.2006,-496.9239,26481.5837
57268.2023,28499.186,54270.6549,42780.0715,37043.497,39742.9615,5657.7176,50331.5628,43622.0616,55819.8988,1012.2657,-482.2165,26485.6964
57285.1002,28508.9314,54269.6267,42787.6264,37063.7029,39750.5164,5655.4824,50345.9126,43631.494,55815.5626,1022.324,-470.9065,26484.2659
57276.2042,28518.4532,54273.4265,42782.1726,37053.1082,39751.7234,5656.6894,50335.6755,43623.0451,55820.5694,1016.1996,-480.473,26485.5176
57258.8146,28516.8439,54277.584,42770.6838,37021.2346,39746.8954,5655.9741,50316.0954,43606.4601,55825.3974,998.8546,-492.9453,26485.2941
57256.8029,28511.1666,54272.6219,42766.3028,37013.5456,39740.3687,5650.2074,50306.4394,43598.1005,55816.2779,995.6807,-494.1523,26482.299
57267.5765,28513.9829,54269.4926,42777.7916,37040.3677,39746.2696,5652.7108,50315.8718,43609.3211,55817.3507,1017.8536,-476.4497,26490.6138
57273.3879,28510.9431,54270.1632,42784.0948,37058.6962,39745.5543,5653.3813,50329.5064,43622.5981,55820.2565,1031.8458,-468.5819,26494.503
57267.5765,28508.6632,54268.8668,42781.4126,37050.0684,39747.2531,5652.8449,50324.8572,43617.323,55818.9601,1021.4299,-481.3224,26490.1221
57241.2908,28499.1413,54267.928,42768.1804,37021.4134,39735.809,5651.6826,50301.2091,43592.0656,55813.3274,1006.3648,-495.7616,26482.9695
57229.9361,28493.2852,54271.6384,42762.503,37014.1715,39736.2113,5655.393,50292.6707,43587.7293,55811.0476,1004.3979,-495.851,26484.9812
57243.5707,28495.2968,54269.8503,42769.9685,37038.5349,39738.67,5658.0752,50311.0439,43591.9315,55818.826,1019.6418,-479.9813,26489.675
57250.3656,28500.1248,54270.342,42774.2153,37057.1315,39738.223,5662.4115,50318.867,43595.1948,55821.7317,1024.2909,-470.3254,26494.7712
57238.0722,28502.2259,54269.895,42772.4272,37049.7108,39735.8984,5667.6418,50304.8748,43595.1054,55823.1622,1018.7477,-473.6334,26496.2465
57221.5319,28499.946,54271.2361,42765.4088,37026.9567,39726.3318,5670.1005,50268.4861,43575.8829,55822.0446,1003.9061,-485.301,26495.6653
57212.9935,28494.0004,54272.756,42757.1386,37025.9285,39718.0617,5671.218,50255.7904,43566.7187,55822.0893,1004.6214,-484.7646,26499.4651
57230.6961,28509.9149,54275.8852,42765.3193,37049.3531,39720.3416,5676.046,50271.7048,43578.9227,55828.5713,1023.978,-469.5207,26505.0083
57250.3656,28521.4484,54276.6452,42776.4505,37070.2744,39723.4708,5685.2996,50276.9798,43586.3435,55832.3711,1036.7185,-457.406,26505.4107
57242.8107,28528.9139,54279.7744,42776.5846,37068.9332,39722.845,5691.0217,50257.1762,43577.5816,55837.6908,1036.8079,-461.8317,26502.5049
57207.3162,28523.1471,54275.2147,42755.7528,37033.0364,39711.2668,5685.2996,50221.6369,43551.296,55827.4537,1013.2492,-482.1718,26491.4632
57188.4066,28524.8905,54270.2079,42745.1581,37018.9548,39700.5826,5683.3327,50204.8731,43533.9957,55816.3226,1007.5271,-490.889,26484.9365
57207.495,28538.0781,54270.2526,42755.2611,37042.1112,39702.2367,5687.6242,50216.5854,43546.6915,55817.9319,1022.8604,-479.8025,26491.2397
57224.7058,28542.459,54268.6433,42764.6041,37058.1597,39706.4388,5691.9158,50229.4153,43548.3009,55820.7929,1030.1024,-467.8667,26493.8325
57216.0333,28547.7787,54273.4265,42763.9335,37054.6281,39707.1093,5694.3744,50225.839,43534.0405,55822.6705,1021.3405,-470.1912,26494.6818
57189.3007,28539.2851,54271.8619,42753.5176,37027.806,39698.8392,5693.0333,50195.0383,43510.2582,55810.1088,1002.3862,-486.2398,26490.1668
57184.2492,28540.0003,54266.721,42750.299,37014.7526,39694.95,5693.0333,50183.9966,43507.9783,55804.6103,1000.2404,-487.1339,26490.5244
57207.2268,28546.7952,54271.0572,42764.2912,37035.2268,39709.9257,5696.252,50214.4396,43526.262,55813.9086,1024.5591,-464.4692,26503.4884
57224.8399,28550.0586,54274.41,42774.26,37048.6379,39718.6875,5697.2802,50226.4649,43535.6051,55819.6753,1040.1607,-454.098,26507.1094
57215.2287,28547.2423,54272.8454,42769.3874,37028.3872,39712.9655,5693.5698,50204.8284,43517.4108,55815.0262,1026.6602,-463.9328,26499.0628
57192.5193,28535.3959,54272.5325,42764.8723,36997.8547,39700.7167,5687.7583,50177.4251,43498.5906,55806.3984,1007.4377,-480.0707,26494.4136
57173.1627,28521.7166,54271.7278,42755.0375,36985.4718,39694.1453,5685.8361,50161.2425,43498.1436,55799.2905,1002.2968,-484.8987,26495.5759
57194.8886,28523.9965,54269.4926,42765.677,37002.4145,39704.5165,5688.3395,50174.5641,43510.9288,55803.1797,1024.425,-470.5489,26500.7168
57211.116,28531.5067,54271.102,42780.3844,37017.0325,39706.5729,5686.6407,50181.8508,43521.4341,55806.9348,1039.0431,-463.9775,26498.2134
57204.8575,28529.2268,54271.5043,42774.4836,37000.984,39700.4485,5684.182,50162.2707,43511.3758,55793.792,1025.3191,-470.4595,26491.0161
57182.9528,28519.2132,54272.4878,42764.2465,36972.7314,39694.8606,5681.0528,50127.5808,43499.6635,55786.9524,1009.1364,-485.7481,26486.9928
57173.118,28517.9615,54275.3041,42762.816,36963.2542,39695.3076,5683.4221,50112.6498,43493.7626,55792.0039,1006.8566,-483.9599,26488.9598
57199.9401,28524.8458,54277.0028,42777.7022,36989.674,39704.8742,5682.9304,50144.9257,43511.3311,55802.1069,1025.7661,-469.5207,26494.7265
57218.1791,28534.9041,54280.2215,42785.7488,37004.7837,39705.5,5684.0032,50158.605,43522.9093,55807.8736,1035.0645,-463.1281,26498.0793
57212.8594,28532.8478,54278.5674,42780.295,36997.0948,39694.5477,5684.1373,50135.6721,43502.8374,55801.2128,1024.738,-474.3487,26495.7994
57189.6583,28521.8954,54276.1087,42767.1969,36973.536,39687.0375,5678.8623,50106.3913,43488.3535,55790.0816,1008.3765,-490.576,26491.642
57188.049,28522.2977,54278.8357,42761.1619,36977.0229,39695.7099,5680.5164,50110.6828,43498.4118,55791.8698,1009.0917,-482.7082,26496.6935
57209.3278,28526.5893,54282.1437,42778.194,37008.5835,39708.9869,5685.8808,50134.6439,43521.6129,55802.6433,1029.2083,-464.2457,26504.8295
57231.0537,28527.8857,54283.0378,42783.916,37019.3124,39713.2784,5688.563,50144.5234,43525.4574,55808.9912,1041.2782,-458.7919,26508.5399
57230.6961,28524.8011,54278.7015,42770.4602,37002.9062,39703.1307,5682.3939,50133.124,43513.5216,55801.8833,1026.7943,-467.7773,26503.3543
57212.6359,28518.945,54274.0077,42758.6138,36969.915,39693.1171,5679.3988,50117.1649,43491.9298,55791.5568,1011.1928,-484.4069,26498.3475
57214.4687,28516.0393,54279.238,42758.7926,36965.3553,39699.0627,5681.6787,50110.2358,43492.0639,55799.5141,1016.736,-482.3059,26497.4087
57232.7971,28520.0626,54279.685,42767.5545,36994.5914,39707.3776,5683.8691,50125.5244,43513.4321,55807.963,1032.1587,-462.9493,26503.5331
57253.7184,28525.4717,54287.1058,42774.7965,37010.5505,39711.2668,5686.7748,50142.3329,43521.0317,55810.1535,1040.8759,-455.9308,26504.5613
57245.8059,28520.8672,54282.3672,42766.9734,36994.2784,39709.2998,5682.6174,50126.0608,43513.5663,55805.8619,1029.8789,-467.4196,26497.2299
57222.9177,28514.6087,54278.8804,42751.4613,36967.6352,39700.8955,5680.2481,50108.9394,43491.1698,55800.8105,1005.0684,-486.4633,26491.642
57211.0265,28514.8323,54277.3604,42740.2407,36960.3038,39698.571,5680.0693,50103.9773,43493.0474,55798.3071,998.6311,-489.369,26493.0278
57238.8768,28525.5611,54275.4829,42762.4136,37001.4757,39713.7702,5687.803,50138.3543,43517.7237,55811.0923,1020.3123,-471.9347,26503.1755
57252.1091,28531.0596,54274.9912,42770.7732,37022.4416,39714.9771,5688.563,50162.4048,43531.85,55819.1389,1031.3094,-461.0717,26507.6011
57247.7728,28522.6107,54272.5325,42761.3854,37009.1647,39706.3941,5686.3725,50146.535,43525.0103,55814.2215,1025.632,-469.2972,26506.7518
57223.5435,28507.8138,54275.7511,42747.7062,36975.4136,39696.2911,5681.1422,50114.8403,43509.99,55809.8853,1008.9576,-482.1271,26502.7285
57215.7204,28504.2375,54278.031,42751.0142,36972.4184,39697.051,5684.5397,50108.8947,43513.3427,55811.2711,1007.2142,-479.4002,26499.9121
57233.0207,28506.2939,54281.7414,42763.9335,36996.7818,39703.8013,5686.909,50127.5361,43523.3563,55815.9202,1022.0557,-469.2078,26500.6274
57256.2665,28513.3123,54284.0213,42773.5895,37019.1336,39713.7254,5689.3677,50152.57,43529.7489,55820.7035,1036.2715,-461.2505,26504.606
57250.4103,28511.1219,54280.4897,42771.0861,37011.3105,39710.9091,5687.356,50128.7431,43526.7985,55813.6404,1032.6505,-463.6645,26501.6109
57228.0139,28504.3269,54279.5956,42753.0259,36983.9966,39703.086,5683.0645,50106.5254,43514.818,55806.309,1013.6515,-478.9084,26496.9617
57224.527,28512.8653,54283.5742,42753.6964,36987.707,39710.9985,5689.9041,50112.9627,43521.9258,55805.9961,1010.4775,-482.9764,26498.7051
57248.9351,28528.9139,54283.7083,42776.674,37016.1831,39725.4825,5694.7321,50152.3465,43547.6303,55817.2166,1034.8409,-460.9823,26505.9918
57261.318,28535.2618,54282.0543,42781.7255,37032.187,39726.1083,5692.4969,50183.2366,43558.0909,55822.4022,1047.6708,-456.512,26505.9918
57253.0031,28535.7535,54280.9367,42777.7022,37014.6185,39722.8003,5688.7865,50173.1783,43551.3407,55820.3012,1037.8361,-465.9444,26502.1026
57228.4609,28531.9537,54282.1437,42766.1687,36987.707,39716.6312,5685.8808,50145.1492,43538.779,55816.412,1020.4017,-477.0309,26502.192
57231.3666,28539.2404,54291.3973,42769.5215,36993.6973,39722.2638,5691.5581,50147.1609,43539.5837,55817.5743,1023.0839,-472.5605,26509.0317
57254.7466,28543.9342,54293.2302,42774.2153,37018.016,39731.741,5688.9206,50162.0919,43547.4068,55819.8094,1038.0149,-465.0056,26508.674
57274.5949,28549.2092,54292.9173,42787.8052,37041.7982,39744.9732,5687.4454,50184.2201,43558.0909,55818.2895,1050.1295,-455.8414,26508.3611
57267.6659,28551.0421,54289.5645,42783.156,37034.6457,39742.6486,5685.7467,50179.7944,43553.7994,55813.4615,1038.9984,-463.8433,26502.4602
57246.2082,28540.4474,54290.6374,42766.884,37004.5155,39733.6185,5677.7447,50150.6925,43540.8801,55813.238,1011.9975,-477.9696,26494.503
57239.0109,28533.1607,54285.4071,42766.2581,36993.5632,39737.2842,5674.5261,50149.3514,43538.332,55803.6268,1008.0189,-480.3836,26491.1056
57257.9652,28534.0995,54283.9319,42774.4389,37020.0276,39744.2132,5677.5212,50175.8605,43558.538,55804.5208,1025.8108,-466.7044,26496.9617
57272.8068,28540.4027,54285.3624,42784.4971,37039.5631,39747.7001,5682.6621,50194.7254,43576.6429,55812.6569,1041.9488,-453.1592,26501.9238
57265.6542,28539.4639,54287.3293,42780.0715,37031.0694,39740.0111,5681.3657,50187.1705,43567.881,55809.93,1035.735,-462.3234,26499.2863
57241.8272,28530.255,54285.9435,42761.4748,37005.8566,39730.8022,5680.874,50154.5817,43549.8655,55800.9446,1018.8818,-478.1485,26492.1337
57230.1596,28526.9916,54287.7764,42756.2892,37008.2259,39727.5835,5683.735,50147.0715,43549.0608,55803.4033,1012.221,-478.7743,26496.1571
57257.8311,28543.3978,54290.4139,42777.9257,37039.876,39738.67,5690.0382,50172.9548,43573.5583,55817.619,1035.6903,-456.6461,26511.8927
57267.7553,28553.5008,54293.7219,42787.6264,37056.2375,39740.6369,5697.4143,50201.3862,43580.2191,55824.5927,1050.3531,-446.2302,26516.6759
57260.0216,28548.0022,54295.3312,42786.5982,37054.1811,39736.0325,5697.3696,50190.2103,43571.4126,55827.6325,1042.5299,-452.9357,26514.1279
57241.2461,28532.8478,54293.2302,42776.9423,37028.4766,39726.3318,5696.4755,50168.0374,43559.4767,55823.3857,1024.0227,-466.0785,26512.2503
57232.4842,28528.7797,54290.9503,42761.7878,37017.4348,39720.6098,5694.6427,50166.294,43558.9403,55820.927,1020.9829,-468.0902,26510.4622
57250.9021,28538.6145,54290.9503,42769.4768,37041.6641,39725.706,5697.0119,50189.4057,43577.7605,55826.6938,1037.1655,-452.9804,26515.8266
57274.0138,28547.8681,54296.27,42787.4476,37071.1237,39740.4581,5708.5454,50212.5174,43596.1336,55837.8249,1055.941,-440.2399,26522.1745
57263.3296,28542.5484,54294.4372,42778.9092,37057.2656,39731.9198,5704.9245,50196.9606,43587.2823,55833.7569,1045.4357,-449.8512,26517.6147
57239.0109,28532.5795,54290.4139,42761.296,37027.4931,39717.3911,5697.906,50170.1385,43566.8975,55824.4139,1023.5757,-472.2923,26507.1988
57234.3618,28523.46,54285.9435,42759.642,37021.6817,39717.2123,5692.184,50170.362,43564.707,55820.6141,1022.8604,-471.5323,26503.1308
57253.6737,28526.9022,54286.7482,42775.6459,37052.393,39724.6778,5697.7272,50194.0101,43577.6711,55827.3196,1035.288,-453.7851,26508.7187
57262.3909,28534.9488,54288.4469,42781.6808,37065.5805,39724.8119,5701.8846,50208.6282,43595.2395,55841.5353,1042.3958,-441.8492,26513.1444
57248.4434,28534.1889,54290.5033,42777.2105,37051.5436,39724.5884,5701.7952,50201.2521,43584.466,55840.4624,1041.4124,-444.755,26514.9325
57232.4842,28526.9022,54291.4867,42759.2844,37028.9236,39716.4077,5698.7554,50180.2415,43567.9257,55834.651,1023.8886,-459.1495,26506.9753
57228.2821,28520.5543,54289.7433,42753.6964,37022.2181,39710.1492,5694.6427,50173.6701,43563.4553,55832.4605,1014.4562,-468.0902,26505.2766
57246.8787,28532.1325,54289.341,42768.538,37042.6923,39722.2191,5696.699,50201.2968,43577.8946,55838.8531,1033.9022,-453.4274,26511.3115
57262.4356,28539.0615,54292.2914,42776.8081,37066.1616,39726.2871,5701.8846,50220.5193,43590.1433,55840.1495,1045.9274,-445.202,26514.3961
57255.5065,28533.6971,54291.8444,42773.1425,37058.562,39723.739,5695.492,50201.6991,43579.2357,55832.8182,1035.9585,-456.3779,26506.9306
57233.5124,28526.8575,54292.5149,42759.2844,37028.2978,39714.9324,5693.8827,50168.6633,43558.5827,55826.8279,1014.2326,-476.3156,26499.5992
57224.527,28524.2647,54289.1622,42751.2378,37011.3999,39711.0432,5688.0265,50164.0588,43549.8208,55824.9503,1003.9955,-486.3292,26492.9384
57244.5095,28537.2734,54287.5975,42764.3806,37032.8128,39728.7011,5691.9158,50198.8381,43564.0365,55828.8842,1021.4299,-470.2359,26498.6157
57265.5201,28543.4872,54290.7715,42779.6692,37059.5902,39741.6651,5697.6378,50224.4532,43579.3251,55827.9008,1038.1937,-460.7588,26503.7119
57253.7184,28542.6825,54287.1058,42772.2931,37048.1908,39734.1549,5694.3297,50210.461,43571.9937,55825.1739,1025.185,-465.6315,26498.571
57226.9857,28538.8827,54286.4352,42763.0842,37024.3639,39730.1316,5691.871,50181.8955,43551.8324,55818.9601,1009.6729,-477.2991,26493.5642
57223.6329,28533.7418,54286.0329,42765.9005,37024.2298,39733.842,5691.9605,50170.1832,43546.3786,55811.6734,1008.6447,-481.8588,26492.3573
57250.1868,28536.424,54289.9668,42776.1376,37053.3317,39740.324,5696.6096,50203.3085,43566.4058,55818.3789,1025.6767,-466.7938,26498.9287
57264.3131,28539.8662,54285.0494,42786.777,37072.5989,39743.5427,5694.3744,50231.9187,43575.9276,55815.3391,1035.4668,-457.8531,26501.298
57247.5493,28533.6971,54283.5742,42784.1842,37060.2161,39733.395,5689.0994,50213.3667,43569.0433,55811.8075,1030.1471,-465.6762,26499.3757
57228.9973,28525.0247,54285.2283,42768.4039,37030.98,39727.6729,5685.5679,50189.3163,43563.0977,55816.7249,1017.943,-477.2991,26498.124
57237.3569,28524.667,54285.5412,42763.1736,37020.9217,39725.706,5686.8196,50181.3591,43566.7187,55817.9766,1015.4843,-477.8355,26498.2581
57254.3442,28528.1539,54286.6141,42774.573,37040.323,39729.9081,5689.9488,50205.2754,43578.5651,55826.7385,1028.2248,-461.1164,26504.5166
57262.6144,28531.3725,54282.2331,42781.5914,37057.8915,39740.1452,5689.77,50229.013,43583.1249,55829.1525,1040.1607,-451.9075,26505.3213
57254.9254,28525.7399,54284.3789,42781.8596,37050.6048,39741.9333,5693.0333,50220.9216,43576.017,55825.6209,1033.321,-458.0319,26502.8626
57238.0722,28515.7263,54282.9037,42763.5312,37025.2579,39726.4659,5692.8992,50192.5349,43562.5613,55818.066,1010.4775,-474.1699,26497.9452
57235.077,28513.8041,54284.4236,42761.1172,37016.809,39721.5039,5694.5533,50180.4203,43562.2483,55819.2283,1009.9858,-472.2476,26500.8062
57257.2947,28526.1869,54293.9454,42781.055,37051.186,39735.2278,5698.666,50217.0324,43589.1598,55828.4372,1033.6339,-452.5781,26508.227
57263.1955,28534.323,54295.6442,42785.9724,37070.3191,39739.3852,5698.3083,50236.3443,43600.2463,55832.3711,1043.5134,-446.3196,26508.0929
57254.4783,28536.2452,54297.4323,42782.5749,37064.4629,39738.4018,5697.7272,50223.1568,43592.4232,55833.0417,1036.0032,-449.5829,26507.8694
57245.4035,28531.9984,54297.477,42777.0317,37045.151,39734.5126,5699.7389,50200.7157,43585.1365,55830.0018,1026.1238,-460.133,26508.4505
57249.8739,28530.9255,54296.8959,42770.1026,37030.2647,39729.4611,5698.4425,50185.74,43585.673,55830.4489,1027.0178,-463.5304,26504.606
57273.2091,28542.8613,54301.0086,42784.4077,37059.3667,39743.7662,5701.3482,50214.4843,43601.9897,55840.6413,1045.9721,-449.3147,26510.5516
57289.2129,28549.8798,54302.6179,42794.1084,37088.111,39746.359,5704.3433,50238.4007,43613.4338,55847.7491,1058.0868,-442.7433,26515.6478
57278.4841,28540.4474,54300.4274,42783.5584,37069.9167,39733.7079,5698.4872,50229.9517,43607.3989,55841.7588,1040.4289,-450.1194,26512.2056
57261.2286,28528.9139,54295.1971,42769.9685,37046.4027,39724.3202,5695.5814,50209.3881,43588.534,55829.4207,1017.4066,-462.5916,26504.2931
57252.6902,28527.2598,54296.6276,42764.6041,37036.8809,39725.5272,5696.1179,50196.2006,43584.9577,55831.2088,1018.5242,-466.3914,26506.8859
57267.0847,28532.1772,54301.0086,42770.4155,37057.8915,39734.6914,5701.1694,50225.2132,43604.3143,55846.6315,1032.1587,-451.4605,26518.0171
57273.8349,28532.8478,54297.1641,42779.5798,37078.5892,39735.0043,5699.6495,50242.0664,43618.1277,55849.8949,1044.631,-441.2681,26518.4194
57264.6707,28533.3842,54294.3031,42776.8975,37073.0013,39731.2939,5697.6378,50233.3045,43608.5165,55841.8483,1036.2715,-447.9736,26512.0268
57237.6698,28517.5145,54284.3342,42755.9316,37043.7652,39717.9276,5691.1111,50199.9557,43583.1696,55827.4537,1010.2093,-470.3701,26498.571
57230.2043,28514.5193,54278.3886,42751.193,37031.8294,39714.7089,5682.3939,50199.8663,43574.2289,55817.2166,1001.2686,-479.5343,26490.5244
57253.2266,28518.0062,54277.1369,42764.2465,37055.6563,39729.3717,5681.6787,50226.0178,43595.4183,55826.4256,1022.0557,-466.8385,26496.917
57274.1926,28524.3094,54283.7083,42777.7916,37079.0809,39738.223,5689.8594,50237.909,43617.2783,55836.1709,1040.0712,-450.5664,26503.1755
57265.6542,28525.2482,54284.1554,42769.1191,37074.253,39736.0325,5688.116,50236.2549,43612.048,55833.2652,1029.4765,-456.2438,26499.778
57245.3588,28517.8721,54286.7035,42763.4865,37048.6826,39730.8022,5684.2268,50216.2725,43591.8421,55826.3361,1009.6729,-468.0455,26493.2066
57237.4016,28516.2181,54289.2069,42763.0842,37039.3842,39733.8867,5685.7914,50219.1782,43592.6467,55824.101,1009.2258,-468.269,26492.9384
57262.1673,28527.4833,54293.0067,42778.7304,37068.4862,39746.8954,5692.3628,50253.5552,43613.4338,55830.6724,1032.3375,-454.1427,26501.4321
57278.7076,28536.3346,54291.5314,42787.6711,37085.0265,39753.4668,5695.2685,50272.5542,43629.393,55839.2555,1044.6757,-444.2632,26508.6293
57264.626,28533.7418,54286.0776,42779.7586,37074.8788,39747.8342,5691.4687,50261.6912,43621.7487,55832.1923,1032.6058,-452.7122,26504.1143
57240.352,28522.9683,54286.0776,42760.7596,37042.6029,39740.6369,5686.5066,50232.3657,43611.3775,55823.4304,1009.9858,-468.9842,26493.4748
57230.562,28514.2064,54285.1835,42761.4748,37028.7448,39738.4018,5682.7068,50223.8721,43603.0626,55821.0611,1003.0121,-473.6781,26489.675
57251.2597,28522.9683,54286.9717,42777.6128,37057.1315,39747.3872,5685.8808,50246.5814,43617.4572,55827.4537,1025.5426,-462.8152,26494.9948
57268.1129,28529.8079,54293.1855,42788.2075,37087.8428,39755.6126,5692.184,50269.9614,43636.0985,55836.6627,1038.6854,-451.8181,26502.9967
57261.8991,28527.4833,54295.4206,42788.9228,37079.7962,39751.2317,5692.0052,50269.9614,43633.2375,55842.2953,1036.182,-452.2651,26501.6109
57236.9546,28516.7098,54287.1952,42772.8742,37048.3696,39741.6651,5687.1772,50240.77,43609.4999,55831.6559,1019.5524,-465.408,26492.1337
57232.9313,28519.0791,54285.0494,42770.3261,37042.2453,39746.9848,5686.1043,50234.8691,43602.6156,55827.9008,1016.8254,-470.5936,26493.2513
57254.8807,28523.9071,54287.9552,42783.2007,37067.7263,39760.9323,5688.2948,50269.4249,43625.8167,55832.7734,1035.735,-457.0931,26499.4651
57274.1479,28524.3094,54289.6539,42793.9296,37091.6873,39765.6709,5688.7418,50290.1673,43638.0208,55834.7851,1050.5766,-448.2418,26502.3708
57275.6231,28525.3376,54290.0115,42797.1929,37086.7699,39759.0995,5688.8759,50278.6785,43629.2142,55836.9309,1042.6641,-454.5003,26502.3708
57254.0313,28522.0295,54287.8658,42784.9889,37063.0324,39748.6389,5685.8361,50249.8448,43614.3279,55828.7501,1023.1286,-473.3205,26495.8888
57250.7232,28519.7049,54285.1388,42779.4456,37053.8682,39745.5096,5685.2102,50244.5698,43611.601,55826.1126,1017.3619,-474.7957,26495.3524
57262.5697,28524.3541,54286.5247,42783.0666,37074.3424,39748.4601,5684.5844,50268.4861,43628.2754,55834.7404,1028.8507,-460.0435,26502.2814
57266.7718,28523.7283,54284.96,42786.0618,37086.6805,39748.1024,5681.7681,50291.3296,43639.1383,55840.6413,1037.8361,-455.5285,26504.159
57262.8826,28519.6155,54287.2846,42789.3251,37080.0644,39751.9916,5685.4337,50286.8146,43643.0275,55840.5966,1034.7068,-456.8696,26507.5564
57251.4385,28512.2842,54288.2234,42776.5399,37057.8468,39748.1918,5682.528,50256.595,43631.8517,55835.9474,1015.4843,-468.9842,26501.8791
57245.8506,28507.8138,54286.6141,42768.3145,37048.7273,39747.1637,5680.1587,50245.3297,43622.2404,55833.891,1008.1083,-470.5936,26498.571
57261.9438,28510.0937,54284.6918,42776.9423,37080.7797,39756.1044,5684.0926,50278.2762,43631.6729,55839.926,1022.6369,-458.2554,26503.9802
57279.5123,28518.8556,54289.0728,42788.6993,37102.0138,39764.4192,5688.4289,50305.5006,43641.597,55848.9561,1039.5348,-444.6208,26509.7916
57269.7222,28516.3969,54288.581,42777.8363,37075.3258,39756.1044,5684.942,50289.4074,43632.7457,55841.2671,1030.2365,-452.7122,26500.8509
57258.5911,28509.289,54289.6539,42771.8908,37054.9411,39747.1637,5685.702,50268.665,43625.6826,55830.8959,1014.0985,-466.9726,26494.3689
57248.5775,28509.602,54290.2797,42762.9948,37046.8497,39740.9946,5679.8011,50255.0304,43620.1841,55819.6753,1005.426,-474.1251,26487.5293
57270.9292,28513.8488,54293.3196,42775.2435,37075.9964,39747.7448,5682.528,50282.7466,43637.8419,55835.098,1025.4532,-460.0883,26494.5477
57278.1712,28512.15,54288.0893,42783.8266,37090.0333,39751.7234,5683.2433,50303.1313,43653.0411,55841.4012,1039.0431,-454.2768,26497.4535
57273.1644,28515.8157,54290.1456,42789.1016,37080.9138,39755.5232,5681.1869,50295.4423,43643.7428,55838.5849,1036.182,-461.6529,26492.3573
57258.0993,28506.3386,54293.5431,42780.742,37062.8983,39754.6291,5681.0975,50274.6999,43627.3813,55832.1029,1017.3619,-470.1465,26489.1833
57257.7864,28501.7788,54294.7501,42775.3329,37063.4794,39751.5446,5686.0149,50278.8126,43625.6379,55832.1029,1012.0422,-468.8054,26490.3009
57279.8252,28513.0441,54297.8793,42793.9296,37088.2452,39762.6758,5694.4638,50315.2907,43649.4201,55844.5305,1038.1043,-446.6772,26502.7285
57284.1614,28519.5261,54297.7899,42802.3785,37100.8068,39767.5484,5694.1062,50336.9272,43661.1325,55853.5606,1050.7107,-441.7151,26506.6177
57264.0896,28521.2696,54296.4488,42790.9791,37089.631,39761.5135,5688.2501,50316.7212,43655.0975,55852.2195,1041.7253,-449.5382,26503.6672
57246.3423,28510.4513,54294.0348,42780.1609,37064.0606,39755.5232,5682.2151,50292.5366,43633.1034,55840.0601,1018.9265,-464.5139,26495.8888
57244.733,28508.9314,54292.7831,42774.3047,37051.7224,39755.3444,5680.6952,50288.7368,43627.8731,55841.4012,1012.9362,-470.0124,26496.47
57264.2237,28522.8342,54292.5149,42789.1016,37073.4483,39768.7107,5686.149,50317.5259,43642.804,55849.0902,1028.7613,-454.4556,26500.4486
57274.2373,28524.8458,54291.3079,42795.1366,37086.1888,39763.4357,5687.803,50338.7153,43651.5212,55848.1514,1036.5844,-447.5266,26500.538
57266.8165,28525.2035,54291.8444,42785.7041,37082.4784,39759.2336,5684.6738,50323.0691,43649.1966,55847.1233,1031.0858,-453.651,26496.0676
57249.1139,28515.1899,54293.4984,42773.5448,37057.2209,39756.8196,5681.0975,50297.6328,43632.3881,55835.3215,1014.1879,-468.8054,26492.2678
57242.1402,28504.1034,54286.1223,42770.3261,37046.1345,39750.5164,5676.8507,50292.0002,43625.1909,55826.7832,1006.2307,-477.7014,26484.4894
57255.4618,28503.3882,54280.9367,42777.0317,37063.0324,39753.5115,5675.0625,50315.0672,43637.5737,55830.2701,1020.2676,-464.6033,26486.6352
57268.8282,28510.8089,54281.9202,42781.2338,37084.0877,39759.6806,5673.4532,50323.6055,43647.2297,55833.3546,1029.2083,-459.5071,26488.8704
57258.2781,28510.496,54285.5859,42778.9092,37075.0129,39756.6855,5675.5096,50316.6318,43642.1782,55835.0086,1023.3968,-466.5256,26490.435
57239.145,28500.0801,54288.0893,42768.091,37053.9576,39748.3259,5677.3424,50295.2188,43642.2229,55841.0883,1013.7856,-470.9959,26489.5856
57237.7145,28500.393,54291.9785,42772.0696,37047.2521,39750.6058,5677.0295,50292.8048,43643.2511,55841.9824,1014.8138,-471.4876,26491.3738
57260.2004,28505.668,54293.409,42780.742,37066.1169,39754.5844,5680.6952,50323.0691,43648.3473,55846.5868,1025.0509,-462.7258,26493.6537
57270.7951,28513.9829,54290.6374,42786.8664,37082.7913,39758.6524,5682.7515,50338.8494,43661.5348,55851.0572,1035.4668,-452.5781,26497.8111
57254.9254,28516.3522,54291.2632,42779.5351,37077.2928,39757.3113,5682.4386,50342.0234,43656.0363,55853.8288,1036.0479,-456.2438,26496.917
57243.3025,28514.1617,54292.5149,42769.9685,37053.8682,39757.1325,5683.8244,50325.5278,43641.2841,55849.4478,1020.4911,-465.855,26494.1901
57229.5785,28503.1199,54287.8658,42764.3806,37038.5349,39756.5514,5677.9236,50307.3335,43634.4445,55845.6928,1007.2142,-472.6499,26489.0045
57251.0809,28511.8371,54287.0611,42775.5564,37058.3832,39759.6359,5675.6437,50338.76,43649.4201,55849.8502,1023.7545,-458.4789,26492.1337
57280.8534,28519.7496,54292.202,42792.9461,37092.2238,39765.1792,5684.4056,50372.0194,43672.666,55857.8074,1046.6874,-442.9668,26504.159
57281.3451,28521.806,54292.0679,42793.259,37080.9138,39762.9887,5690.0382,50360.9776,43672.5318,55861.339,1042.9323,-443.8609,26504.8295
57262.6591,28515.9498,54287.0164,42784.1842,37054.1364,39756.5514,5688.5183,50336.0331,43652.7729,55858.478,1025.0062,-457.9872,26500.8956
57262.8826,28515.6369,54289.2963,42777.9257,37050.7836,39756.3279,5686.909,50330.8922,43643.7428,55851.1466,1019.7312,-459.8647,26498.8393
57275.2655,28521.6272,54290.8609,42786.7323,37079.8856,39757.669,5687.9818,50347.9242,43671.4143,55856.7345,1038.0596,-445.3808,26499.5992
57284.4297,28524.3541,54291.442,42794.5554,37098.5717,39764.3298,5687.7136,50369.3372,43684.6018,55863.753,1050.0401,-438.273,26503.399
57274.6396,28521.2696,54286.0776,42788.6993,37082.7913,39757.2219,5681.0975,50353.6016,43671.1013,55852.89,1035.1092,-450.6111,26500.0463
57248.6669,28511.7477,54286.1223,42776.3611,37051.3201,39739.43,5677.0295,50319.314,43652.6835,55844.5305,1010.7011,-465.5868,26492.6702
57243.1684,28509.8255,54289.9221,42774.3495,37047.1627,39737.8653,5679.0411,50317.9282,43652.0576,55851.5489,1008.3318,-472.5605,26494.3242
57256.7582,28513.4465,54290.9056,42786.6429,37064.8205,39745.8225,5683.8691,50338.8494,43670.5202,55862.6801,1031.3094,-457.8084,26505.7683
57266.0118,28515.0111,54289.6092,42799.0258,37078.1869,39752.9751,5684.9867,50350.8747,43676.9128,55864.6917,1043.3793,-446.3643,26508.7634
57257.5629,28504.8187,54289.788,42797.1929,37070.2744,39749.8459,5684.8973,50339.52,43674.5435,55859.1038,1036.5397,-450.03,26507.6458
57234.7194,28494.0451,54290.1456,42782.4408,37053.7788,39740.7711,5681.6339,50315.6036,43664.3064,55856.6004,1020.8488,-462.6364,26500.2251
57234.8982,28493.0617,54287.1952,42778.7304,37047.2521,39746.2249,5679.2647,50311.2227,43660.4172,55854.7676,1014.0985,-464.9162,26495.7994
57255.5065,28505.5786,54288.1787,42791.0239,37071.4366,39754.4503,5683.7797,50346.7619,43674.4094,55861.1602,1026.7496,-454.2321,26501.2085
57271.5998,28511.4795,54290.5927,42801.9315,37088.9604,39764.7321,5686.4619,50378.9932,43684.2442,55866.4352,1043.3793,-446.5431,26504.5613
57263.9555,28508.5738,54289.2069,42798.6234,37080.6009,39763.0334,5687.9818,50381.9883,43683.0372,55864.96,1041.6359,-447.9736,26502.7732
57250.455,28502.4941,54292.0232,42787.8946,37053.4211,39753.601,5686.9984,50357.9825,43676.421,55862.993,1025.2297,-461.1164,26498.3475
57245.7165,28502.2259,54294.2584,42784.4077,37049.8449,39748.2812,5685.1208,50342.6492,43671.1013,55862.9036,1019.9547,-463.6198,26500.4933
57261.4968,28500.6166,54290.6374,42786.1959,37074.0741,39749.8012,5684.6738,50353.8698,43675.4823,55862.993,1027.3755,-454.9921,26502.3261
57268.8729,28500.2142,54288.581,42799.2046,37088.9604,39753.1539,5686.7748,50373.9864,43679.2821,55866.1222,1047.492,-445.649,26504.6507
57256.8476,28488.6807,54284.6918,42791.4709,37072.3754,39745.6884,5677.2977,50358.519,43663.2782,55862.5013,1041.5018,-455.6179,26501.1191
57240.6203,28480.1871,54282.9037,42773.1425,37043.6758,39735.9431,5670.1452,50329.6852,43645.665,55850.1184,1017.7195,-473.9016,26494.6818
57238.9215,28480.5,54281.7414,42775.1541,37034.0645,39734.1549,5669.7428,50322.3985,43646.3803,55847.5256,1012.4445,-474.9298,26490.882
57252.1091,28484.568,54277.8075,42789.9957,37063.1665,39740.2793,5670.5475,50345.242,43659.1208,55851.5489,1023.978,-463.3963,26491.9996
57265.7883,28495.6098,54275.4382,42797.327,37076.5328,39748.3706,5676.2248,50370.1866,43668.5085,55855.3934,1033.8128,-452.9357,26494.1007
57262.1226,28505.4445,54282.9931,42797.0588,37063.5688,39752.8857,5678.2812,50366.4762,43668.1062,55857.1368,1028.046,-451.5499,26495.4418
57245.1353,28499.9907,54279.7744,42787.7605,37036.7914,39747.1189,5672.2015,50336.3013,43646.0674,55843.4129,1012.4445,-469.8336,26487.6187
57244.1071,28503.2094,54281.1602,42781.6808,37031.1141,39752.7069,5670.771,50330.7134,43645.3968,55838.5849,1008.6894,-474.7063,26486.0541
57259.9769,28514.1617,54281.2496,42789.2804,37058.4726,39759.1889,5672.3803,50352.7522,43660.4619,55843.7258,1027.4649,-461.9658,26489.7197
57270.5269,28524.4435,54287.5528,42797.5059,37079.3045,39764.151,5676.7166,50374.791,43666.3181,55852.2195,1041.9935,-445.0232,26498.3922
57274.0585,28522.566,54290.995,42798.9811,37069.0674,39761.6476,5676.3589,50373.4946,43652.7729,55850.789,1038.2831,-453.5168,26497.9005
57252.8243,28510.3619,54291.8891,42780.295,37040.4571,39755.2997,5674.2132,50347.656,43639.6301,55844.0834,1018.5689,-469.2525,26494.5924
57238.3404,28503.9693,54290.995,42768.9403,37020.877,39745.2414,5670.324,50338.3577,43639.1383,55843.6364,1007.2142,-474.2146,26494.4136
57262.6144,28507.0091,54292.7831,42789.9957,37050.0237,39756.4173,5678.7282,50358.0272,43649.0625,55853.0241,1032.5164,-455.6626,26500.5827
57271.108,28515.771,54296.3594,42800.2328,37074.2083,39761.737,5686.8196,50369.8289,43650.046,55858.2544,1046.7768,-443.5927,26507.02
57250.3209,28516.3522,54295.823,42791.1133,37064.0159,39756.3279,5688.9206,50363.3022,43632.2093,55850.4313,1037.1655,-450.1194,26506.5283
57227.0304,28507.4562,54294.3478,42776.227,37043.1393,39739.7429,5688.116,50331.2498,43611.9586,55842.6529,1018.2559,-462.7705,26499.2863
57223.767,28503.8352,54294.0795,42768.5827,37037.909,39740.7264,5687.6689,50317.8835,43603.152,55845.0222,1015.1714,-469.3419,26496.3359
57240.2179,28517.1568,54296.6276,42781.949,37066.6087,39748.5048,5695.492,50328.8358,43614.7749,55854.5887,1040.1607,-453.2486,26503.1308
57245.5376,28526.0528,54295.5548,42786.6876,37086.01,39746.359,5699.3812,50336.3013,43615.8478,55855.2593,1050.4425,-445.202,26504.4272
57228.0139,28521.8507,54292.7384,42774.0812,37067.458,39732.7244,5694.0168,50317.347,43604.4484,55849.9843,1036.9867,-453.0251,26499.4651
57204.2763,28519.2579,54292.6937,42770.0132,37050.2025,39723.3367,5694.2403,50279.9749,43586.2988,55843.994,1019.5971,-465.5421,26495.9782
57191.0441,28519.5708,54292.649,42762.4136,37039.3395,39712.9655,5698.2636,50263.077,43574.7206,55840.0601,1015.7526,-469.1184,26496.47
57198.9119,28529.2715,54293.5431,42772.2037,37053.7788,39717.6594,5705.3268,50269.7825,43590.4562,55848.0173,1037.6573,-455.5732,26504.1143
57219.7884,28541.7885,54295.0183,42789.6827,37082.0314,39727.4494,5708.769,50278.9468,43591.4397,55851.236,1054.2423,-440.5975,26507.02
57211.8312,28541.0732,54292.0679,42783.6478,37070.4979,39720.3416,5706.0421,50264.1946,43579.6827,55846.0504,1043.0664,-443.7268,26504.5613
57185.7691,28534.2336,54288.7151,42767.5992,37042.0218,39712.5185,5702.0634,50231.9187,43558.4933,55836.1262,1022.3687,-462.7258,26499.9568
57177.7672,28533.3395,54287.6422,42759.4632,37028.8342,39702.1472,5703.181,50214.9314,43554.917,55827.5878,1015.3055,-474.7063,26498.3475
57194.0392,28546.2141,54289.3857,42770.0132,37040.2336,39708.5845,5704.2092,50232.5445,43565.467,55830.3148,1027.5096,-466.7491,26502.5049
57207.0032,28551.0421,54284.6024,42774.9306,37054.6281,39713.3678,5702.287,50241.977,43563.8577,55827.0514,1036.5844,-457.8084,26501.5215
57198.0178,28547.4658,54283.3507,42771.399,37048.1461,39711.4456,5704.0751,50241.7982,43556.7051,55830.2701,1032.874,-459.3283,26499.5098
57178.7059,28537.8098,54283.8424,42766.0793,37019.7147,39703.6672,5700.9459,50215.3784,43546.2445,55834.2487,1018.2559,-466.4361,26494.5477
57168.1112,28525.6952,54283.0378,42761.9666,36999.2405,39700.985,5696.3861,50187.6622,43535.6945,55823.5198,1010.3434,-473.991,26492.2231
57188.5407,28527.8857,54283.7083,42778.0598,37021.7264,39714.7536,5700.8117,50200.8945,43542.3553,55823.7433,1029.2083,-464.2904,26498.9734
57203.2928,28527.081,54286.7035,42783.2901,37030.8459,39718.1958,5699.6047,50215.3784,43557.8674,55829.5995,1044.184,-454.6344,26499.0628
57199.806,28531.1937,54284.2895,42781.2785,37017.3454,39709.9257,5699.6047,50205.0519,43547.9432,55825.9785,1040.1607,-458.4789,26497.9005
57185.5009,28531.5514,54286.9717,42781.4126,37002.2804,39708.7187,5699.2024,50181.9402,43524.6527,55813.9086,1022.5475,-473.4993,26492.089
57180.0917,28523.773,54291.1738,42778.9092,36987.8411,39706.4388,5698.2636,50160.706,43521.0764,55813.238,1012.4445,-474.8404,26490.7926
57197.3473,28530.3444,54292.202,42786.9558,37006.8401,39715.4242,5702.4658,50182.119,43536.1862,55819.0942,1028.8954,-455.7073,26498.4816
57213.0382,28533.9206,54289.0728,42798.5787,37028.7001,39720.6545,5703.5387,50199.2851,43551.1619,55822.7599,1048.9672,-445.4255,26499.5992
57208.9255,28530.7467,54288.8939,42799.0258,37022.1734,39724.2308,5705.5056,50191.4173,43549.0608,55824.4139,1049.1908,-449.3594,26499.4204
57196.632,28520.1073,54287.8211,42783.5137,37002.4592,39715.4242,5702.6893,50169.1997,43528.5866,55816.1885,1031.4882,-455.4838,26500.1357
57188.7195,28513.0441,54289.1622,42778.5963,36994.0549,39713.7702,5702.0187,50147.0715,43526.1279,55812.7016,1020.7593,-462.994,26501.1638
57206.0198,28513.357,54289.6986,42788.0734,37015.7361,39725.0354,5707.0255,50171.569,43540.2095,55819.8988,1037.6126,-450.477,26504.8742
57221.1742,28519.6155,54287.9999,42798.3999,37035.808,39721.1909,5706.0868,50186.4552,43557.1969,55826.5597,1056.1198,-441.1787,26508.227
57218.7155,28520.5543,54284.066,42793.7061,37026.9567,39711.8032,5703.3151,50173.5806,43553.6206,55820.033,1049.5931,-445.5596,26504.8295
57198.1519,28512.15,54280.7579,42767.5098,36993.9655,39702.8625,5696.6096,50151.2289,43541.1036,55819.4965,1025.7661,-464.5586,26497.5876
57191.2229,28502.4047,54284.96,42758.5244,36985.5165,39695.3076,5696.5202,50143.4505,43533.8616,55816.9931,1018.7477,-466.8832,26495.1736
57213.1723,28506.2045,54287.2399,42772.8742,37013.8586,39700.7614,5697.1908,50161.9577,43541.5953,55823.9222,1033.4551,-451.5499,26497.9899
57228.7738,28506.8303,54285.9882,42783.1113,37028.9683,39703.6672,5696.0285,50168.7974,43545.7081,55822.8046,1046.0615,-446.0514,26499.1075
57219.1626,28498.8284,54279.4615,42772.3378,37009.7458,39694.2347,5686.7748,50159.6779,43543.3835,55816.0096,1032.874,-458.7471,26490.6585
57204.7681,28494.3134,54281.7414,42765.4088,36984.7119,39688.0209,5684.3162,50138.7119,43529.0337,55816.9037,1013.5174,-475.1086,26489.8986
57196.945,28492.9276,54282.3225,42754.5011,36971.9267,39683.3271,5681.6787,50124.8091,43516.5614,55808.8571,1001.0451,-481.0989,26487.6634
57207.5844,28501.1083,54280.0426,42757.9433,36989.6293,39687.9315,5680.7846,50136.745,43531.4029,55813.8192,1020.7146,-465.3186,26490.5691
57226.2704,28504.1928,54278.478,42765.7217,37008.2706,39691.3737,5683.8691,50161.8236,43541.2824,55821.5082,1033.3657,-455.4838,26491.9996
57221.3978,28503.2094,54280.4003,42765.5429,37003.7109,39687.5292,5685.1655,50156.7721,43535.4263,55826.0679,1026.0791,-460.4906,26492.8937
57195.5591,28496.3697,54277.7628,42750.4778,36981.7168,39679.0355,5681.2316,50138.8013,43528.4525,55820.927,1007.5718,-478.6402,26489.8986
57192.0276,28498.6049,54278.2545,42753.6964,36974.8324,39680.4214,5688.5183,50134.778,43532.6099,55818.2895,1008.153,-477.7908,26493.3407
57213.1276,28506.7856,54280.3556,42761.2513,36994.8596,39689.6303,5690.5746,50158.2474,43549.5079,55819.6753,1026.3026,-458.3895,26498.7051
57238.4298,28517.2909,54281.4285,42779.1327,37025.1685,39698.2133,5694.285,50181.3591,43559.6555,55826.0232,1045.7039,-441.7598,26503.399
57233.0207,28513.0441,54283.6189,42775.6906,37017.5689,39700.7167,5698.3978,50179.2133,43563.5448,55829.1078,1045.3016,-441.581,26505.9918
57209.2831,28500.706,54284.1554,42758.9267,36987.0365,39691.5972,5695.6261,50157.4427,43539.1366,55821.9105,1021.0723,-459.0601,26496.0676
57200.3424,28497.4873,54278.791,42750.8801,36975.8606,39692.3125,5692.2287,50138.4884,43539.7178,55819.7647,1013.1598,-468.2243,26491.2397
57222.7389,28503.4776,54280.4897,42765.5876,36999.6428,39702.1472,5693.391,50159.812,43559.5214,55830.6277,1026.6155,-454.5003,26500.1357
57233.3783,28510.0043,54280.5791,42776.674,37018.8653,39709.7021,5695.5814,50192.222,43569.7585,55836.2603,1042.7088,-444.9785,26506.6624
57224.527,28508.6632,54279.5062,42776.5399,37016.049,39707.1093,5698.1742,50188.154,43563.2765,55827.0514,1040.8759,-444.1291,26505.2319
57211.1607,28511.6136,54283.8424,42771.6672,36999.2405,39703.9801,5701.7952,50173.1336,43548.2562,55819.9883,1025.4532,-453.1592,26500.4039
57206.6456,28516.531,54286.1223,42765.7217,36989.8528,39701.4767,5700.8564,50168.0821,43543.1153,55820.4353,1018.8371,-461.9211,26499.778
57226.4493,28527.9304,54284.9153,42780.1162,37015.1997,39708.0481,5700.5882,50186.8576,43564.0365,55821.8658,1033.9469,-449.9853,26502.4155
57252.1091,28535.9323,54291.6209,42797.1482,37038.669,39724.5437,5707.6961,50211.0869,43583.4825,55828.3478,1051.4706,-433.4003,26509.0764
57254.3442,28541.0285,54295.8677,42798.1317,37034.1986,39731.0704,5710.6018,50220.1617,43579.7721,55828.9289,1049.1461,-439.3458,26503.4884
57236.9099,28538.0781,54292.9173,42787.6711,37008.7177,39728.9246,5706.802,50193.9207,43558.3144,55820.3012,1028.7613,-459.5071,26494.9054
57225.1529,28531.6855,54285.8094,42778.9092,36999.464,39728.6117,5696.4308,50179.1239,43546.9598,55814.445,1013.7856,-469.1631,26490.2115
57241.559,28538.838,54286.7929,42784.4077,37026.152,39739.5641,5694.9109,50210.461,43561.7566,55819.4071,1029.1636,-455.3497,26495.2183
57249.248,28544.5601,54286.9717,42792.365,37048.1908,39745.0179,5695.9391,50237.909,43573.0219,55823.7433,1040.3395,-445.1126,26498.7051
57238.1616,28540.6709,54283.4848,42792.812,37044.1228,39741.1734,5691.0217,50222.1733,43563.7236,55818.826,1038.2384,-455.5732,26493.9219
57215.8098,28529.048,54281.5626,42781.4126,37014.4397,39733.2609,5685.8361,50191.2385,43551.6089,55810.7793,1023.218,-473.4099,26485.3835
57211.0265,28523.4153,54279.5062,42773.3213,37007.5107,39724.3649,5686.149,50188.9586,43549.5079,55809.7512,1018.1218,-474.6616,26486.6352
57241.5143,28528.8244,54281.4732,42781.7255,37037.1044,39730.1316,5689.9041,50219.2676,43577.3134,55823.8328,1035.735,-455.7967,26499.6886
57255.6406,28531.9984,54282.5907,42785.6147,37053.5553,39730.5787,5688.4289,50231.4717,43591.1268,55834.0251,1043.1111,-448.063,26502.4155
57253.5396,28534.3677,54284.96,42786.9558,37047.7885,39730.8022,5690.6193,50222.978,43588.4893,55838.5849,1035.4668,-450.03,26504.8295
57221.666,28523.4153,54278.8804,42773.9024,37019.6253,39716.1841,5686.3278,50195.9324,43566.1376,55829.2419,1014.0538,-464.9162,26497.364
57212.0994,28512.91,54279.0145,42770.1026,37012.6516,39711.3562,5684.7632,50187.394,43564.3941,55825.5315,1012.1316,-465.6762,26493.0278
57227.7904,28508.4397,54275.7511,42769.8344,37031.9635,39713.0102,5686.5513,50207.7341,43575.3465,55833.5334,1025.4532,-454.9474,26498.571
57240.0838,28511.3454,54277.6287,42776.0482,37056.0139,39716.7653,5691.871,50232.4104,43588.3105,55841.6694,1037.1208,-443.1903,26499.7333
57238.2957,28505.1763,54272.8007,42769.4768,37043.3629,39704.6059,5685.8808,50217.0324,43584.7342,55835.4557,1029.7894,-456.1543,26492.2678
57211.3395,28493.5534,54267.7492,42756.5575,37015.8255,39696.2911,5679.5776,50183.4601,43571.3679,55826.4703,1014.635,-474.4828,26487.2164
57204.9916,28491.2288,54270.5655,42750.2543,37009.9694,39694.8159,5682.7068,50180.7332,43566.1376,55826.6044,1007.4824,-476.9415,26486.5011
57234.8982,28497.3085,54275.9746,42767.1522,37040.4124,39706.2153,5689.0994,50215.5572,43579.2357,55838.2273,1026.5261,-463.1728,26492.8937
57248.2646,28508.6632,54279.2827,42778.6857,37064.1947,39717.5699,5693.391,50234.3774,43599.3522,55842.4741,1042.5299,-451.1029,26497.9899
57234.8535,28510.8536,54282.2778,42772.2037,37058.5173,39709.8362,5693.4804,50227.6719,43597.877,55842.6082,1032.3375,-456.5567,26496.5594
57224.3929,28509.4678,54284.8259,42768.5827,37039.2948,39710.8644,5694.8662,50204.7837,43589.6516,55841.9824,1019.5971,-467.4196,26492.9831
57217.2403,28503.7458,54283.8424,42760.7149,37023.5592,39708.6293,5693.0333,50197.944,43585.2706,55841.4012,1012.1316,-472.2476,26494.0113
57234.2724,28515.5475,54288.2681,42774.9306,37050.873,39721.3697,5699.7389,50230.5329,43604.9849,55851.3254,1032.3822,-453.9639,26503.399
57249.2033,28527.2151,54289.7433,42781.949,37076.2646,39726.6001,5704.4327,50254.494,43619.6923,55858.1203,1049.6825,-441.8492,26507.8247
57237.8039,28526.1869,54288.9833,42773.9024,37063.5688,39722.4873,5701.6164,50250.56,43612.6739,55851.3701,1037.2549,-451.2817,26506.0365
57223.0518,28522.3871,54296.5382,42770.6838,37039.7419,39724.0072,5704.4327,50234.5115,43602.8391,55850.1184,1025.185,-459.7306,26504.3825
57222.1577,28518.4085,54295.823,42771.3543,37033.6622,39725.5719,5706.8914,50223.2462,43594.2113,55846.2739,1019.3735,-463.0387,26502.2814
57235.2558,28518.945,54291.1738,42775.467,37044.2569,39729.6846,5703.2704,50233.0363,43605.7895,55848.062,1032.0246,-453.9192,26503.2202
57251.5279,28526.2316,54292.3808,42785.0783,37066.564,39735.4066,5700.2753,50244.7039,43611.8692,55853.1582,1046.6427,-444.5314,26509.3446
57245.4929,28522.2977,54287.5081,42781.8149,37058.115,39724.8119,5698.4872,50235.0479,43597.7876,55844.754,1036.4056,-454.2768,26503.7566
57220.8166,28518.2744,54286.0329,42775.2435,37039.5631,39717.0782,5697.0567,50215.6019,43587.6846,55840.9542,1024.0674,-468.4925,26497.7217
57214.8263,28516.3969,54290.995,42774.0365,37027.7166,39720.878,5697.7272,50210.1928,43590.0986,55837.9143,1026.7496,-465.7656,26501.5662
57232.3501,28521.6719,54290.6821,42784.8995,37049.1743,39730.9363,5702.4658,50236.1655,43607.8459,55844.3964,1045.3016,-447.6607,26510.9539
57252.9137,28524.0859,54286.0329,42795.4942,37065.2676,39737.7759,5704.388,50255.7456,43618.9324,55849.1349,1057.9526,-437.6024,26515.6925
57254.2548,28523.46,54290.235,42794.8236,37062.0042,39736.6583,5703.6281,50255.3433,43618.4853,55855.8404,1054.8681,-443.7268,26514.709
57236.9099,28515.9498,54290.5927,42787.3135,37041.7535,39730.6234,5704.8351,50233.9751,43601.7662,55847.7938,1040.1607,-457.719,26508.1823
57230.6067,28519.1685,54289.2963,42780.3844,37033.8857,39728.8352,5706.0421,50228.253,43601.4086,55844.5305,1031.667,-463.9775,26508.4505
57239.9944,28524.3541,54286.9717,42786.1065,37050.3813,39735.5855,5705.9526,50246.0003,43613.4338,55849.7608,1043.871,-451.9522,26511.4456
57254.6571,28527.6622,54289.5198,42795.0919,37071.2131,39742.7827,5705.7738,50268.4414,43625.8167,55855.7063,1054.287,-438.1835,26513.7702
57249.6504,28520.9566,54284.8259,42787.1346,37058.6514,39732.9032,5699.7389,50264.1499,43619.9605,55848.7773,1039.356,-449.3594,26504.9189
57233.3783,28513.0888,54285.72,42782.7537,37037.7749,39729.3717,5701.7058,50230.1306,43601.5427,55835.7239,1019.5971,-468.4925,26496.6041
57212.8147,28499.499,54279.8638,42770.1026,37023.8721,39719.9839,5696.0732,50214.7079,43594.7478,55828.7054,1008.8682,-476.7179,26488.8257
57233.7806,28505.0869,54281.339,42777.2552,37047.4309,39727.7176,5698.3531,50232.8575,43613.2997,55838.4955,1027.1966,-459.82,26493.6537
57258.0099,28518.185,54283.1272,42788.1628,37067.9945,39732.2327,5704.6562,50261.4677,43622.911,55849.4925,1045.3463,-449.0018,26498.3922
57252.2432,28515.771,54282.546,42785.3018,37064.0159,39726.913,5702.5105,50261.5571,43616.1608,55845.6928,1041.4124,-452.1757,26499.6439
57236.0605,28509.7808,54282.3672,42782.4408,37047.1627,39724.0072,5699.6495,50236.4784,43605.2084,55836.0368,1026.4367,-467.509,26494.9501
57231.009,28504.8187,54280.9367,42773.8577,37036.4338,39719.1346,5693.9274,50219.1782,43600.1569,55835.9921,1017.7195,-477.5673,26489.675
57257.3394,28512.91,54287.9552,42780.4738,37057.5786,39723.3367,5697.7719,50246.4473,43614.015,55850.6548,1035.735,-462.0999,26497.8558
57272.1362,28519.2132,54291.442,42789.0122,37076.0411,39731.0257,5703.2257,50275.6387,43625.1909,55860.2661,1053.1247,-449.27,26502.5049
57255.5065,28522.8789,54288.6704,42782.1726,37073.046,39726.4659,5701.974,50268.352,43620.6758,55859.6402,1045.3463,-455.5732,26498.8393
57228.0139,28510.049,54280.6238,42762.1901,37035.2268,39709.568,5692.0052,50241.8429,43610.5281,55848.6879,1021.8322,-469.2078,26493.3854
57225.9575,28504.5505,54280.892,42761.4748,37024.2745,39709.1657,5694.1509,50238.2666,43609.7234,55844.4411,1016.6466,-475.7345,26493.8325
57239.9944,28505.8916,54280.2215,42771.9355,37050.7389,39715.5136,5694.3744,50262.7641,43618.2618,55844.3964,1025.8555,-468.269,26492.5361
57258.7252,28508.8867,54278.3886,42780.2503,37074.6553,39720.2075,5695.0897,50291.1508,43634.5339,55859.6402,1037.1655,-454.0533,26498.3922
57253.8078,28508.8867,54274.9017,42777.9704,37068.7991,39717.8382,5695.9391,50282.2101,43628.2307,55854.9464,1035.9585,-458.9707,26498.124
57234.4065,28500.7507,54273.0242,42759.5973,37049.4872,39708.8081,5693.3463,50258.5173,43616.876,55845.3351,1019.4182,-472.8287,26489.5409
57231.9478,28502.0918,54273.9183,42760.1337,37046.5368,39713.7254,5698.8001,50245.7321,43611.4669,55846.408,1013.9197,-472.7393,26489.8986
57250.4997,28512.9547,54277.271,42777.5681,37073.3142,39728.8799,5705.4609,50265.938,43623.6262,55851.1019,1032.5611,-454.5897,26498.7946
57264.8942,28514.3852,54278.0757,42784.0948,37088.424,39735.3619,5699.9624,50287.5745,43635.2938,55851.8171,1040.5183,-445.0679,26496.6935
57259.1275,28512.0159,54282.4119,42788.5205,37078.9915,39732.5456,5699.4259,50283.3277,43633.461,55851.4595,1033.8128,-447.3031,26494.3242
57237.5357,28506.0257,54283.1272,42777.1658,37050.8283,39723.739,5698.7107,50265.0887,43625.2803,55847.7938,1018.6136,-461.1611,26491.4632
57237.2675,28510.496,54287.9999,42774.6624,37048.8614,39722.7556,5698.4425,50261.6465,43626.3084,55854.0523,1019.8206,-464.3351,26494.1454
57260.1557,28519.3026,54293.5431,42783.6478,37077.4269,39735.6302,5703.7175,50287.0828,43639.9877,55859.3273,1038.6854,-450.2982,26501.9685
57263.6873,28517.0674,54287.9552,42782.0385,37088.6028,39737.3736,5701.08,50304.2489,43642.4017,55864.3341,1039.5795,-446.856,26501.298
57263.732,28522.1189,54290.5033,42790.3086,37087.1723,39740.6816,5705.2821,50312.832,43646.6485,55871.7996,1036.4056,-447.616,26504.5166
57245.4482,28519.0344,54287.4187,42786.0618,37063.8371,39734.9596,5705.4609,50292.7154,43635.6068,55866.2117,1024.1121,-461.7423,26499.0628
57237.8486,28523.773,54289.7433,42774.5283,37048.6379,39730.9363,5701.7505,50277.0692,43632.254,55860.3555,1018.2559,-466.2573,26496.8723
57251.0362,28525.2482,54288.9386,42780.4291,37062.2724,39740.9052,5699.3812,50296.2023,43646.8273,55864.7811,1030.9964,-454.1427,26502.192
57271.0186,28526.9022,54286.8376,42791.9179,37084.3112,39743.2745,5702.3317,50323.7396,43662.0265,55865.407,1053.7058,-438.8541,26508.227
57252.7796,28518.9897,54279.1486,42778.6857,37071.8837,39732.188,5697.8166,50320.4763,43659.6125,55855.0358,1046.2403,-446.4984,26502.7285
57228.9079,28515.0558,54278.3886,42770.9073,37047.0285,39730.3998,5695.2685,50295.8,43646.7379,55845.2904,1024.425,-464.201,26496.917
57223.0965,28511.9265,54277.7628,42766.3922,37038.9372,39727.9412,5692.0052,50274.834,43636.0538,55840.0601,1014.1879,-477.2991,26489.988
57239.2344,28510.1384,54278.478,42774.4836,37063.7476,39733.8867,5693.0333,50297.3646,43644.8604,55843.4129,1027.4202,-460.7141,26492.0443
57258.0099,28521.1802,54282.9931,42788.6993,37086.6358,39739.7429,5701.08,50326.243,43667.2121,55858.0309,1048.2967,-440.1952,26499.5992
57255.3277,28517.1121,54283.3507,42786.9111,37085.2947,39739.117,5698.0848,50325.1702,43658.6738,55860.9366,1044.0499,-446.856,26501.3874
57231.1878,28514.117,54276.064,42770.4602,37066.2063,39726.0189,5688.2501,50290.4356,43636.5455,55847.615,1020.1335,-469.3419,26489.0045
57222.6048,28505.668,54274.9912,42773.0083,37053.3317,39719.4028,5687.4901,50271.2578,43633.8633,55845.8716,1010.0305,-475.6004,26485.3835
57240.2626,28505.7575,54280.3109,42788.5652,37073.4483,39729.0587,5692.5863,50294.593,43650.3589,55855.3934,1028.806,-459.7753,26493.7878
57256.8029,28504.9528,54281.6073,42791.9626,37092.3132,39739.9664,5689.3677,50316.3189,43659.5678,55859.1485,1036.7185,-452.4887,26498.3475
57258.8593,28498.739,54278.2098,42782.8431,37084.9371,39733.7079,5686.0149,50314.2178,43651.2083,55851.3254,1030.7282,-459.6859,26496.1123
57246.4317,28490.0218,54279.5509,42769.2086,37056.2822,39725.706,5685.2996,50298.1246,43642.1335,55851.2807,1011.4163,-476.3603,26494.5924
57231.0984,28488.8148,54277.8075,42768.2698,37039.2054,39723.3367,5684.3609,50289.5415,43650.1801,55852.7112,1008.8682,-479.0872,26498.9734
57232.4395,28485.9091,54274.5441,42771.7566,37052.393,39727.0918,5681.2763,50300.8068,43668.285,55861.1602,1021.8769,-468.269,26502.952
57265.6095,28501.7341,54283.8871,42791.6497,37092.6261,39744.2132,5691.6475,50332.9486,43682.2772,55874.1242,1040.0712,-446.4537,26510.4622
57258.8593,28500.3036,54284.1554,42783.4243,37086.5017,39744.5709,5691.8263,50335.452,43678.1645,55875.6441,1031.7117,-449.8512,26507.02
57240.7544,28492.0782,54284.0213,42773.8577,37055.2093,39731.2492,5690.0829,50305.8583,43659.8808,55869.2515,1015.6631,-465.0056,26499.1969
57233.4677,28484.6574,54282.7249,42770.9073,37040.3677,39731.9198,5688.2948,50299.2868,43653.7564,55863.4847,1011.9528,-474.0357,26493.3407
57252.9137,28494.224,54283.6189,42787.7605,37067.5921,39747.3872,5694.2403,50324.589,43672.8448,55874.2136,1036.1373,-458.9707,26501.7003
57269.3199,28503.2094,54279.7297,42794.6895,37083.5513,39749.5776,5694.7321,50351.7687,43673.5153,55871.5761,1047.5367,-449.4041,26500.2698
57259.9769,28499.9907,54274.7229,42788.744,37072.0178,39745.2861,5692.2287,50354.0039,43670.1626,55865.0047,1039.0431,-455.4391,26495.1289
57246.5211,28488.9936,54274.5441,42776.0035,37049.4872,39737.6418,5685.8361,50310.5521,43651.7894,55852.0406,1020.357,-470.1465,26487.3952
57243.6601,28488.0996,54280.9367,42775.1541,37040.7701,39740.7711,5687.5348,50303.8913,43655.0081,55856.958,1016.6913,-472.6499,26491.195
57258.144,28496.7721,54280.4897,42786.33,37068.9332,39746.0461,5692.184,50338.1789,43671.146,55863.3059,1032.0246,-459.0601,26497.5429
57282.418,28511.1666,54280.5791,42797.0141,37093.2072,39753.1092,5693.7039,50364.7774,43680.8914,55872.649,1047.3132,-447.1242,26502.8179
57274.9078,28510.0937,54277.3157,42792.5438,37090.6144,39748.6836,5690.0382,50360.3965,43676.6893,55870.2797,1038.4172,-451.9969,26497.1405
57254.7019,28502.0024,54279.5509,42784.6313,37062.4512,39743.6768,5691.8263,50344.5715,43660.6854,55864.5576,1018.3007,-459.9094,26493.4748
57241.8272,28496.8168,54281.0708,42774.8412,37047.9673,39742.2463,5689.3677,50332.4568,43649.1966,55859.8638,1006.8566,-466.302,26492.8937
57260.5133,28500.7507,54278.7015,42779.1774,37066.9216,39750.5164,5691.8263,50350.4276,43666.4522,55865.3623,1027.3755,-456.4226,26499.0628
57274.729,28506.6068,54280.445,42785.3912,37080.9585,39752.5281,5694.5533,50375.6851,43684.423,55871.129,1041.9935,-446.6772,26502.0579
57272.0915,28510.496,54284.6024,42797.7294,37083.2384,39752.8857,5698.0848,50375.7745,43670.5649,55865.3176,1035.9138,-449.3147,26500.4039
57243.2578,28496.7273,54275.617,42776.4952,37049.1296,39737.016,5684.8079,50340.4588,43649.9119,55853.65,1009.047,-471.7559,26487.4399
57223.9012,28480.2765,54271.3702,42757.228,37022.844,39726.2424,5679.9799,50321.3704,43641.0606,55847.5703,997.9606,-482.7976,26481.4943
57252.3326,28492.0335,54276.0193,42769.745,37047.8779,39735.9878,5680.0246,50352.1711,43656.9303,55855.7957,1015.0373,-472.5605,26485.607
57268.247,28495.4756,54276.0193,42779.6245,37064.8652,39742.2016,5678.6388,50365.1351,43674.3647,55861.7413,1023.8886,-465.408,26486.4117
57256.6241,28486.7585,54274.1865,42776.8081,37057.4892,39734.2443,5674.8837,50354.5851,43672.2189,55858.6121,1021.8322,-468.6266,26482.746
57232.1266,28483.4057,54276.064,42761.4748,37037.015,39726.7342,5674.2132,50342.7386,43658.2714,55852.6665,1005.1131,-482.5294,26478.2757
57225.4211,28480.4106,54275.7511,42750.3437,37022.3522,39725.0354,5670.2793,50331.3392,43653.0858,55849.8055,996.4854,-486.3292,26477.8286
57242.0061,28489.0831,54278.5674,42765.3641,37044.5698,39732.7244,5674.392,50350.3829,43666.0945,55855.751,1011.8634,-473.0076,26481.4049
57258.0546,28493.2852,54278.3439,42790.9791,37074.5212,39741.4416,5679.3094,50376.758,43683.1266,55862.3224,1032.0693,-457.2719,26487.9763
57255.283,28496.4144,54278.7015,42788.5205,37068.8438,39744.0344,5680.427,50383.0165,43684.423,55872.0231,1030.5941,-455.2603,26491.3291
57236.7758,28492.9723,54275.3488,42777.0317,37044.5251,39735.9431,5678.5047,50361.0224,43667.6592,55864.0212,1010.254,-469.2525,26487.6187
57221.3978,28489.8877,54274.3206,42774.3942,37036.2997,39730.5787,5682.8856,50348.8183,43662.25,55861.9648,1003.5485,-475.198,26486.9034
