FC3,FCz,FC4,C5,C3,C1,Cz,C2,C4,C6,CP3,CPz,CP4
56787.6846,28170.9284,54000.7353,42314.9318,36853.7307,39389.4911,5866.7958,50400.4955,44102.7135,55922.6274,609.4873,-610.4261,26122.3018
56769.3561,28165.0275,53997.2484,42297.1398,36827.8921,39377.1082,5860.6714,50381.8095,44091.0906,55914.4914,588.5661,-625.8935,26115.2387
56767.568,28162.6582,54000.2882,42295.754,36823.0194,39377.6894,5864.0242,50364.5986,44083.8486,55915.8325,581.0559,-627.5922,26116.401
56778.9674,28166.2345,54002.2999,42305.2311,36844.5218,39388.4182,5867.5557,50386.5927,44095.9185,55923.298,596.4786,-618.1151,26121.7654
56798.1899,28173.4318,54002.6128,42316.4964,36871.0756,39391.8604,5868.9862,50414.0854,44114.8281,55930.1823,611.5884,-604.8828,26127.0851
56791.4844,28173.3871,53998.4107,42313.3224,36862.269,39384.1714,5861.6549,50413.1913,44111.4306,55927.2319,608.5485,-607.6992,26125.8781
56771.0102,28168.9614,53993.6721,42301.2972,36834.9999,39375.9459,5855.4411,50398.3945,44093.1916,55919.8558,590.9801,-621.3337,26116.6245
56760.4601,28160.8701,53989.2912,42293.027,36818.4149,39367.6311,5853.3847,50373.897,44088.2742,55917.4418,577.8372,-632.5096,26113.0482
56767.0316,28161.4959,53990.6323,42299.9114,36830.4402,39377.2423,5857.5422,50392.8959,44104.6357,55919.9005,586.7779,-620.3055,26117.3844
56782.7225,28168.2462,53994.7003,42306.8851,36858.2457,39386.4959,5861.7443,50414.9795,44120.9525,55933.4904,604.1676,-607.2521,26122.6147
56782.8119,28170.079,53996.9802,42306.8404,36864.996,39382.1597,5860.2244,50411.9396,44112.1906,55928.3495,604.1229,-612.4824,26119.709
56758.7167,28157.2938,53990.5876,42294.0999,36839.5597,39371.0732,5853.3847,50389.2303,44098.7349,55918.2018,581.9947,-632.6884,26112.78
56744.054,28147.0567,53984.3291,42289.4508,36818.3702,39367.6311,5850.0767,50367.0126,44087.5143,55909.6634,568.1366,-643.1043,26108.4884
56754.7828,28150.0518,53985.3126,42295.754,36833.5694,39375.0966,5851.5072,50383.9105,44102.0429,55913.4632,581.5476,-629.3803,26112.9141
56768.9091,28157.115,53985.849,42308.9415,36854.8036,39383.0985,5853.8318,50416.2759,44115.901,55919.8111,598.8032,-617.2657,26115.1493
56769.3114,28162.9264,53991.3476,42314.7529,36858.1563,39384.4843,5857.5422,50418.7346,44117.0186,55923.9239,597.2832,-614.8517,26117.1162
56767.7021,28161.5406,53997.5166,42306.9298,36842.5995,39381.8468,5858.6597,50400.8979,44108.1673,55919.7217,585.9733,-624.463,26115.5963
56767.2551,28162.6582,53998.4107,42301.7889,36833.48,39385.9595,5861.8337,50386.6374,44106.7368,55919.1853,583.5146,-624.5524,26116.2668
56781.3814,28165.9216,53998.1425,42304.9629,36855.2953,39395.8837,5864.6053,50406.6646,44117.3762,55924.6838,589.5942,-616.9081,26123.0171
56801.8109,28177.008,54001.7188,42323.0678,36879.167,39413.7204,5870.8191,50432.5032,44137.001,55934.2504,606.9839,-599.7419,26129.9461
56803.5096,28177.1421,54006.055,42328.3428,36878.1388,39413.1392,5878.0611,50445.5566,44145.2712,55935.9491,617.221,-595.3163,26132.4495
56777.4922,28170.1684,54001.0929,42317.0775,36853.7307,39406.2102,5873.7695,50426.1553,44133.693,55930.0482,604.5699,-608.5932,26126.5486
56762.4718,28164.6699,53999.7071,42308.5392,36836.8328,39398.5659,5868.4051,50415.5606,44119.2538,55928.7965,589.7284,-616.9975,26123.3747
56777.1792,28169.1849,53999.3495,42313.3224,36854.893,39398.3424,5868.1369,50429.4187,44125.6016,55930.4953,594.2434,-605.8216,26125.7887
56784.1977,28171.2413,53994.0298,42314.1718,36866.0241,39403.975,5865.9911,50453.4692,44137.4928,55930.7188,604.0335,-597.4174,26125.1181
56778.3862,28161.5853,53990.4982,42305.9016,36854.6247,39397.1354,5857.4975,50446.6742,44134.4082,55927.6789,595.0034,-608.325,26118.9491
56762.1142,28151.7059,53996.6226,42303.5324,36840.4984,39389.9828,5854.3235,50423.6966,44126.0934,55930.3612,583.604,-620.4396,26117.6974
56746.7809,28146.7885,53992.1522,42298.7938,36824.0476,39387.0324,5853.3847,50409.615,44114.9175,55921.5099,572.3387,-631.0344,26111.0812
56765.7799,28157.3385,53994.9238,42306.9298,36843.4489,39394.9896,5858.3021,50429.9551,44127.5239,55928.2154,588.7896,-616.9528,26118.7702
56793.3172,28167.1286,54003.5516,42319.5362,36867.3205,39404.6456,5861.8337,50462.4546,44151.0826,55939.6148,602.8712,-601.6642,26126.7722
56789.9197,28167.4862,54003.1046,42319.0445,36860.5256,39410.5911,5864.9629,50468.0425,44147.864,55939.9724,598.1773,-604.1229,26124.8052
56777.4922,28159.6184,54002.0317,42313.7248,36848.8133,39406.0314,5864.9629,50442.2486,44130.7873,55937.916,587.8061,-616.4163,26122.3018
56771.6807,28157.7855,54004.5351,42312.2048,36840.2302,39402.6339,5866.7958,50432.7267,44122.1595,55934.3845,584.2745,-621.736,26120.6478
56795.5524,28162.39,54006.9044,42322.576,36865.3089,39415.732,5870.5956,50451.5916,44137.9398,55940.4641,600.3678,-608.3697,26126.6381
56815.2219,28171.286,54009.1842,42335.2718,36888.4653,39424.2704,5872.6519,50477.6537,44152.8708,55947.125,615.6564,-593.2599,26129.5438
56809.0975,28174.594,54010.1677,42334.4672,36882.0727,39421.2753,5871.3108,50473.6304,44142.8125,55944.6216,609.2638,-597.9985,26125.4311
56787.014,28167.3968,54009.1395,42321.4138,36851.719,39414.3015,5868.8521,50447.2107,44126.451,55938.4972,591.3377,-612.6165,26118.1891
56771.3231,28158.6796,54005.1162,42308.8521,36826.6851,39405.3608,5865.0523,50432.4138,44114.2023,55932.8198,581.7711,-624.1053,26113.0929
56791.4844,28161.3618,54006.1444,42313.9036,36848.5451,39406.9701,5864.1136,50444.5732,44123.6347,55934.608,594.1093,-614.8517,26118.5914
56809.7234,28165.8322,54005.608,42321.0114,36879.9269,39413.5416,5863.443,50466.8355,44140.9796,55946.0968,606.671,-599.5184,26124.6264
56803.4649,28165.4745,54001.8082,42318.2845,36878.0494,39411.1723,5862.236,50468.5789,44140.9796,55941.1347,604.9275,-605.464,26125.4758
56779.8615,28155.7739,54001.3611,42300.269,36847.0252,39405.4055,5860.4479,50439.9687,44129.312,55929.1542,591.0248,-620.6632,26119.0832
56760.7731,28142.8993,53995.4603,42288.7355,36828.5626,39399.6388,5852.5354,50421.3274,44119.7902,55919.677,574.7527,-629.8274,26111.4389
56774.6311,28146.252,53994.4321,42299.2855,36841.0796,39406.0761,5852.6248,50441.4886,44122.383,55922.6722,587.672,-619.5456,26116.6692
56794.8371,28156.0868,53997.8743,42316.2729,36870.3157,39413.7651,5858.615,50466.3438,44141.5161,55938.4972,601.396,-600.8595,26124.4476
56795.6865,28154.9692,53996.8461,42315.9152,36865.6218,39417.8778,5859.2409,50475.508,44146.5229,55941.2241,601.6642,-599.7866,26124.1347
56775.9275,28150.8118,53995.952,42302.8618,36839.4703,39412.2452,5856.2011,50459.8171,44131.8601,55934.6974,585.7944,-614.0918,26119.5302
56760.1919,28146.252,53995.1473,42296.3798,36825.8804,39410.7252,5852.3566,50447.613,44126.3616,55928.7965,578.8207,-620.7526,26117.9656
56769.4455,28155.3715,53995.7285,42305.7675,36842.9124,39418.2801,5852.5354,50463.1698,44135.4811,55935.9938,591.0695,-612.1695,26122.4359
56795.5077,28161.1383,53996.8461,42315.0212,36866.3371,39423.2869,5853.9659,50480.8724,44149.3839,55941.2241,607.565,-600.8148,26126.6828
56795.91,28158.0091,53997.7401,42312.2942,36864.683,39418.8613,5853.8318,50478.6372,44147.1934,55942.3417,605.5534,-603.6311,26124.4476
56775.9275,28150.0965,53999.4836,42308.9862,36849.0368,39413.318,5854.0106,50462.231,44131.9048,55936.262,590.2201,-618.6068,26120.4243
56765.8246,28148.0402,53998.6342,42307.4216,36834.9552,39413.0498,5856.7375,50450.3399,44128.9097,55930.3164,584.9898,-625.0441,26120.8713
56778.3862,28153.1364,53998.9024,42317.1669,36855.2506,39419.8,5862.9066,50472.8705,44136.0623,55935.7703,596.7021,-611.499,26128.9179
56799.4863,28159.7972,54001.0035,42327.6275,36873.8025,39427.7573,5864.7394,50489.5896,44154.3907,55944.4427,611.6331,-595.8527,26132.6283
56797.6087,28159.4396,54003.7304,42321.8161,36868.5722,39427.042,5863.8901,50480.1571,44148.4451,55943.1911,610.739,-599.3396,26130.1249
56776.6428,28150.3648,54002.9705,42309.0756,36846.7569,39416.6708,5857.8551,50457.716,44137.1351,55932.8198,586.3756,-617.8916,26123.1959
56761.533,28148.9789,53999.6177,42306.6616,36831.4236,39412.871,5856.5587,50451.9939,44130.5637,55927.5448,577.9713,-625.9382,26123.8664
56777.4028,28150.633,53997.2931,42314.1271,36851.5402,39420.6047,5859.0621,50477.0726,44143.9748,55936.7537,595.0034,-611.5437,26128.4262
56796.67,28157.6961,53996.0414,42321.5032,36878.1388,39422.3928,5862.5489,50501.5701,44152.7814,55937.2902,614.3153,-597.7303,26129.5438
56793.0043,28162.7923,53996.6226,42323.6936,36877.2,39422.7952,5861.1184,50503.2241,44149.7862,55941.4923,612.5271,-600.9936,26127.9792
56768.8197,28151.6612,53990.3194,42305.1864,36846.6228,39408.4901,5854.5917,50478.2349,44134.8106,55936.4855,590.2201,-620.5738,26119.8431
56762.9188,28147.0567,53989.0677,42307.198,36831.513,39407.1043,5853.1612,50453.3798,44127.3004,55925.7567,578.5525,-631.9284,26113.1823
56768.9985,28152.8682,53987.4583,42313.1436,36851.3167,39410.9935,5853.6083,50466.2097,44136.2411,55928.126,584.7663,-623.1219,26114.9257
56784.6447,28154.0304,53986.609,42320.2515,36874.9201,39416.5367,5855.0388,50488.6955,44148.4898,55934.9656,596.9256,-611.4095,26119.1726
56775.6593,28145.805,53986.2067,42314.5741,36857.8881,39406.836,5848.7356,50479.2184,44135.4364,55931.5681,590.4436,-618.2045,26115.5069
56763.5,28142.184,53984.9997,42302.4148,36826.7745,39399.1023,5846.9921,50455.4361,44124.4394,55923.6109,571.1317,-631.7496,26108.5331
56750.0889,28132.2598,53983.3903,42291.1048,36812.3353,39393.2909,5840.3313,50441.7121,44112.8612,55917.3077,557.4971,-642.4785,26102.7664
56765.0646,28144.1063,53989.7829,42305.4993,36832.273,39401.2034,5847.8862,50463.4827,44127.8815,55927.5448,577.4796,-626.8322,26114.7469
56790.0091,28159.1266,53997.0696,42328.8345,36867.6782,39414.7933,5856.2011,50497.8597,44150.9038,55942.5652,597.1938,-608.0568,26125.744
56783.2142,28149.0684,53994.4768,42328.2534,36864.1466,39413.0051,5854.2341,50500.2737,44157.5199,55942.6546,595.1822,-609.4426,26125.0734
56763.7682,28139.323,53991.8393,42314.5294,36832.72,39403.7962,5849.272,50472.8258,44143.0807,55934.5186,579.8489,-628.2628,26120.7372
56752.3688,28138.7419,53994.4768,42307.6451,36816.2692,39395.9731,5849.0932,50452.7539,44134.7659,55935.1891,568.7624,-638.5446,26117.7868
56769.4455,28148.4872,53998.1425,42317.9269,36845.2817,39401.561,5855.4411,50473.8092,44155.2401,55943.3252,586.7332,-621.4678,26120.3796
56791.842,28154.6563,53999.9753,42329.5051,36874.2496,39415.1956,5862.0125,50499.1114,44173.2109,55951.2377,609.8449,-607.118,26128.158
56784.9576,28158.0538,53998.5001,42331.3379,36877.2,39417.4308,5862.8172,50500.8101,44167.3994,55952.2659,612.7059,-606.1345,26130.9743
56764.3493,28146.9226,53997.6954,42316.9881,36851.4508,39405.9867,5859.7773,50479.9783,44147.4169,55940.5535,589.0578,-618.3386,26124.2241
56754.6487,28142.3628,54000.7353,42306.0358,36832.1389,39402.5892,5858.0339,50472.9152,44136.6434,55934.7421,581.1453,-624.15,26123.33
56766.7633,28146.4756,54000.6459,42313.9036,36840.6326,39412.4687,5861.342,50477.922,44151.8873,55942.4311,597.5068,-609.2638,26131.019
56790.2327,28158.322,54002.1658,42331.6061,36868.7063,39422.2587,5863.4877,50504.3864,44165.4325,55946.9014,613.9129,-599.1608,26134.2376
56802.1238,28163.9546,54000.0647,42328.2087,36865.6218,39418.146,5862.0125,50506.711,44162.1244,55944.0851,609.6661,-599.7866,26131.5554
56781.3814,28156.7127,54000.5118,42311.4896,36844.9688,39404.2879,5859.6432,50484.4487,44146.1653,55945.3368,587.8508,-616.4163,26126.2357
56768.9091,28154.7904,54003.3281,42299.8667,36828.9202,39404.6903,5857.5422,50468.7577,44137.1799,55942.744,575.4232,-625.4911,26122.8383
56779.8167,28159.3949,54002.2999,42307.7792,36839.3809,39417.0284,5857.0057,50495.6245,44148.4451,55945.2474,588.2978,-611.1413,26126.3698
56790.5456,28158.9031,54002.1658,42316.3623,36853.0601,39415.7767,5857.2292,50516.0987,44160.2468,55949.1813,599.5184,-603.3182,26128.158
56787.1928,28153.047,53999.0813,42316.8987,36852.2555,39410.457,5855.1729,50505.3252,44154.6142,55944.3533,595.0034,-614.0471,26124.1347
56771.7701,28142.8099,53998.9471,42306.3487,36828.1156,39399.3258,5852.0436,50480.8724,44143.4383,55937.0667,578.016,-625.2676,26118.9044
56765.6457,28138.4289,54000.1541,42297.9444,36813.3634,39393.6038,5847.8415,50471.887,44136.554,55936.9326,565.1861,-632.2861,26116.9374
56772.4407,28142.1393,54004.401,42302.2807,36836.6092,39411.9322,5856.2011,50492.4953,44148.8475,55944.398,581.8605,-617.3551,26121.7207
56789.2492,28149.873,54009.4078,42319.715,36867.9464,39422.8399,5864.1136,50511.4943,44169.4558,55955.5739,602.5136,-605.4193,26128.6944
56791.4397,28154.8351,54008.2008,42324.99,36872.9085,39423.9575,5863.8006,50513.9083,44181.3022,55965.1405,603.8547,-602.2006,26131.6001
56776.5087,28154.701,54006.5914,42315.0659,36848.5898,39419.0401,5864.8735,50507.6945,44170.9757,55955.5292,590.4883,-610.2473,26126.5486
56758.0462,28149.9177,54003.9986,42305.097,36827.758,39417.3414,5864.0689,50498.8879,44153.9437,55948.5555,574.7974,-617.3104,26121.9442
56774.05,28158.322,54008.916,42314.5741,36846.8016,39422.527,5868.1816,50519.3174,44171.9145,55958.9714,591.0248,-606.3581,26126.8616
56801.945,28169.4978,54012.0453,42330.3545,36882.6985,39430.8865,5871.8473,50545.2454,44189.0806,55964.2017,610.7837,-596.1657,26129.6779
56793.496,28169.7661,54007.4408,42324.8559,36873.3555,39420.5153,5864.1583,50539.2551,44182.4198,55959.0608,603.2288,-600.6807,26125.2075
56767.7915,28160.5572,54001.7635,42308.9862,36834.4635,39405.6737,5855.754,50513.1483,44160.3363,55945.4262,580.3853,-621.9149,26112.6012
56750.3572,28139.4124,53996.3096,42298.8385,36808.2225,39390.1616,5848.065,50487.5779,44140.1303,55937.7819,564.2027,-634.7448,26104.7781
56758.5826,28138.9654,53990.5429,42303.443,36818.5937,39387.9712,5843.5947,50488.7402,44144.7347,55936.5302,574.1268,-628.6204,26107.3261
56779.5038,28145.4921,53990.0512,42315.3788,36837.5927,39395.5708,5843.3712,50508.7227,44162.035,55945.2474,587.4932,-619.9032,26111.3942
56778.8333,28142.4075,53985.5808,42312.7413,36834.9105,39388.4629,5842.1195,50505.0123,44164.2255,55943.2805,583.2464,-624.3289,26109.1143
56756.7945,28139.0101,53986.3855,42297.7209,36811.4859,39382.4726,5835.1457,50482.9735,44140.3538,55933.9374,567.2425,-637.874,26102.0064
56738.466,28133.4221,53984.8208,42281.9406,36793.6045,39377.8235,5828.3508,50460.13,44123.1877,55925.265,552.6692,-649.9887,26094.228
56753.9334,28139.8147,53986.7431,42292.8035,36814.3916,39383.0538,5832.7317,50475.9997,44134.2741,55930.3612,566.6614,-632.9566,26102.0511
56783.7059,28149.2472,53985.8043,42313.0989,36842.4207,39396.1966,5837.8279,50508.9462,44148.6239,55936.6643,588.4767,-617.668,26108.0861
56789.6962,28155.7739,53987.1901,42313.4565,36841.616,39396.7777,5838.6326,50518.4233,44148.9369,55940.4641,586.6438,-618.3386,26109.3825
56776.017,28145.9391,53985.9831,42298.8832,36817.342,39398.253,5837.4256,50487.3544,44142.4102,55930.0929,575.8256,-623.6583,26108.399
56767.5233,28142.5864,53985.6702,42290.2107,36806.8367,39401.2034,5836.6656,50466.612,44136.8669,55922.9851,567.2425,-631.1685,26103.3475
56787.5504,28144.8215,53987.1454,42302.8618,36829.6355,39415.3297,5837.7832,50490.3942,44145.8076,55927.9919,578.8207,-621.5572,26106.3874
56807.9352,28152.4658,53989.6935,42319.3574,36848.5898,39429.6348,5841.8512,50520.6585,44161.7221,55930.8976,599.7419,-608.2803,26114.0317
56807.8905,28154.8351,53991.437,42322.4866,36846.0864,39426.9526,5843.1476,50528.0793,44156.5365,55935.7703,599.7866,-611.0966,26115.5069
56786.7458,28149.8283,53993.4039,42314.3953,36832.273,39419.4871,5844.6229,50506.6216,44135.3917,55928.7965,583.7381,-623.9265,26109.7401
56767.2998,28148.8001,53994.8791,42303.7112,36815.8221,39413.1392,5844.3099,50488.919,44125.6016,55922.0463,573.9927,-629.9615,26107.192
56773.4241,28146.0285,53995.9073,42309.5673,36826.1039,39415.8661,5850.1661,50503.3582,44135.5705,55929.5118,584.811,-615.6564,26113.6293
56786.0752,28149.3813,53994.5215,42312.8307,36835.5811,39410.1888,5850.0767,50530.0909,44137.4928,55933.1775,595.1375,-608.1015,26116.4904
56777.8945,28152.9576,53994.0298,42308.6733,36832.6753,39404.3773,5853.2953,50525.263,44127.9709,55930.8976,592.8129,-611.8566,26115.7304
56758.7167,28150.4989,53994.3427,42302.5489,36819.756,39398.253,5858.2127,50494.8199,44113.1294,55922.851,582.5758,-625.7147,26110.7683
56740.0753,28150.1859,53990.1853,42289.8978,36807.7755,39392.3074,5857.9892,50464.1533,44099.1372,55917.6207,570.8188,-628.7098,26106.745
56754.2464,28156.7127,53990.5429,42290.7919,36824.0923,39397.3589,5861.789,50471.5741,44098.7349,55919.3194,579.8489,-621.3337,26111.0812
56763.8576,28162.5688,53993.0016,42300.4031,36852.926,39396.9119,5866.3934,50487.9355,44101.5065,55929.7353,588.9237,-614.1812,26114.1211
56757.7332,28158.4561,53987.816,42297.8997,36852.7919,39388.9546,5862.1019,50472.3787,44096.5444,55926.2037,583.7828,-621.2443,26108.712
56732.8781,28153.4493,53987.1901,42287.6626,36828.5626,39380.1481,5860.0456,50445.7802,44084.698,55916.5478,572.4728,-633.8507,26104.5098
56715.712,28150.4095,53989.0677,42275.8162,36810.5918,39375.2307,5859.9114,50422.892,44072.4045,55909.1717,561.2969,-643.0149,26101.2912
56727.0666,28153.941,53990.0512,42281.583,36821.3654,39379.0752,5862.7278,50424.5907,44071.3316,55912.1668,572.4281,-632.599,26107.5944
56744.948,28170.0343,53993.6721,42297.0951,36849.4391,39384.4843,5870.9979,50437.1077,44079.1547,55922.538,593.5729,-613.9576,26116.848
56733.8169,28178.8856,53992.331,42299.2408,36840.1855,39385.0654,5872.6072,50428.5246,44076.4278,55919.23,593.5282,-616.3269,26116.8033
56717.9471,28177.9915,53995.8179,42288.2885,36815.4645,39385.4231,5872.3837,50398.7968,44061.0945,55912.9268,578.1502,-629.2909,26113.1823
56699.5293,28175.7563,54000.1988,42278.0961,36802.4111,39381.3998,5875.9153,50377.7415,44054.7466,55909.3058,567.2425,-633.8507,26112.3776
56722.9539,28188.5415,54002.9705,42297.6762,36827.1768,39393.2462,5883.2467,50391.4654,44065.8331,55914.0891,582.844,-616.5951,26120.2902
56747.4067,28199.5386,54007.6643,42315.3788,36850.3779,39405.3608,5885.7054,50409.3021,44079.3335,55918.2465,604.1229,-600.636,26127.4874
56747.3173,28201.3714,54009.4972,42314.4847,36845.8629,39403.7962,5885.1242,50401.4343,44076.6513,55918.7829,604.4805,-605.1958,26125.0734
56726.1726,28190.3744,54010.6595,42302.2807,36820.8289,39399.5941,5882.0397,50376.3556,44066.6825,55914.3573,589.6389,-617.0869,26123.8664
56716.3378,28183.5794,54008.2902,42298.615,36809.1166,39399.9964,5884.5878,50351.7687,44052.7797,55909.574,580.8771,-627.4134,26122.883
56723.2668,28182.4172,54005.5633,42300.0008,36819.3984,39400.2199,5885.2136,50356.2391,44055.4619,55912.7927,591.2036,-621.6466,26123.777
56736.4991,28188.318,54006.055,42307.1086,36837.9503,39403.1703,5884.9454,50378.7249,44061.0498,55914.4914,602.1559,-609.7108,26126.9957
56743.6963,28188.8545,54009.3184,42312.786,36835.4023,39396.1072,5882.3079,50380.5578,44063.732,55915.9219,606.1345,-605.2405,26129.812
56726.5749,28176.5163,54007.0832,42300.8949,36806.6579,39379.4775,5878.5081,50349.2206,44045.0013,55906.1766,585.4815,-622.4513,26120.469
56715.8908,28167.1286,54005.3844,42294.8599,36784.7532,39374.0684,5876.5858,50321.5045,44032.4396,55893.7043,577.9266,-630.8556,26113.2717
56734.1298,28166.905,54002.0317,42298.3021,36796.9573,39378.6728,5871.3108,50327.6736,44043.839,55891.782,589.0578,-624.15,26115.4175
56750.0442,28169.2743,54000.02,42308.6733,36822.5276,39382.2938,5871.5343,50342.7386,44058.6805,55902.2874,601.7536,-610.8731,26119.2173
56749.5078,28169.2743,54001.1376,42313.4118,36816.135,39380.7739,5869.8356,50344.1244,44059.664,55906.7577,600.9489,-610.2473,26120.2008
56728.7654,28160.9148,54000.7353,42301.1184,36792.9786,39371.2074,5866.0805,50316.6318,44043.6602,55898.2641,587.4485,-627.1452,26115.8198
56708.0677,28148.5766,53992.1522,42286.098,36771.1633,39360.5679,5859.7773,50294.8165,44030.1597,55889.3681,571.3552,-639.7516,26111.8859
56721.2105,28151.2588,53985.8937,42288.1991,36780.0593,39361.5961,5858.0786,50301.8349,44032.8866,55896.9676,576.6749,-632.3755,26113.227
56743.294,28158.0091,53990.0064,42302.5489,36801.2041,39365.3959,5864.1583,50321.8174,44042.7661,55904.6566,593.0364,-616.3716,26119.5302
56753.6652,28158.4561,53993.1357,42303.0853,36803.6628,39367.497,5867.2875,50326.4666,44046.7,55902.8685,598.1326,-617.2657,26122.2124
56735.0686,28153.8069,53990.677,42288.7802,36776.5725,39364.3677,5864.2924,50301.2091,44030.6515,55900.991,580.8771,-631.5708,26116.8927
56727.3349,28144.7321,53990.7217,42276.755,36761.3286,39356.7681,5856.7822,50283.6406,44020.8614,55894.8219,560.7605,-639.6621,26110.0084
56745.7527,28149.2472,53996.3543,42284.3993,36778.0477,39362.5349,5860.3138,50303.3996,44030.7409,55900.991,574.1268,-626.9217,26115.3281
56774.497,28159.976,54002.7469,42296.7821,36803.6628,39370.5815,5868.8074,50328.21,44052.8244,55911.8092,598.3114,-606.9839,26123.4641
56771.9042,28162.3453,54003.7304,42295.9328,36808.0884,39370.4027,5868.0475,50325.5278,44061.2286,55913.5973,600.0549,-605.0169,26126.3251
56753.3523,28160.9148,54003.4622,42292.8035,36784.8873,39369.4192,5866.7958,50307.8252,44052.6009,55909.887,589.1025,-620.4396,26127.0404
56745.1715,28164.1334,53995.952,42284.6228,36761.418,39366.29,5868.1369,50299.421,44044.0625,55909.3058,575.155,-634.2083,26119.9325
56760.9519,28173.9235,53998.366,42297.3186,36791.5928,39378.4493,5872.339,50322.0856,44063.8661,55918.4253,590.7118,-621.289,26122.9724
56770.3396,28174.2811,53999.0366,42310.4167,36822.3041,39376.6612,5871.2661,50350.4276,44070.974,55923.298,603.2288,-611.8566,26126.8169
56763.6341,28165.0275,53995.3709,42304.8288,36818.7279,39371.3862,5867.9581,50350.5617,44066.2801,55923.5662,599.4737,-615.4329,26128.2474
56742.7576,28153.6728,53993.4486,42290.7472,36791.5928,39358.4222,5864.1583,50324.9019,44056.5348,55919.9452,583.2911,-624.463,26121.9889
56725.9938,28147.5037,53995.952,42284.9357,36771.6998,39351.4931,5863.2195,50306.8417,44045.8506,55909.9317,569.9247,-634.6554,26118.2338
56741.9529,28147.5931,53994.4321,42291.5071,36794.0515,39359.3609,5865.4994,50324.0079,44052.5115,55913.1503,582.844,-625.0441,26120.8713
56763.8576,28151.3035,53994.1192,42302.8171,36821.8571,39368.6146,5865.1417,50339.0729,44064.8943,55919.4088,601.8877,-607.7886,26121.4525
56758.7167,28151.6165,53995.952,42304.4711,36818.1914,39372.1908,5862.996,50329.5064,44070.0799,55920.8393,603.2735,-609.979,26119.9325
56740.3883,28154.9692,53994.7897,42294.8152,36796.2867,39373.5319,5861.1631,50315.5142,44058.8146,55918.2465,587.6273,-621.1549,26118.0997
56736.6332,28158.5008,53996.0861,42294.3234,36783.278,39378.7622,5868.1816,50319.5375,44055.4619,55913.9103,579.3571,-631.4814,26118.2785
56749.1055,28166.9497,53997.0696,42302.5936,36801.6511,39382.2491,5872.5178,50343.1857,44062.4803,55915.4749,589.8625,-620.5291,26121.9889
56771.3678,28174.3705,53997.4719,42317.614,36829.1438,39391.1898,5876.8094,50373.8075,44080.0488,55926.2484,605.8663,-601.0383,26127.8898
56771.1443,28181.4784,53995.0132,42323.2913,36832.0495,39394.4532,5877.3458,50378.412,44076.4278,55924.1027,607.7886,-605.5534,26123.8664
56760.639,28173.3871,53993.0463,42307.958,36808.4013,39390.0722,5874.2613,50356.0603,44069.007,55919.23,587.4485,-624.6865,26115.8198
56752.5476,28170.1684,53994.1192,42301.029,36796.9573,39391.0557,5872.8755,50346.7619,44063.3744,55910.6469,577.7925,-630.2744,26113.2717
56762.5612,28168.6038,53994.5662,42307.5557,36807.1944,39394.9449,5867.6898,50360.4859,44068.9176,55912.0774,587.4485,-620.1714,26115.9092
56785.3153,28172.94,53996.2649,42319.6256,36834.687,39405.7184,5869.925,50384.447,44083.7145,55921.3758,606.671,-607.7886,26121.0948
56781.0684,28169.0955,53990.677,42314.7976,36835.2681,39411.1276,5867.7346,50384.447,44083.8486,55915.0279,606.5369,-608.8614,26117.8315
56759.879,28161.63,53984.1503,42304.0241,36815.5092,39409.4288,5860.7608,50368.1302,44074.1479,55904.9696,586.4203,-623.4348,26114.7916
56750.983,28155.3268,53985.9831,42298.3915,36800.4888,39408.6689,5861.5655,50356.552,44068.8282,55910.2446,576.0491,-633.1801,26115.5069
56758.0462,28160.5572,53988.0842,42302.3701,36815.1516,39411.2617,5861.4761,50373.4052,44079.0653,55916.4137,582.2182,-624.9994,26118.6808
56778.6545,28172.8059,53989.8276,42323.9619,36839.1126,39415.732,5865.7229,50397.5898,44098.109,55923.2086,604.8381,-606.8945,26126.7722
56779.5932,28170.6154,53988.6653,42320.922,36832.9883,39413.7651,5867.7346,50402.7754,44091.6717,55920.9734,604.6146,-604.8828,26126.0569
56759.9237,28159.3055,53989.4253,42310.6849,36813.1399,39403.8856,5867.064,50384.2235,44083.3569,55917.3971,589.6837,-614.5388,26121.7207
56750.5807,28159.529,53994.1192,42294.9493,36799.0136,39392.3074,5865.097,50371.17,44077.6795,55915.7878,573.054,-621.1996,26122.5253
56772.9324,28176.3375,53999.2601,42312.2495,36819.9795,39405.0479,5875.1106,50399.4673,44095.4715,55924.4156,589.2366,-611.4095,26132.4942
56785.8964,28183.043,54002.3446,42323.4254,36852.6131,39408.356,5877.9716,50423.4284,44107.2732,55933.1328,609.1297,-598.7138,26135.3105
56781.2026,28179.5561,53996.5779,42311.3108,36838.9338,39400.4881,5872.3837,50421.4615,44104.6804,55930.8976,603.4523,-605.5534,26131.6895
56761.086,28170.9284,53990.3641,42292.4906,36803.3946,39387.4794,5866.1699,50393.2536,44087.1567,55923.0745,582.6205,-623.256,26122.883
56753.844,28163.9993,53992.5545,42288.2438,36791.5481,39384.0373,5865.5888,50367.3702,44074.6844,55925.0414,573.054,-628.978,26119.9325
56768.1938,28169.2743,53992.0181,42296.0222,36813.9446,39384.4396,5868.5392,50383.24,44084.9662,55924.0133,582.7993,-620.082,26119.0832
56780.8449,28172.6718,53985.7149,42298.615,36832.3624,39381.0421,5866.2593,50408.6763,44099.0031,55924.3262,592.1423,-613.153,26121.4525
56777.9839,28171.5095,53983.8821,42296.8715,36835.9387,39379.254,5867.824,50406.9328,44095.0245,55925.7567,595.361,-612.9295,26123.0171
56752.1453,28163.4629,53979.7693,42280.7336,36810.9047,39372.9955,5861.8784,50370.0525,44080.2276,55914.6255,575.3338,-623.5689,26115.8198
56746.8703,28160.6466,53981.0658,42275.2798,36792.5763,39376.08,5864.0689,50352.6628,44074.6844,55912.0774,568.4048,-632.9566,26118.502
56761.8906,28166.1451,53987.056,42288.1991,36809.7872,39377.9576,5870.8191,50376.758,44091.0906,55927.5448,586.8673,-614.5388,26128.6944
56782.4095,28173.3871,53990.9899,42303.2194,36842.1078,39384.3949,5877.167,50407.2458,44107.3626,55936.9326,606.5369,-603.3182,26130.7061
56788.981,28173.6553,53996.1755,42309.0309,36851.2273,39391.2792,5879.8492,50407.2905,44109.866,55938.676,608.4591,-602.5583,26133.1648
56767.4339,28162.5688,53998.5895,42295.9328,36829.4567,39383.1879,5877.3905,50369.8736,44097.6173,55929.6012,586.6885,-615.5223,26127.1745
56754.4699,28164.9828,54000.78,42290.6578,36818.2808,39379.0305,5877.0776,50347.8795,44091.2247,55925.7567,577.1667,-620.4844,26123.3747
56769.6691,28166.1004,54000.8694,42297.0951,36831.4236,39389.4464,5879.0892,50370.4548,44101.0594,55930.8976,589.9966,-609.9343,26126.1463
56791.3502,28167.3074,54005.3844,42310.9084,36856.3682,39397.2248,5881.682,50397.5004,44121.8913,55939.883,605.9557,-599.7866,26131.8237
56797.8323,28169.0955,54006.6361,42312.5625,36851.6743,39400.354,5884.9454,50399.3332,44111.5648,55937.6031,600.9936,-598.4008,26134.0141
56778.7439,28161.4512,54001.0035,42300.3137,36823.0641,39394.0508,5879.0445,50375.5063,44087.9613,55925.1308,582.7993,-614.4941,26125.1181
56757.465,28162.7029,54001.3164,42292.3118,36810.9941,39393.872,5875.96,50366.5656,44087.1567,55925.6673,576.809,-625.5805,26124.0453
56763.0082,28164.7146,54000.5118,42296.0222,36828.8755,39400.0411,5874.753,50382.4353,44091.9846,55924.9073,585.7944,-615.3882,26124.984
56777.1345,28171.733,54003.3728,42304.8735,36850.3332,39405.4949,5879.3575,50405.5917,44109.4637,55931.2999,602.5136,-599.0267,26129.8567
56776.2405,28168.425,54005.7868,42310.3273,36854.6695,39406.0314,5880.9221,50407.1116,44114.694,55930.227,608.2803,-598.7138,26133.5671
56754.4252,28161.4959,54002.6575,42302.7277,36836.0728,39400.3987,5877.5693,50382.7929,44101.5065,55919.4982,593.8411,-617.7574,26124.984
56741.1035,28151.7506,54002.8811,42292.133,36818.6384,39394.8555,5875.3788,50363.6152,44086.1732,55910.6469,579.0889,-628.3969,26119.4855
56761.4883,28161.2277,54000.7353,42298.3468,36832.4965,39399.907,5877.3011,50382.3012,44094.2645,55922.6722,591.9635,-615.8352,26127.0851
56773.603,28170.839,53998.813,42302.0571,36846.3993,39408.043,5876.0941,50408.8104,44102.4452,55929.9141,609.3532,-605.1511,26131.9131
56777.4922,28170.1684,53998.5001,42307.8686,36858.2904,39416.1344,5876.72,50410.7773,44107.1838,55928.126,609.4426,-602.7371,26132.226
56758.0462,28160.6913,53994.0298,42294.4576,36832.0495,39402.9021,5869.1204,50384.0894,44099.9418,55921.1075,589.326,-616.461,26126.0122
56742.6234,28157.5173,53994.6109,42283.7287,36807.3732,39395.1684,5869.7462,50356.9096,44088.0954,55913.8209,574.5739,-627.4581,26121.8995
56756.3474,28160.0207,53993.4933,42290.6131,36826.9533,39396.9119,5870.2826,50370.3207,44091.4482,55919.9899,585.1239,-621.8702,26123.4194
56778.565,28166.1451,53994.1639,42303.9347,36855.9659,39399.9964,5871.5343,50399.065,44100.7018,55928.2601,598.8479,-607.3415,26124.0005
56780.1744,28164.8934,53994.1192,42304.6052,36857.5305,39396.6883,5871.6238,50396.8745,44098.3772,55926.919,598.4902,-611.0519,26123.4194
56757.465,28160.6466,53994.9238,42294.5023,36837.7268,39394.8108,5870.1485,50389.6326,44084.0274,55920.437,585.5709,-626.0276,26119.3961
56746.2891,28158.8584,53996.8014,42283.1923,36822.4829,39390.2957,5871.7579,50369.5607,44076.2043,55917.263,575.2444,-633.3143,26114.2999
56763.6788,28164.2228,53995.0579,42293.1165,36838.4868,39393.2015,5875.6471,50389.0514,44091.9846,55923.8344,586.3756,-624.9994,26120.7372
56782.5437,28177.9915,54000.7353,42302.6383,36863.0737,39399.3258,5882.0844,50416.1417,44115.4093,55930.7188,605.464,-605.8216,26130.1249
56784.6894,28179.3326,54003.7304,42304.8735,36861.375,39401.7845,5880.788,50412.6549,44118.3597,55932.3281,604.2123,-604.704,26127.4427
56777.4922,28178.6174,53999.9753,42299.822,36841.0349,39399.0129,5882.2185,50392.9406,44112.4141,55929.3777,593.6176,-613.8682,26125.0734
56762.5612,28175.2199,53995.5944,42287.5285,36820.963,39395.079,5883.1125,50370.723,44101.4618,55925.3097,585.3921,-622.1384,26127.6662
56777.1792,28175.3093,53998.5001,42293.2059,36834.0611,39399.5494,5888.2982,50382.5247,44109.9554,55929.9141,594.1093,-613.153,26129.5438
56794.3454,28175.8904,54001.0035,42299.822,36859.4974,39402.4998,5889.9075,50406.9775,44123.9923,55934.8315,608.0121,-597.6856,26136.4728
56794.256,28173.4318,54006.3232,42299.3749,36858.1563,39399.7282,5888.8793,50406.9328,44123.9029,55942.8334,605.6428,-596.8809,26137.1434
56776.2405,28164.4911,54003.4175,42291.1048,36836.7434,39393.425,5885.1689,50386.3692,44113.04,55936.2173,590.1754,-609.7108,26128.6497
56768.328,28164.2675,53999.4389,42284.2205,36818.0573,39389.6699,5878.5528,50375.9086,44100.2995,55926.2484,576.0491,-624.8206,26122.123
56781.7837,28175.7116,53998.366,42289.8978,36836.2963,39392.4415,5880.788,50388.9173,44106.7815,55929.6906,587.8955,-617.221,26121.9889
56796.7147,28180.3608,53996.3096,42295.9328,36852.5684,39395.5708,5881.5479,50404.6977,44112.0118,55932.954,604.3464,-605.0169,26123.9111
56786.7458,28178.1703,53998.5895,42295.3516,36850.4226,39392.3521,5875.2447,50399.9144,44109.4637,55929.5118,604.1676,-606.0451,26121.1842
56767.3445,28172.5824,53998.2766,42291.5071,36833.033,39383.5902,5872.0261,50382.5247,44103.6969,55928.4836,590.9353,-615.7905,26113.5399
56757.018,28165.5639,53997.2484,42284.4887,36814.7492,39378.9411,5873.8142,50372.377,44096.9914,55922.4039,570.1035,-629.4698,26112.2882
56770.7419,28167.4415,53998.6342,42290.0766,36834.6423,39384.5737,5878.9551,50395.0417,44105.5298,55927.5895,583.4252,-615.7458,26117.5185
56797.4746,28181.9701,54003.2834,42301.029,36860.5703,39395.1237,5885.9289,50417.9746,44125.4675,55936.7537,602.29,-599.3843,26124.4029
56799.7992,28183.7136,54003.0599,42304.1582,36861.6432,39401.9186,5882.6655,50411.8949,44131.279,55940.3747,602.6477,-600.0102,26125.5652
56782.5884,28175.3987,54003.4175,42301.2972,36844.3429,39403.7068,5886.063,50402.686,44121.936,55941.7605,592.2765,-605.7322,26127.0851
56769.2667,28166.8156,54005.9656,42293.2953,36829.859,39402.6339,5886.3759,50390.8396,44112.5482,55934.9209,582.1735,-609.0403,26127.7556
56783.3036,28172.0906,54007.5302,42295.9328,36848.411,39411.7534,5889.8181,50407.1563,44119.5667,55941.7605,591.9188,-603.6758,26129.3203
56802.2579,28175.8904,54013.6993,42311.579,36874.9201,39419.8895,5894.4672,50434.7384,44140.8008,55947.0356,612.9295,-590.4883,26135.4893
56795.7312,28172.8506,54013.6099,42310.7296,36866.8735,39414.1674,5893.4838,50435.3195,44135.8835,55942.0288,609.085,-588.1637,26130.4826
56772.4407,28163.3735,54005.8762,42296.8268,36838.5315,39404.6456,5887.0912,50409.7939,44119.0302,55933.2669,589.5942,-607.3415,26119.1726
56761.8906,28155.1927,54004.8927,42290.6578,36817.2526,39402.9468,5885.0348,50397.9027,44106.8709,55930.8529,576.9432,-622.2278,26115.3728
56777.2239,28159.6631,54009.2289,42304.1135,36839.7385,39409.6076,5890.0863,50420.031,44123.143,55932.194,590.9353,-612.8401,26121.5419
56793.2278,28169.3637,54011.3747,42317.7928,36872.372,39423.6445,5889.0581,50447.9706,44143.7513,55940.5982,612.3036,-596.6127,26126.5486
56788.8916,28168.7379,54003.7304,42309.8803,36864.1466,39421.4988,5884.4984,50442.0251,44136.6881,55938.1396,610.6943,-603.1394,26124.2241
56767.8362,28157.7855,53997.4719,42303.3535,36837.1457,39409.5182,5881.5926,50414.2195,44121.5336,55927.3213,590.9353,-615.0752,26121.2289
56749.6419,28149.9624,53992.8675,42288.065,36809.6977,39395.3025,5873.1437,50389.4091,44113.5317,55921.2863,571.8023,-629.2462,26114.2552
56759.2084,28148.7107,53992.5545,42293.4741,36822.3488,39400.2646,5868.8074,50409.2574,44120.2372,55927.9025,581.9499,-621.5572,26117.7421
56783.3036,28147.5931,53990.3194,42297.6315,36839.8726,39404.2432,5863.2642,50433.7102,44130.7873,55932.7304,596.3445,-617.221,26120.6925
56787.0587,28146.8332,53990.8111,42302.2807,36838.9338,39403.0809,5865.8123,50432.5926,44128.3286,55933.3563,596.6574,-616.014,26118.8149
56773.0665,28147.8167,53997.4719,42295.441,36821.3654,39403.5727,5869.1204,50410.9114,44122.5171,55930.8082,588.4767,-622.4513,26115.5069
56757.3309,28145.358,53998.5001,42286.4109,36806.9708,39392.218,5864.7394,50383.4188,44103.7863,55925.4438,577.9713,-634.0742,26109.2931
56773.5583,28155.148,54000.4224,42298.8832,36824.584,39402.2316,5870.4168,50400.2273,44116.5715,55933.8033,588.432,-619.635,26113.8082
56789.1151,28163.7311,53998.2766,42310.4167,36846.8016,39408.9371,5873.1437,50421.6403,44132.9777,55939.7936,601.083,-607.7439,26116.1327
56795.2394,28164.6699,53996.9355,42310.8637,36851.2273,39410.0994,5871.2661,50428.8822,44138.1186,55938.4525,599.429,-605.9557,26115.5963
56772.7983,28152.3764,53993.7168,42294.0552,36823.824,39399.2364,5866.7958,50403.8036,44118.2703,55924.0133,578.1502,-624.5971,26107.5944
56758.5826,28146.4309,53992.5992,42285.2039,36808.9378,39388.5523,5865.0523,50392.136,44108.2567,55918.4253,565.3203,-628.5757,26103.5711
56777.2686,28149.9177,53996.4885,42297.6315,36838.0845,39394.9896,5865.3206,50409.8833,44123.8135,55931.4787,580.6983,-616.6399,26110.5895
56794.256,28156.0868,53997.0249,42305.1417,36857.6199,39399.9964,5864.2924,50433.6655,44140.175,55937.7372,591.0248,-608.4591,26116.6692
56794.1666,28157.5173,54000.7353,42304.3817,36852.9707,39404.9138,5870.8638,50438.4041,44142.4996,55937.6031,594.8246,-606.8945,26120.5137
56778.9227,28154.3434,54003.8198,42297.6315,36834.1506,39401.7845,5872.9649,50428.0776,44129.4014,55933.7139,587.4485,-616.1034,26121.5419
56764.394,28141.9605,54001.4058,42286.9921,36815.9115,39396.4201,5868.4051,50402.0154,44120.9078,55927.6342,570.9976,-624.0159,26117.9656
56766.2716,28143.0334,54001.7635,42292.2671,36832.0942,39405.1373,5869.8356,50415.6053,44127.211,55924.8179,579.6254,-615.8352,26122.0336
56785.8964,28149.8283,54005.7868,42300.5819,36852.3449,39410.7252,5874.9318,50439.6558,44139.6832,55932.2387,591.1142,-604.3464,26123.777
56793.049,28152.2423,54003.641,42305.9016,36855.6529,39410.5464,5877.614,50441.0863,44144.1536,55938.1843,590.6671,-604.7487,26124.984
56782.7225,28157.8302,54004.401,42306.5275,36844.5665,39412.111,5879.5363,50429.7316,44132.2178,55930.1376,581.5029,-615.5223,26122.2124
56770.9208,28148.3978,54001.3164,42292.0436,36822.3041,39408.356,5875.2,50411.135,44118.0915,55924.4156,568.4495,-627.1452,26114.9257
56775.6593,28148.7554,54002.9705,42294.1446,36835.9387,39412.9604,5876.7647,50430.4022,44132.3072,55930.4953,585.4368,-614.1812,26121.4972
56795.3736,28157.9643,54004.5351,42310.6849,36865.7559,39417.1178,5885.0348,50459.1912,44144.9583,55936.709,603.497,-601.4407,26127.8898
56790.0985,28162.1218,54000.9588,42312.2942,36871.2544,39418.6378,5887.717,50462.991,44144.9583,55934.7421,605.7322,-601.7536,26124.6264
56764.0811,28156.355,54001.5399,42302.4595,36843.0018,39415.9108,5882.4867,50444.3496,44145.6735,55930.2717,592.947,-610.4708,26120.6031
56748.7478,28147.5484,54000.3777,42290.0319,36822.3041,39413.1392,5880.788,50427.4964,44135.3023,55924.4603,580.1618,-618.2045,26117.0715
56769.8032,28158.8584,53998.4107,42296.3798,36838.7103,39420.1577,5883.2914,50445.7802,44135.4811,55924.9073,587.3144,-609.7555,26119.9325
56790.5009,28171.286,54004.6692,42309.6567,36866.7394,39431.1547,5888.924,50471.4847,44155.5083,55943.4593,605.0169,-594.9587,26126.9063
56787.1034,28171.7777,54007.5302,42316.094,36868.1699,39428.3384,5891.5168,50481.23,44157.8776,55944.711,607.2968,-590.2648,26130.259
56771.0102,28160.1548,54007.5302,42302.1913,36838.5315,39416.5367,5884.409,50460.8005,44136.0176,55936.7537,587.8061,-608.2803,26123.7323
56758.7167,28165.3851,54011.6429,42292.8929,36819.8007,39409.2947,5884.0513,50445.199,44131.0555,55936.3514,575.4679,-618.7856,26120.3796
56774.0053,28167.3521,54013.6993,42293.6976,36837.3245,39414.1227,5882.7996,50459.1465,44141.7396,55935.5915,580.43,-612.1695,26123.9111
56791.1267,28170.4813,54011.1512,42296.201,36848.7686,39415.8661,5876.6305,50474.6586,44156.0,55942.2076,591.0248,-601.9324,26125.1181
56782.6331,28164.7593,54003.8645,42287.2156,36840.5432,39402.4551,5870.4615,50463.3039,44148.311,55935.055,583.2911,-608.2803,26119.5302
56758.2697,28152.9576,53996.399,42278.0514,36817.4762,39389.7146,5864.203,50440.0134,44130.072,55924.1027,565.1861,-628.8439,26110.7683
56746.5574,28147.459,53990.3641,42276.9338,36807.7308,39388.8652,5861.4761,50422.8026,44119.4773,55919.4088,557.9442,-638.0975,26105.5827
56765.5116,28154.6116,53988.3077,42285.4275,36829.1885,39399.8176,5862.5042,50437.1077,44125.1993,55918.2912,572.1599,-625.357,26108.6673
56788.1763,28164.4911,53989.2018,42298.1679,36849.8862,39408.3112,5862.3701,50462.3652,44128.865,55923.9686,588.5661,-612.3483,26111.2601
56778.9674,28151.3035,53981.9598,42288.5567,36838.1739,39405.3608,5854.6811,50457.4925,44118.3597,55918.2018,584.5428,-618.9197,26105.1804
56759.7449,28142.2287,53977.3554,42275.0562,36814.1681,39399.3258,5848.7356,50437.1971,44109.2849,55911.5857,565.2308,-635.1024,26103.3922
56744.2775,28134.7185,53978.3388,42266.2944,36796.8678,39388.2841,5845.2934,50418.6451,44099.6736,55907.7859,553.1162,-647.6194,26099.056
56762.0248,28137.8478,53983.7927,42276.9785,36811.173,39388.4629,5851.7307,50440.5499,44119.4326,55918.7382,565.4544,-634.2977,26103.9734
56784.7341,28149.9624,53986.9666,42285.5169,36833.5694,39395.3025,5855.1282,50464.0192,44137.0457,55933.2669,577.9713,-620.6632,26111.9753
56797.4746,28155.9527,53988.5759,42295.0387,36845.1476,39404.0644,5859.3303,50470.2777,44136.1517,55931.0317,584.0957,-618.875,26115.5069
56777.2686,28149.2919,53991.4817,42283.5052,36827.9815,39390.6534,5859.1515,50448.5965,44131.7707,55927.0978,568.8071,-632.7331,26109.0696
56763.5,28143.838,53995.1473,42272.8658,36815.4645,39387.7476,5862.1019,50436.4818,44119.7455,55927.7236,551.194,-638.321,26107.192
56774.2735,28140.9323,53992.1522,42278.1855,36827.445,39390.4746,5864.4712,50449.7141,44134.0059,55931.3446,563.1745,-625.7147,26112.02
56789.0257,28147.5931,53988.4418,42288.512,36848.3216,39394.5426,5865.4994,50473.541,44150.9932,55938.8548,578.1949,-613.3318,26113.1376
56786.6117,28150.6777,53989.1571,42291.7753,36856.6364,39395.9284,5866.617,50472.1552,44148.9816,55940.643,580.2065,-614.4047,26110.4107
56767.0316,28142.184,53986.8772,42276.6656,36826.4169,39387.4794,5861.8337,50448.5965,44129.8485,55930.8082,567.8684,-629.8721,26105.091
56762.1142,28135.6126,53988.1736,42272.8658,36805.585,39388.3735,5862.5489,50428.7481,44119.7902,55926.6955,556.6925,-637.3376,26105.7615
56780.085,28142.3181,53993.091,42291.9095,36826.1933,39398.253,5873.0543,50445.959,44138.3868,55934.6974,576.5855,-619.3221,26113.9423
56797.9217,28155.7292,54000.2882,42308.0921,36854.4906,39407.1937,5878.9104,50484.8063,44160.7386,55946.7226,601.396,-599.7866,26123.5982
56799.4416,28163.5523,54003.9539,42306.0805,36856.1447,39412.2899,5878.821,50495.8034,44161.5433,55950.8801,597.1491,-601.8877,26125.6546
56783.4377,28166.8156,54007.1279,42294.1893,36836.9222,39411.5299,5877.4352,50481.8112,44148.9369,55943.0569,577.8819,-614.807,26124.1794
56770.1161,28163.9546,54005.1609,42289.4955,36824.137,39404.735,5873.0543,50460.7111,44140.622,55933.5351,572.1152,-623.5689,26121.5419
56786.9693,28167.1733,54001.5846,42303.6665,36840.0514,39406.7466,5876.8541,50471.1717,44146.21,55938.0502,587.5826,-613.6,26123.9558
56809.1422,28172.4483,54007.4408,42312.9648,36862.582,39413.5863,5878.3293,50490.7072,44166.2818,55949.3154,600.9489,-601.0383,26128.2921
56805.7001,28166.8603,54011.9559,42313.8589,36865.8006,39415.6426,5877.3458,50484.9851,44164.7172,55948.019,601.0383,-600.5019,26126.9063
56783.4377,28157.8749,54012.0453,42307.4216,36844.0747,39412.5134,5877.3905,50459.7723,44142.7678,55937.2008,587.672,-610.3814,26118.8149
56764.0811,28150.8118,54010.57,42294.1446,36819.9348,39399.46,5873.7248,50443.8132,44124.3052,55929.5565,570.327,-620.082,26111.3942
56781.1131,28153.9857,54009.3631,42297.1845,36829.0097,39404.1091,5876.0941,50464.2874,44138.2527,55932.5069,577.2114,-609.6214,26117.7421
56801.2297,28162.2112,54009.4078,42308.1815,36854.7589,39413.8098,5878.8657,50494.2834,44161.7668,55938.5419,596.0315,-599.6972,26121.7207
56798.5922,28161.183,54009.0948,42312.4284,36858.8716,39410.1888,5877.4352,50504.6099,44162.3926,55945.7839,599.429,-604.0782,26118.8596
56768.5515,28155.0586,54002.2105,42300.6266,36834.3294,39399.2811,5871.9814,50482.0347,44146.9699,55938.3631,577.3008,-620.1714,26108.9802
56749.3737,28149.2919,54001.2717,42294.2787,36821.0524,39400.5328,5870.5956,50462.6334,44142.4102,55939.436,564.3368,-624.5524,26106.9685
56762.293,28145.7156,54001.7635,42303.5771,36835.134,39404.0644,5869.8803,50472.9599,44148.5345,55940.1065,577.7031,-619.3668,26111.7071
56785.0024,28148.3978,53999.0366,42307.2875,36853.0154,39404.735,5867.7793,50489.5002,44152.2896,55942.8781,588.4767,-614.4047,26114.5234
56783.9295,28149.9624,53994.8791,42297.5868,36844.4324,39393.6932,5863.0407,50480.336,44145.8523,55942.744,582.5311,-618.875,26109.5166
56758.4038,28141.4688,53993.1357,42280.7336,36813.3634,39381.9362,5855.8881,50465.4497,44138.6104,55936.8432,563.0851,-635.0577,26103.124
56748.2114,28140.0383,53992.3757,42272.8211,36790.207,39379.254,5853.7424,50445.5566,44130.3402,55926.5614,553.0268,-644.6689,26099.9948
56765.8246,28144.9556,53993.4486,42279.3478,36798.6113,39387.1218,5852.3118,50456.3749,44135.3023,55925.5332,562.6827,-630.5873,26102.8111
56782.9013,28154.8798,53995.505,42291.8648,36830.3508,39393.872,5856.2011,50477.3855,44147.5958,55934.608,577.0773,-617.8021,26109.8742
56787.461,28153.8516,53996.1755,42301.8783,36837.4139,39395.6155,5859.6879,50468.3554,44147.9534,55933.848,579.536,-614.8517,26109.5166
56768.6409,28139.9041,53988.7995,42284.0863,36806.5238,39388.0606,5855.4411,50440.4157,44129.312,55923.0298,561.1628,-627.6816,26102.5876
56757.5097,28137.6243,53988.1289,42281.4935,36796.0185,39389.2229,5855.8434,50424.8142,44118.8961,55916.1901,554.9937,-634.2083,26098.6984
56768.3727,28143.7039,53990.0512,42294.547,36816.5821,39398.6106,5853.7871,50442.4274,44126.6298,55917.0842,567.5554,-628.2181,26098.5196
56793.7195,28153.0917,53994.5662,42310.7743,36843.5383,39409.2053,5856.1563,50473.6304,44147.0593,55924.2815,586.2415,-612.4377,26104.5545
56798.5922,28150.4542,53998.1872,42308.8968,36844.79,39408.5348,5855.8434,50481.7218,44146.2994,55924.9967,585.705,-614.2706,26103.0793
56781.3814,28148.1743,53996.712,42301.5207,36821.723,39407.3725,5854.7258,50458.4759,44132.4413,55919.4535,570.0141,-629.6039,26098.296
56771.0996,28135.9255,53993.5827,42291.4177,36791.3693,39401.3822,5849.5402,50437.51,44122.5171,55915.0726,552.3115,-643.4172,26094.7198
56779.7273,28136.1938,53991.124,42299.9114,36800.4888,39410.4123,5847.2604,50452.1281,44130.072,55919.5429,563.2192,-634.3871,26099.1454
56797.4746,28143.8828,53992.4651,42310.2826,36831.4683,39419.5765,5850.9707,50489.5002,44148.4451,55930.3164,583.0675,-616.461,26108.399
56797.4746,28145.4027,53996.5332,42310.1038,36837.9503,39420.4259,5854.3235,50491.8694,44149.2945,55932.7751,587.9849,-611.0966,26115.3728
56774.1841,28138.1607,53998.366,42295.5751,36813.8552,39415.4638,5852.3118,50468.9813,44131.0555,55929.7353,576.0938,-625.5358,26116.5351
56767.2104,28133.7798,53996.8908,42284.6675,36796.5996,39407.4619,5851.0154,50452.0386,44122.83,55925.1755,563.2192,-635.7282,26115.1493
56787.7293,28142.5864,53999.573,42292.4459,36814.5257,39410.7252,5860.8055,50463.2145,44133.2459,55930.5847,576.1832,-623.4795,26124.0453
56798.4581,28145.7603,53999.0366,42300.716,36842.4207,39413.8992,5868.0475,50484.8063,44143.4383,55935.2338,591.3824,-612.8401,26127.7556
56788.5339,28147.6825,54001.0482,42301.7442,36840.0961,39407.149,5868.8521,50482.437,44133.7377,55936.4408,588.3873,-617.3998,26122.3018
56764.4387,28146.0285,54001.4952,42289.2272,36817.342,39403.2598,5868.8074,50452.9774,44108.1673,55925.8014,575.4679,-631.4367,26112.8247
56746.6468,28144.7768,54000.5118,42271.5247,36796.7337,39397.5824,5869.478,50429.6869,44091.9846,55923.2533,563.6215,-638.4104,26110.5448
56763.0976,28156.1762,54000.9588,42283.8628,36816.2245,39395.7049,5875.2,50440.1475,44100.8806,55924.2368,576.1832,-623.703,26113.3611
56781.6496,28171.9565,54004.848,42298.1679,36847.651,39402.0081,5884.9901,50454.4526,44110.8942,55931.3446,595.4951,-604.5699,26119.9325
56772.4407,28172.4036,54006.3232,42296.8715,36847.1146,39404.0197,5887.9405,50453.2903,44099.8971,55933.848,591.9188,-608.1462,26119.0385
56751.6536,28166.6815,54004.401,42287.4391,36826.7745,39394.4532,5886.7335,50426.7365,44081.7028,55926.2037,576.0938,-621.1549,26114.7022
56735.3368,28165.0275,54004.5798,42280.2418,36805.0039,39393.1121,5887.3594,50396.7404,44060.424,55918.2018,567.1084,-633.2695,26110.813
56749.1055,28173.4318,54006.502,42288.8696,36826.0145,39395.3472,5892.2321,50406.7093,44066.146,55919.9005,583.2016,-620.4844,26116.9374
56763.8576,28183.5347,54007.1726,42297.1845,36853.7754,39393.7379,5897.6859,50417.5276,44077.6348,55922.6274,595.4057,-607.2968,26121.6313
56756.7497,28180.7631,54004.4457,42294.8599,36850.7355,39387.7029,5893.9755,50400.6296,44076.3384,55917.0395,589.0578,-609.4426,26119.1279
56736.9461,28174.594,54000.8694,42281.8065,36826.1933,39381.668,5890.3992,50359.3236,44061.0498,55908.3223,570.7741,-626.5193,26112.6906
56724.7421,28168.2462,53996.7567,42274.4304,36806.2109,39373.3978,5883.649,50332.1886,44036.9993,55897.9511,556.916,-636.9352,26106.7897
56729.4359,28171.1966,53994.7897,42279.7948,36819.3984,39378.2705,5882.3079,50340.7717,44044.286,55899.2475,567.7789,-628.3522,26106.6109
56741.7294,28181.2996,53993.3145,42294.0105,36837.1457,39388.3288,5883.6937,50357.2226,44050.0528,55901.3486,583.8722,-622.1384,26107.9073
56739.7177,28181.2996,53992.331,42291.9989,36824.584,39384.5737,5880.0727,50353.0204,44045.94,55903.4497,581.8605,-621.736,26105.6721
56720.3611,28171.0178,53990.3641,42279.2584,36800.1759,39380.8186,5878.4187,50328.9253,44035.39,55897.1465,565.3203,-633.9848,26103.0793
56708.0677,28165.6086,53989.8723,42281.7171,36787.7036,39380.1481,5880.4303,50309.971,44023.3201,55892.7655,557.363,-641.2268,26102.6323
56721.0764,28167.1733,53995.8626,42297.4974,36800.7571,39392.218,5882.6208,50315.3354,44028.7292,55898.7558,575.915,-629.3803,26108.0414
56744.7692,28177.4551,53996.399,42313.4565,36827.8027,39395.3472,5889.0581,50336.6143,44044.6436,55903.405,596.6127,-615.2987,26114.1211
56749.776,28181.1208,53998.366,42310.7743,36826.4616,39388.7311,5893.3496,50333.7085,44045.4036,55907.6071,596.5233,-612.7954,26118.6808
56734.0404,28179.5561,54004.4904,42299.1961,36802.3217,39384.9313,5894.3778,50311.4462,44034.8983,55901.7956,586.2415,-623.6136,26120.8266
56715.712,28167.1286,54004.0433,42287.305,36774.6949,39381.5786,5892.0979,50288.6474,44025.8235,55898.1746,577.7478,-632.7331,26117.608
56725.1891,28163.6864,53999.573,42287.0815,36787.346,39386.183,5887.5382,50298.6163,44030.562,55905.059,586.4203,-625.2229,26122.1677
56739.4942,28167.1733,53998.9471,42289.4508,36800.7123,39386.183,5879.4022,50322.9797,44041.6038,55908.7694,595.9421,-615.9246,26124.7605
56744.0093,28168.9614,53997.159,42292.4906,36799.2818,39375.4542,5878.2399,50312.5191,44033.6913,55902.0638,587.1356,-622.3172,26118.7255
56720.7187,28155.908,53991.2581,42280.823,36775.3655,39361.7749,5873.4566,50268.1285,44012.1442,55891.8267,567.7342,-642.5679,26107.9073
56698.7246,28140.2171,53983.5244,42269.066,36752.4326,39352.7895,5866.7064,50246.4026,44000.4319,55883.7354,552.3115,-655.1743,26101.2912
56712.5827,28142.4522,53978.6518,42272.4187,36759.5404,39357.841,5864.0242,50261.1995,44005.7963,55880.4274,558.4359,-651.3745,26098.8325
56736.1414,28148.9342,53978.8753,42278.9454,36784.6638,39361.909,5863.8901,50278.7232,44010.9819,55883.5566,573.6351,-641.3162,26101.4253
56739.5389,28153.4046,53982.6304,42281.1806,36793.1128,39362.8031,5866.9299,50277.6057,44008.9703,55885.3,578.329,-642.4785,26097.402
56731.3135,28152.5105,53988.1736,42276.2185,36778.9418,39356.9916,5869.6121,50253.287,44010.5796,55889.0104,569.5671,-649.184,26099.1454
56728.0948,28151.0353,53990.3194,42267.4119,36760.3898,39356.4105,5870.0144,50238.5348,44004.4999,55886.3282,557.4524,-651.3745,26099.2795
56742.7129,28153.7175,53995.7285,42276.6656,36767.3188,39361.7302,5877.0776,50257.8467,44015.3182,55894.956,567.6448,-635.2812,26107.0132
56773.3347,28165.9663,53999.0366,42298.1679,36800.0418,39370.805,5886.5547,50280.8243,44036.6864,55904.4778,592.0082,-614.9411,26116.6692
56783.7059,28169.1849,54001.8529,42304.9182,36812.6035,39378.8069,5891.4721,50291.3743,44041.7379,55908.367,597.9538,-609.4873,26120.156
56769.6244,28169.9449,54005.0268,42299.1514,36793.8727,39382.6962,5892.4109,50276.5775,44038.0722,55906.713,585.705,-614.6729,26120.2008
56759.2978,28177.2763,54008.8713,42292.3565,36777.9136,39380.1033,5894.2437,50271.5707,44037.9381,55909.9764,580.1618,-619.188,26119.7984
56771.3678,28187.0663,54006.5467,42301.6995,36795.2138,39391.5027,5897.2836,50299.9127,44054.4784,55914.5361,597.2832,-605.6428,26128.7838
56785.7623,28191.9837,54004.6692,42308.3156,36817.0738,39398.0294,5897.0153,50328.3888,44068.7388,55917.6654,614.8517,-597.4174,26135.3552
56777.4922,28187.9157,54005.0715,42306.4381,36819.0408,39391.1004,5893.752,50330.2664,44075.5785,55918.0677,614.2259,-601.7983,26136.5175
56757.2862,28176.5163,54001.8529,42297.9891,36793.9174,39378.2258,5890.6227,50300.4491,44060.0663,55912.9268,593.5282,-617.0869,26130.0802
56745.1715,28165.7875,54002.4787,42292.133,36775.2314,39372.0567,5893.4391,50274.2976,44056.1324,55913.7315,581.9499,-622.6748,26129.0967
56748.6137,28161.7194,54001.4058,42293.6976,36790.1623,39368.8828,5888.2087,50287.2169,44063.0168,55916.0113,590.6224,-617.0869,26128.2474
56768.1044,28160.0654,54000.6012,42300.269,36811.3965,39375.5883,5886.51,50306.8864,44071.5104,55920.437,606.4475,-609.4426,26132.5836
56777.3134,28157.3832,53997.8743,42300.8054,36815.3304,39378.6728,5886.2418,50311.5803,44063.732,55918.8724,603.6311,-611.3201,26129.7673
56767.0763,28156.3103,53998.4554,42283.4605,36788.7765,39374.9177,5883.5149,50291.3296,44052.1985,55914.849,581.9499,-628.2181,26120.156
56747.9879,28150.6777,53997.3825,42273.8492,36766.693,39371.9226,5879.6257,50268.0391,44040.3968,55908.3223,571.1317,-638.8575,26118.1444
56754.3805,28154.6116,53996.0414,42282.8346,36784.0827,39377.1082,5879.581,50283.8641,44049.2034,55910.4681,579.0889,-631.9284,26116.9374
56776.5981,28166.3686,53998.1425,42301.3419,36809.653,39384.6631,5883.9172,50320.5657,44068.2024,55920.3923,594.5116,-614.9411,26119.9325
56766.7633,28167.9779,53995.4603,42304.1582,36805.6297,39383.5902,5884.9007,50336.3013,44072.4492,55921.7781,594.9587,-614.0918,26119.9325
56744.7245,28162.7029,53988.71,42294.0105,36783.5462,39379.2987,5878.2399,50305.9924,44057.6524,55907.6518,576.2726,-629.738,26110.5448
56728.2736,28155.5057,53984.955,42283.0135,36764.5472,39373.4425,5872.6072,50282.076,44044.0625,55893.7043,562.8616,-644.4454,26102.0958
56749.9995,28168.9614,53988.71,42295.3963,36784.6638,39384.4843,5877.8822,50299.868,44055.1043,55896.5653,575.6021,-632.4649,26106.5662
56784.5553,28185.457,53996.3096,42313.3224,36822.8406,39397.9847,5880.2515,50337.9554,44077.6795,55908.4564,595.0928,-615.5223,26113.2717
56788.668,28187.4686,53999.7071,42313.0542,36827.3556,39404.1538,5878.821,50349.4442,44084.0721,55910.1105,596.3892,-612.393,26114.5234
56767.6574,28185.01,54000.6906,42301.6995,36806.3003,39396.7777,5877.4352,50330.6687,44072.9856,55904.9696,577.1667,-625.67,26108.9802
56754.3358,28181.076,54000.4224,42290.7472,36785.2002,39393.5591,5871.0873,50309.4345,44062.7038,55898.0405,563.845,-637.6952,26106.0745
56770.1161,28177.6339,53999.5283,42295.6645,36797.7619,39402.6339,5871.0873,50327.003,44073.7903,55906.1319,574.3951,-627.1452,26113.674
56791.5291,28175.6669,54001.1823,42310.1485,36825.7016,39409.5182,5877.2564,50357.4014,44085.1897,55913.5973,589.7731,-617.668,26118.9491
56792.4678,28187.2898,54001.4952,42313.8142,36828.9202,39411.4405,5880.6539,50363.0787,44095.4268,55915.9666,598.2667,-613.1977,26121.1842
56775.7487,28183.6689,54001.1823,42301.6995,36808.2225,39408.356,5879.1786,50343.4539,44078.7077,55910.1105,584.0063,-625.4017,26116.848
56758.5826,28167.5756,54001.1376,42289.9872,36786.5413,39400.9352,5880.475,50322.8009,44069.767,55912.5692,573.5904,-633.6719,26116.401
56767.0316,28168.6038,54006.1444,42299.1067,36797.449,39403.9303,5883.0678,50348.9524,44084.3403,55921.0628,586.3756,-616.7293,26122.9277
56795.5971,28180.2714,54012.2241,42320.1621,36839.6938,39414.3462,5888.2982,50378.6355,44108.5696,55931.2552,609.085,-598.5349,26133.5224
56794.256,28178.7515,54012.9393,42321.5032,36839.962,39411.0829,5890.6674,50375.5063,44098.8243,55926.2037,608.0121,-600.0996,26130.6614
56771.4572,28176.3822,54011.3747,42310.5508,36813.7211,39397.8953,5888.477,50348.0136,44081.4793,55918.5147,592.6788,-612.5271,26127.4427
56758.5826,28172.6271,54008.2008,42298.4362,36800.5782,39394.7214,5887.6723,50329.5064,44072.7621,55917.263,577.5243,-619.0091,26125.8781
56766.808,28177.8574,54004.5351,42304.1135,36820.7395,39393.6932,5889.2816,50341.9787,44082.1499,55920.4817,585.7944,-615.5223,26126.1016
56779.9956,28180.7631,54001.0929,42304.9182,36841.169,39389.9381,5889.9522,50366.4762,44094.7562,55927.5001,596.2998,-610.6496,26125.6546
56777.8051,28182.7301,53999.3942,42302.4595,36839.2915,39386.1383,5886.2865,50366.2527,44093.2363,55928.7071,590.6671,-615.6117,26121.3183
56761.0413,28171.7777,53995.2368,42289.5402,36815.5986,39376.393,5881.0115,50343.3198,44077.7242,55924.4156,566.3484,-631.0344,26112.2435
56744.7245,28166.6815,53994.1192,42276.6656,36791.4587,39369.598,5877.7034,50327.8971,44074.3715,55919.7664,556.2007,-635.7282,26108.7567
56752.2347,28166.905,53993.8062,42279.616,36800.9359,39372.4591,5879.0892,50342.9621,44079.3335,55919.9005,567.7342,-626.2064,26107.952
56768.328,28171.9565,53995.6838,42291.1942,36820.4266,39373.7555,5883.5596,50363.6152,44097.349,55932.4175,583.9169,-613.6447,26110.813
56763.0082,28173.6553,53993.7168,42281.583,36825.5675,39373.3084,5880.028,50356.552,44089.0789,55932.9987,578.2843,-616.6846,26108.9802
56750.6701,28166.8156,53991.7052,42275.9056,36810.0554,39371.1627,5877.3905,50332.5909,44077.5454,55922.0463,564.2921,-625.9382,26106.9685
56743.3834,28166.2345,53995.9967,42277.2467,36794.3645,39372.772,5883.0678,50321.7727,44077.8136,55923.1639,556.8266,-632.0626,26112.3329
56752.4582,28170.3919,53997.4719,42284.7122,36807.0155,39380.9974,5885.6606,50339.6094,44088.0954,55925.1308,569.0306,-622.5407,26117.0268
56773.3347,28172.7612,54001.0929,42298.3468,36834.1506,39394.0508,5890.7568,50363.3469,44101.3724,55932.7304,589.5048,-605.8663,26124.0453
56776.4193,28176.3375,54000.6906,42304.6947,36841.7501,39397.7612,5890.9357,50367.5044,44109.0614,55935.4573,596.3445,-599.3396,26127.6662
56764.1258,28170.4813,54001.5399,42303.0853,36827.1321,39397.046,5891.2039,50350.2041,44093.3257,55929.2436,586.7332,-610.9625,26123.6429
56750.6701,28163.9099,54001.5399,42294.1446,36803.171,39392.6203,5890.3098,50333.3062,44092.7446,55924.6391,580.43,-621.2443,26124.0005
56761.6224,28163.9993,54000.333,42297.8103,36815.7327,39395.5708,5888.6558,50350.9194,44094.7562,55924.3262,589.4601,-619.0985,26127.0851
56778.3862,28168.9167,54000.1094,42302.4595,36839.515,39396.1072,5889.1922,50375.2381,44092.9681,55926.6955,602.0665,-609.1297,26126.1016
56779.5485,28161.1383,53995.1026,42302.4148,36830.4402,39395.1684,5885.9289,50369.5607,44092.5658,55924.4156,601.9324,-604.704,26124.1794
56753.5311,28149.2025,53989.023,42292.0883,36807.999,39387.8371,5883.3808,50341.8893,44075.2208,55915.4302,586.2415,-618.2939,26117.0715
56725.0997,28146.3861,53990.5429,42277.7832,36786.9437,39382.3385,5882.5761,50320.5657,44062.3462,55907.92,565.1861,-630.3638,26110.9918
56738.2425,28149.8283,53990.7664,42288.4673,36805.2274,39384.5737,5879.6704,50329.417,44070.7058,55908.367,574.708,-622.2278,26111.3495
56764.9305,28154.6116,53994.1639,42306.8851,36836.1175,39398.4318,5887.6723,50360.173,44089.7495,55918.6041,594.5116,-605.0617,26120.7372
56765.7351,28157.3385,53997.5166,42308.5392,36834.8211,39402.0528,5889.5051,50376.0427,44099.8077,55921.1075,597.7303,-604.6593,26124.7158
56746.6468,28153.047,53994.8344,42294.6364,36813.6764,39392.7544,5886.063,50351.8134,44089.4365,55910.8704,578.1502,-614.4941,26120.8266
56731.3582,28148.6213,53992.4651,42282.0747,36788.6424,39385.9595,5884.2301,50330.1769,44077.1878,55910.9151,563.8897,-625.6253,26118.9491
56741.64,28151.527,53990.9452,42292.9823,36809.8766,39392.5309,5885.2583,50341.3975,44086.1732,55923.8344,576.6302,-616.5057,26124.1794
56769.4008,28163.6864,53994.7897,42310.819,36838.8444,39403.3939,5891.2933,50361.2459,44107.452,55931.8364,598.4455,-600.2337,26132.673
56772.2619,28168.112,53992.5992,42309.4779,36838.7997,39399.147,5890.9804,50360.3965,44106.6921,55930.4953,597.775,-605.7769,26129.4544
56761.7118,28166.6368,53992.0181,42298.2126,36815.5092,39392.218,5889.9522,50336.0778,44091.3588,55922.2251,584.0063,-617.8916,26121.9889
56747.9432,28159.6631,53990.0512,42292.2224,36791.8164,39387.8371,5882.7996,50320.7445,44078.9312,55917.1736,569.7459,-626.6087,26115.7304
56756.5709,28160.1101,53988.8889,42292.1777,36801.2041,39388.0159,5879.4022,50337.3295,44084.6086,55920.1688,575.915,-622.4513,26115.9539
56774.4523,28165.3851,53991.0346,42308.405,36832.1389,39396.5542,5880.6986,50367.9961,44102.2664,55928.4836,600.2337,-606.8945,26119.8431
56771.0102,28163.597,53989.8723,42303.3088,36827.4003,39388.0159,5876.8094,50364.0622,44100.1654,55924.952,591.8741,-611.5884,26119.1279
56762.2483,28160.423,53991.3923,42291.8648,36808.8931,39381.9362,5878.1505,50350.0253,44087.8272,55920.0346,571.7129,-626.3852,26114.1211
56752.0559,28157.2044,53992.7781,42289.3167,36801.1594,39385.1995,5878.7763,50338.76,44087.2014,55921.2863,563.7109,-628.8886,26114.1211
56760.4154,28162.4794,53990.4982,42292.7588,36813.9446,39393.3803,5880.2068,50353.2439,44100.3889,55926.2484,574.4398,-612.2142,26120.2902
56776.911,28166.5921,53994.6109,42303.443,36839.0232,39397.6718,5884.2748,50373.2711,44111.8777,55936.262,596.8362,-595.9868,26127.0404
56777.3134,28162.7029,53995.952,42305.4099,36841.3925,39397.046,5884.2748,50366.1633,44115.5881,55939.0336,596.9256,-594.5116,26128.2921
56756.8392,28154.5222,53993.4933,42294.3234,36817.0738,39386.183,5879.9386,50352.2158,44104.6804,55931.6128,581.5029,-608.7273,26122.8383
56741.1035,28150.1859,53994.9238,42285.4722,36799.8183,39384.9313,5878.1058,50339.8329,44099.4501,55930.1823,579.0442,-622.2278,26120.5584
56754.0228,28150.633,53991.7052,42291.4624,36818.2808,39388.9546,5880.2068,50350.2488,44104.591,55932.5963,588.2531,-616.3269,26120.5137
56776.2405,28165.5639,53991.3923,42301.2525,36841.9737,39397.5377,5881.0115,50379.172,44122.1595,55948.6002,601.6642,-603.5417,26124.6264
56784.6,28165.2957,53989.917,42304.1582,36842.823,39396.9119,5880.4303,50386.548,44114.3811,55938.8548,595.2716,-608.1462,26122.3018
56763.4106,28151.8847,53987.4583,42286.9027,36815.1516,39382.6962,5877.5246,50359.1448,44100.0313,55931.0317,576.4067,-623.7924,26116.1327
56736.4991,28143.4804,53984.1056,42267.5014,36789.8941,39367.4523,5869.5227,50333.5744,44089.0789,55923.3427,558.4359,-639.9304,26107.2367
56746.2891,28149.0237,53983.2115,42272.2399,36801.3829,39369.4639,5869.5227,50349.2653,44100.6124,55926.5614,570.1929,-631.0344,26109.4719
56768.6409,28155.7739,53986.9666,42287.0815,36827.7133,39379.9245,5876.3623,50380.9601,44115.7669,55934.0268,587.1356,-611.8566,26115.1046
56766.361,28154.6116,53988.0395,42289.719,36825.1204,39380.461,5879.6704,50381.5413,44118.4491,55936.7985,580.8771,-612.9742,26114.1211
56752.9947,28155.8633,53986.2961,42285.0251,36803.171,39373.5319,5879.2681,50361.6929,44109.0614,55932.4622,566.3037,-624.15,26109.4719
56742.3105,28154.9245,53987.9948,42277.962,36789.4918,39370.3133,5879.1339,50346.5831,44096.1421,55927.6789,557.6313,-635.2365,26105.8956
56749.016,28151.08,53985.7596,42280.8677,36805.0933,39383.6796,5878.1952,50362.6317,44100.076,55931.9258,567.019,-625.8041,26110.1872
56774.4523,28162.9264,53986.0278,42297.6762,36835.8046,39398.5659,5882.2632,50397.7239,44118.0468,55939.7042,588.7002,-609.9343,26114.2552
56783.7954,28169.5873,53990.4535,42300.716,36840.409,39400.5328,5883.3808,50410.5091,44130.8767,55942.9228,595.1375,-605.7769,26116.401
56764.0811,28162.5688,53990.7664,42285.338,36818.1914,39394.0955,5879.3575,50392.8065,44121.5783,55937.8266,578.5525,-618.0704,26113.7635
56746.155,28154.254,53991.3476,42282.7005,36803.171,39393.5144,5879.3128,50373.0923,44105.5298,55932.1493,570.1035,-629.8274,26112.9141
56757.2862,28155.9974,53991.7946,42287.0815,36819.2643,39393.7826,5880.9668,50388.8279,44122.83,55940.33,579.4466,-622.1831,26117.5185
56775.8828,28163.1052,53990.677,42297.8997,36841.8396,39403.6174,5880.9668,50407.4246,44130.4296,55941.9841,591.7847,-608.9061,26119.0385
56779.9509,28171.7777,53992.5992,42307.958,36851.0038,39412.3346,5885.5712,50415.203,44133.3801,55939.8383,596.4339,-601.083,26121.8995
56767.568,28176.2034,53997.7401,42294.994,36832.2283,39408.8924,5884.409,50411.1797,44137.0904,55942.744,583.8275,-611.6331,26119.6196
56753.6652,28163.8205,53998.0531,42285.2933,36809.2954,39403.528,5880.1174,50390.8396,44127.4345,55940.8665,571.6234,-620.4396,26116.8033
56765.4222,28160.5124,53992.1522,42287.7967,36822.4382,39405.7184,5878.6422,50400.5402,44129.0438,55941.5817,578.016,-616.774,26114.3446
56781.2026,28169.6767,53991.3923,42299.2408,36847.2934,39408.803,5881.6373,50423.9202,44140.1303,55944.4427,592.2765,-606.1345,26115.3281
56778.0286,28167.3968,53993.2698,42300.4031,36845.5052,39404.0197,5879.8045,50422.7579,44141.0691,55942.2523,590.6224,-608.7273,26116.6245
56763.1871,28162.0771,53995.4156,42292.8929,36828.1156,39398.8341,5879.8939,50405.7258,44133.7824,55939.5701,574.4845,-620.7973,26115.3281
56754.8275,28155.908,53992.331,42281.6277,36814.7045,39392.665,5874.2166,50391.1078,44119.4773,55934.2951,562.7722,-632.9566,26114.6128
56765.9587,28161.0042,53990.1853,42292.7588,36822.17,39399.0129,5877.7928,50398.618,44128.7309,55937.7819,577.5243,-616.461,26121.0948
56783.1695,28166.2345,53988.0842,42300.8502,36835.4917,39403.6621,5877.9716,50418.4216,44144.0642,55944.4875,589.4601,-599.9655,26125.297
56778.1627,28157.562,53984.1056,42296.1116,36836.5198,39401.8739,5873.2778,50423.6072,44140.4432,55941.8947,583.4699,-602.4688,26122.3018
56763.2318,28145.8944,53983.0774,42288.6461,36816.4927,39396.1519,5870.1932,50408.4527,44121.936,55937.9607,571.3999,-624.2394,26114.7022
56754.3358,28138.7866,53986.1172,42281.1806,36800.1759,39394.9002,5872.6519,50384.9834,44118.1809,55936.1279,562.3698,-633.2695,26111.1706
56768.5962,28148.5766,53987.9948,42283.9522,36804.7804,39393.7826,5873.9483,50395.3099,44126.5404,55939.4807,570.9082,-625.357,26115.0151
56786.6564,28157.9643,53982.0939,42294.6811,36833.3459,39397.4483,5875.2894,50420.031,44139.0574,55943.8616,584.4086,-611.7225,26116.7139
56782.8566,28156.355,53980.3058,42292.9376,36833.8376,39399.2364,5873.546,50424.5013,44135.0341,55937.1561,578.776,-614.0471,26112.4223
56769.3561,28152.1529,53980.3952,42290.7919,36821.4995,39397.3589,5870.9532,50401.5237,44118.3597,55929.8247,566.1696,-628.978,26105.2251
56758.9402,28138.0266,53977.713,42283.2817,36805.4509,39396.3307,5868.9415,50380.2449,44112.28,55921.644,554.3679,-640.5562,26099.503
56772.0383,28138.7419,53977.4895,42285.2933,36816.6268,39399.3258,5868.9415,50393.7453,44122.2936,55932.0152,561.6546,-629.0227,26105.0463
56783.1695,28143.1675,53980.1717,42297.9444,36839.9173,39401.0246,5869.925,50426.6918,44135.4811,55938.5866,574.2162,-616.5057,26107.0132
56788.8916,28149.9177,53988.4418,42307.198,36848.6792,39405.3608,5876.6752,50441.578,44144.8689,55939.6595,582.6652,-611.8119,26113.0929
56774.6758,28149.426,53990.1406,42303.5771,36829.5908,39403.2598,5878.2399,50421.3274,44140.175,55932.5963,574.1715,-616.5951,26114.1211
56764.1258,28144.5533,53989.47,42294.994,36811.173,39400.4434,5873.5013,50393.8347,44133.8271,55926.0249,563.2192,-624.9547,26114.0317
56776.464,28139.8594,53990.3641,42302.9065,36821.1865,39406.1655,5870.685,50406.7987,44132.3519,55923.0745,573.1881,-622.1384,26113.4952
56784.6894,28140.2618,53987.5478,42314.2165,36841.8396,39411.3958,5873.4119,50425.7083,44145.8523,55931.1211,590.3989,-607.3415,26114.9257
56785.8964,28147.1461,53989.6935,42313.6801,36850.3779,39411.3064,5876.0494,50424.4566,44146.5229,55933.7586,590.4436,-604.8828,26116.848
56771.2337,28144.4639,53991.2581,42300.8502,36823.9582,39403.8409,5872.2496,50414.0854,44136.6881,55927.1425,573.1434,-621.1996,26112.3776
56759.3873,28141.9158,53992.644,42290.9707,36801.6958,39398.8788,5865.4994,50401.7472,44130.1167,55926.0249,558.8382,-630.4085,26105.5827
56774.9888,28145.045,53998.0978,42304.6052,36823.1535,39408.043,5868.6286,50426.1106,44139.5044,55932.7751,574.9762,-620.1267,26110.1425
56789.6962,28151.4376,54003.5963,42317.7928,36854.6247,39419.6659,5874.8424,50452.5304,44154.9271,55944.3533,596.2998,-602.1112,26121.4077
56785.9411,28156.0868,53998.2766,42312.2942,36851.5849,39416.2238,5874.9765,50447.4789,44155.1507,55944.711,589.5495,-601.1277,26122.2571
56783.7507,28155.7739,54002.2999,42312.6519,36837.0563,39418.5483,5877.7928,50434.9619,44147.1934,55938.8548,575.9597,-614.5388,26119.7984
56770.7419,28147.9508,54001.7188,42305.4993,36816.7162,39414.8827,5880.1621,50421.0144,44129.4461,55931.2552,561.2075,-625.2676,26114.8363
56779.8615,28156.2209,54002.8363,42310.2379,36829.3226,39412.111,5881.0115,50435.4984,44145.0924,55946.8567,568.673,-614.4047,26120.8713
56800.1568,28166.4133,54002.4787,42316.4517,36850.3332,39417.4755,5882.1291,50463.0357,44162.1691,55952.3553,584.5428,-603.4523,26125.5205
56796.67,28162.7923,53998.2766,42313.0095,36847.7851,39413.8545,5878.7316,50462.8122,44156.7153,55950.2095,581.5923,-609.979,26125.6546
56771.9936,28157.2491,53993.2251,42297.4527,36821.3654,39399.9964,5869.5674,50432.1456,44140.3538,55938.4078,563.2639,-626.5193,26117.6527
56751.5194,28154.2093,53988.8889,42294.2787,36804.8251,39395.7943,5863.7112,50409.168,44132.9777,55930.0482,550.1211,-635.6835,26110.0978
56764.7964,28154.6116,53984.9997,42298.4362,36824.0029,39401.6951,5861.789,50427.2729,44143.2595,55930.7188,559.33,-625.357,26108.8908
56778.6992,28156.355,53983.5244,42302.0124,36846.8016,39403.9303,5861.3867,50446.5848,44151.0379,55935.055,570.0141,-612.7059,26109.6954
56773.9159,28148.5766,53976.0143,42299.822,36836.4304,39398.6553,5857.6316,50445.8249,44143.2595,55929.333,563.8003,-618.2045,26103.0793
56753.6652,28132.9751,53971.8121,42288.6461,36815.241,39389.044,5852.9824,50414.0854,44126.7639,55918.2912,550.4787,-633.4484,26094.2727
56743.4728,28129.8012,53972.1251,42283.4605,36803.4393,39386.943,5854.2788,50400.1379,44111.5648,55914.7149,541.4039,-640.1092,26092.7081
56754.604,28136.8643,53972.2592,42294.8152,36821.6336,39397.493,5857.1845,50424.6354,44123.4559,55923.2086,552.2221,-631.392,26098.5196
56777.5816,28148.4872,53975.9248,42310.6402,36842.9571,39406.8807,5861.2525,50442.785,44147.9981,55935.4126,570.3717,-610.4261,26106.1192
56778.1627,28146.565,53980.3058,42313.2777,36840.9455,39410.7252,5867.824,50446.853,44146.5676,55934.608,573.1881,-609.6214,26109.3825
56764.3493,28142.2287,53987.3689,42305.9016,36829.3673,39413.7651,5870.1932,50436.4818,44137.4481,55932.9093,563.1745,-622.7195,26109.2484
56757.018,28146.6544,53990.7217,42300.0455,36819.2643,39407.2831,5869.925,50424.546,44129.9379,55935.5915,554.9937,-629.9168,26108.8908
56772.2172,28149.8283,53989.47,42308.2262,36838.6656,39408.9818,5871.4002,50432.9503,44139.3256,55938.7654,564.5156,-621.2443,26110.813
56789.5621,28157.2491,53992.644,42321.3691,36861.6432,39414.6144,5876.3623,50458.3865,44163.9125,55954.8587,579.1783,-605.8216,26117.5185
56780.7555,28152.9576,53993.538,42318.821,36855.8317,39414.1227,5877.5693,50465.2262,44166.4159,55956.1998,579.8936,-604.5699,26118.7255
56770.2502,28147.0567,53989.47,42308.3156,36832.273,39406.2996,5876.4964,50460.0853,44158.1458,55950.6118,568.673,-615.7458,26115.7751
56757.7332,28145.4921,53991.1687,42295.5751,36810.9494,39393.5144,5872.2943,50439.2982,44156.4918,55946.9461,556.0219,-621.6913,26111.4389
56770.2055,28147.9061,53990.0959,42302.0124,36826.8639,39399.0576,5871.8026,50452.4857,44164.9854,55947.572,566.3484,-610.9625,26113.9423
56797.8323,28147.9955,53987.2795,42310.4614,36850.512,39407.7301,5872.9649,50481.4088,44176.7871,55952.7129,581.4582,-600.0549,26117.1609
56804.3143,28150.4989,53990.3641,42316.094,36851.2273,39410.1888,5878.0164,50484.6275,44174.8202,55956.5574,583.9616,-596.2998,26122.4359
56783.2142,28150.8118,53991.5711,42310.5061,36834.7764,39405.2714,5878.3293,50467.5955,44161.275,55951.64,570.2376,-610.5155,26121.5419
56762.3377,28145.2239,53991.3923,42297.3633,36815.8221,39399.5941,5874.4401,50448.6412,44148.2663,55941.6711,558.5253,-621.3784,26117.8315
56771.1443,28140.3065,53988.6206,42299.8667,36831.1554,39398.1189,5868.3604,50458.9677,44160.2916,55942.1182,566.6614,-611.9907,26119.8431
56785.3153,28145.6262,53992.1075,42309.3438,36853.1942,39404.7797,5871.2661,50474.8821,44173.2109,55948.0637,580.5641,-601.5301,26123.0618
56786.4329,28152.6446,53992.1075,42312.4731,36850.1097,39407.4172,5872.0708,50466.8355,44164.3596,55946.4544,580.6088,-605.8216,26120.5584
56766.6739,28139.4571,53986.4302,42296.0222,36819.7113,39397.4036,5866.0358,50439.2982,44148.2216,55940.643,566.3037,-623.4795,26109.4272
56743.1599,28130.0694,53982.4963,42277.3808,36792.5316,39384.082,5860.0903,50412.2525,44135.0341,55931.2999,550.2552,-639.7963,26100.2183
56749.8654,28129.8459,53980.0376,42283.1923,36806.792,39382.2491,5857.3186,50423.9202,44147.9981,55929.8247,551.9539,-629.6039,26100.0395
56768.015,28139.1442,53979.367,42295.9328,36836.1622,39392.1733,5858.7492,50459.5041,44162.3926,55933.6692,568.9859,-617.7574,26103.6158
56764.0364,28138.2948,53980.3952,42297.9444,36831.6472,39397.3589,5858.2127,50465.405,44160.2916,55936.9773,566.8849,-618.1151,26106.5662
56750.536,28136.7749,53981.4234,42290.1213,36809.2954,39398.0294,5859.2409,50452.7539,44151.932,55937.5137,551.1045,-630.7214,26101.9617
56736.5885,28137.3113,53978.7412,42280.823,36791.2799,39395.3025,5857.0504,50436.8842,44140.2644,55928.4836,536.1736,-644.6242,26095.6138
56764.2152,28145.9838,53984.5973,42299.7326,36822.9747,39405.2267,5862.5937,50461.4711,44151.9767,55931.2105,556.9607,-633.0907,26101.2912
56783.7507,28154.6116,53986.2067,42317.9716,36846.7569,39414.9721,5868.7627,50496.4292,44170.7522,55942.3864,579.2677,-613.8235,26107.8626
56779.5038,28153.494,53986.4302,42318.3292,36841.8843,39419.0401,5873.9036,50498.6197,44171.378,55949.5836,582.1735,-609.0403,26110.0978
56764.0811,28150.8565,53985.6255,42310.9531,36826.551,39412.3793,5873.546,50477.8326,44160.5598,55944.8451,570.7741,-621.1102,26108.0861
56751.0277,28144.3745,53989.917,42297.6315,36809.6083,39400.0411,5869.0757,50456.7325,44149.518,55939.0783,554.5914,-632.3755,26107.952
56768.6856,28143.0781,53993.8509,42305.1417,36827.8921,39403.528,5873.7695,50471.887,44162.2138,55946.9014,567.5554,-619.188,26116.8033
56785.2259,28143.3463,53996.399,42316.1387,36857.3964,39411.8875,5878.1058,50490.9307,44184.4314,55954.7246,588.2084,-602.9606,26123.5088
56786.9693,28144.4192,53992.8675,42314.4847,36850.4673,39411.5746,5876.4517,50486.3709,44181.7492,55952.7576,587.2697,-601.5301,26123.1959
56770.0714,28144.1063,53988.0842,42303.5771,36825.9698,39410.9488,5870.685,50463.3486,44164.4043,55946.0074,568.4495,-618.2492,26119.3067
56760.7731,28138.6971,53986.9219,42291.4624,36802.0535,39404.5115,5864.1583,50443.1427,44144.0642,55937.1114,551.5963,-634.3871,26111.3495
56773.0665,28144.6874,53986.8772,42295.6645,36808.5355,39404.0197,5864.5606,50454.8997,44156.3129,55939.8383,562.6827,-626.0276,26113.227
56785.4941,28154.2093,53985.8937,42308.405,36834.8211,39409.6076,5866.4829,50488.3826,44169.9475,55940.7324,572.6963,-616.461,26117.7868
56783.5718,28156.4444,53986.2067,42311.4449,36839.8279,39416.0002,5867.2428,50498.575,44171.7356,55939.3466,574.3951,-618.1151,26118.2338
56779.4144,28154.1646,53988.6653,42309.0756,36821.723,39417.5649,5866.1252,50479.4419,44162.7502,55929.7353,566.9743,-628.3969,26115.2834
56765.601,28151.527,53989.023,42290.926,36801.6064,39412.5581,5859.6432,50451.4575,44152.1108,55925.9802,549.0482,-643.3278,26108.3096
56774.81,28163.0605,53991.9287,42297.9444,36815.5092,39419.0401,5862.5042,50468.6236,44165.7007,55932.8198,561.3863,-629.4698,26112.02
56797.1617,28168.2014,53994.5662,42312.786,36843.0018,39428.1149,5865.2759,50492.6294,44178.1729,55934.3398,578.9548,-614.0023,26117.4291
56796.6253,28165.5639,53996.4437,42308.8968,36848.3663,39425.7903,5863.3983,50499.6926,44172.4956,55933.7586,576.8538,-611.2307,26114.434
56771.3231,28163.6417,53998.9024,42300.3584,36836.4751,39422.527,5863.9348,50485.3874,44160.6939,55932.3728,565.7673,-620.8867,26114.0317
56756.6156,28154.6116,54000.333,42286.0533,36819.5772,39413.2733,5863.5324,50460.13,44144.7794,55921.9569,554.1444,-632.2861,26111.1259
56770.2502,28155.5057,54000.5118,42293.1612,36830.8425,39418.6825,5869.3886,50471.8423,44143.2595,55925.5332,565.9908,-624.3736,26114.1658
56781.6049,28157.8302,54000.4224,42302.683,36848.9027,39423.5998,5871.4896,50490.7072,44150.6803,55931.434,581.8605,-613.7341,26117.9656
56761.5777,28153.047,53995.4156,42295.3963,36843.0912,39415.0615,5868.271,50486.8627,44142.6337,55928.126,580.6535,-615.9693,26115.1493
56748.7031,28148.3084,53992.8228,42283.684,36826.3274,39403.9303,5873.993,50462.9016,44119.8349,55924.1027,564.7838,-629.3803,26108.9355
56737.6614,28145.9391,53994.8791,42271.48,36807.6861,39400.1752,5874.0824,50431.5645,44103.1158,55920.9287,554.7255,-643.8196,26105.0016
56744.6798,28150.5436,53999.2601,42276.2185,36814.7939,39395.079,5876.5411,50432.8609,44099.8971,55924.3709,559.777,-636.7564,26110.6789
56756.3921,28153.6281,53995.0132,42287.6179,36844.7453,39393.4697,5879.9833,50444.1708,44116.1245,55930.0035,578.0607,-620.1267,26116.6692
56761.6224,28163.5523,53995.5497,42294.0552,36852.8366,39396.3754,5887.4488,50441.4439,44116.6162,55929.4671,584.498,-621.0208,26119.262
56737.259,28166.905,53997.6954,42283.2817,36833.0777,39388.0606,5890.3545,50407.3352,44095.3374,55922.8063,570.7294,-633.3143,26117.0268
56713.1191,28166.7262,53999.9306,42273.4022,36816.0903,39382.6962,5891.8297,50374.9251,44085.1003,55928.7965,558.4806,-638.4552,26115.2387
56719.9141,28174.4152,53999.3048,42283.8628,36829.6802,39387.3006,5896.9259,50389.8114,44091.0906,55934.0715,569.0753,-626.7875,26123.3747
56738.6895,28183.0877,53997.919,42293.027,36848.7686,39395.839,5900.4575,50400.0932,44097.1255,55936.6196,584.4533,-614.9858,26128.1133
56742.3999,28186.3511,54001.0482,42295.9328,36847.4722,39390.8769,5902.6927,50389.5879,44090.2859,55937.5584,587.2697,-612.4377,26128.8732
56718.0365,28182.6854,53999.7071,42282.2535,36822.5276,39377.1082,5901.1728,50363.2128,44066.7272,55927.9025,571.1764,-625.4464,26120.0219
56700.8704,28181.389,54001.1823,42271.7035,36801.7405,39368.1675,5899.3399,50339.1623,44051.8409,55919.0512,555.2173,-633.3143,26116.7586
56711.2416,28181.2549,54000.1541,42277.0232,36810.0107,39368.2569,5898.7588,50333.932,44054.1655,55914.4914,559.5982,-628.7098,26114.9704
56734.1298,28188.9439,54004.088,42296.9162,36834.687,39380.1481,5902.9162,50348.0583,44070.7058,55919.8111,582.6652,-612.5718,26122.3912
56727.8713,28187.8263,54007.5749,42294.4576,36830.619,39382.4726,5899.6081,50348.2372,44066.2354,55917.0395,577.5243,-616.9081,26118.4126
56710.4816,28178.3044,54008.022,42286.6791,36810.8153,39378.1811,5893.1708,50320.8339,44052.422,55910.334,566.6614,-629.6933,26110.9024
56702.1668,28173.0294,54002.9705,42279.5713,36793.8727,39374.426,5892.1427,50290.1226,44035.7029,55900.0522,557.2736,-636.22,26107.8179
56718.0365,28178.3938,53998.5895,42287.9755,36803.2157,39385.736,5892.1874,50304.1148,44046.9682,55901.0357,563.3086,-626.6981,26109.7401
56738.5554,28180.8078,53995.4603,42298.5703,36821.8571,39384.9313,5892.5897,50320.8339,44053.4055,55905.4613,579.0889,-615.3882,26112.6012
56727.3796,28179.8691,53995.1473,42297.6315,36826.238,39384.6184,5891.2486,50312.6532,44038.6534,55903.9414,580.743,-615.7905,26113.0035
56723.3115,28179.7349,53997.0696,42302.4595,36816.4927,39386.7195,5893.9755,50293.9224,44032.3055,55899.8734,574.3504,-626.5193,26112.8247
56706.5477,28172.1801,53994.3427,42288.1991,36793.7833,39380.2822,5892.8579,50272.2859,44028.2822,55895.4477,563.398,-637.6505,26113.6293
56711.7333,28175.3987,53995.3262,42295.5751,36806.3003,39386.183,5895.0931,50285.4288,44041.1568,55899.4263,577.122,-624.2394,26117.295
56733.3251,28181.7019,53999.3048,42308.6733,36833.7035,39392.0839,5897.1047,50313.9049,44051.1703,55906.8024,595.1822,-608.6826,26123.0171
56740.88,28183.2218,54001.8529,42311.5343,36838.1292,39384.082,5898.267,50304.1595,44054.1208,55919.23,598.6243,-606.0451,26125.9675
56728.363,28179.6455,54000.4671,42300.2243,36810.9047,39378.3152,5894.1096,50276.5328,44038.9663,55910.7363,582.4417,-617.8468,26119.3067
56722.9092,28169.3637,53998.6342,42292.1777,36782.6968,39369.8663,5893.8414,50258.5173,44027.701,55905.059,568.1813,-626.3405,26114.1211
56735.3368,28167.3968,53997.5613,42294.5023,36794.8562,39379.4328,5896.7024,50269.112,44036.15,55906.8471,576.4514,-616.9528,26119.6196
56756.2133,28176.2928,53995.6838,42303.5324,36816.2245,39387.0771,5895.9424,50291.1061,44050.4104,55912.6139,592.2318,-603.6758,26123.0171
56759.0296,28174.2364,53993.4486,42300.3137,36818.1467,39386.1383,5893.1708,50290.8379,44047.5047,55909.6634,592.2765,-606.4922,26120.2902
56739.8071,28160.9595,53987.6372,42287.8414,36789.9835,39376.5271,5885.3477,50268.2179,44031.4561,55899.471,576.809,-624.0159,26114.4787
56723.8033,28153.5834,53989.2465,42277.649,36762.7591,39369.0169,5880.7433,50248.2355,44026.5387,55903.9414,562.2357,-637.6505,26111.6177
56739.6283,28162.0324,53992.6887,42283.0135,36782.9651,39371.8779,5881.5032,50262.2277,44037.3123,55909.3952,569.12,-624.2394,26114.5234
56760.7284,28169.5873,53992.9569,42292.4906,36807.0155,39370.1792,5883.1125,50284.8029,44046.2977,55915.2067,581.2794,-614.7176,26115.5069
56764.4835,28170.4813,53992.6887,42292.6694,36808.0884,39367.944,5884.4537,50285.1158,44042.4979,55913.2844,579.0889,-617.6233,26114.9257
56744.7245,28162.9264,53991.3476,42285.2039,36782.6074,39363.3395,5881.8161,50265.0887,44033.7807,55904.4331,563.2192,-629.2909,26107.5497
56733.9957,28152.287,53988.4418,42268.1719,36753.5949,39360.5679,5880.8774,50244.5251,44031.0538,55899.5605,551.4622,-636.22,26105.6274
56749.4631,28159.3055,53991.1687,42269.6471,36766.2013,39369.6427,5884.7666,50261.7806,44035.9265,55900.3204,562.6827,-627.9945,26110.2319
56784.1083,28175.5775,53998.1425,42293.9211,36807.0602,39386.4065,5892.5003,50300.3597,44059.5746,55913.2844,586.8673,-607.9227,26123.1959
56779.5932,28180.4949,53998.0531,42295.754,36813.0505,39386.5407,5892.5003,50307.2888,44059.217,55920.7499,590.1754,-606.8498,26125.7887
56764.5282,28178.528,53998.9471,42292.0883,36793.5598,39388.597,5894.3778,50286.0099,44051.0809,55915.4749,582.9781,-614.0918,26123.5982
56752.5923,28172.0459,54000.1541,42285.651,36771.4763,39384.1714,5897.7753,50269.7378,44050.4104,55911.1387,568.7177,-619.9926,26121.676
56757.3756,28169.8108,54003.9539,42293.3847,36794.8562,39387.1218,5901.5751,50288.7815,44058.01,55914.5808,582.4417,-609.5767,26126.0122
56780.085,28171.6436,54007.9325,42306.8404,36832.0495,39391.771,5907.6995,50310.1051,44072.0916,55924.6391,604.0335,-595.4057,26132.1366
56780.0403,28173.3423,54009.3184,42307.7345,36831.6472,39389.4464,5907.8783,50307.6017,44075.8914,55928.7965,600.636,-591.1589,26131.1084
56764.9305,28172.1801,54012.0453,42301.6101,36813.0505,39387.7476,5907.2971,50286.5463,44062.4803,55925.3097,587.0014,-599.1608,26129.5438
56743.6963,28160.9148,54004.8927,42285.7404,36789.8941,39375.633,5898.7141,50262.4959,44050.8127,55914.5808,568.0025,-616.5504,26124.0005
56753.1735,28171.5542,54008.3349,42294.994,36799.863,39384.2608,5899.0717,50277.5609,44058.9488,55917.3971,579.4913,-607.878,26125.7887
56776.1511,28181.3443,54005.5186,42307.6898,36822.8853,39391.0557,5900.3681,50299.3762,44069.1859,55924.2368,600.7701,-593.9305,26130.8849
56769.2667,28182.4619,54002.8363,42311.0873,36821.1865,39395.5708,5897.6412,50293.6095,44067.7106,55922.4933,600.8595,-597.8197,26126.9957
56750.7595,28171.4648,53999.1707,42301.029,36799.8183,39391.1004,5894.646,50280.6008,44064.7155,55917.7101,581.5476,-614.4941,26118.5914
56732.2522,28169.5426,53999.7071,42294.9046,36784.6638,39382.9197,5892.992,50270.0955,44053.0479,55914.0444,567.1084,-621.9149,26116.0433
56743.6069,28179.1538,54002.2999,42299.2408,36797.3149,39381.7574,5894.7802,50289.4968,44055.7301,55912.3456,577.9266,-613.2424,26114.9257
56766.1822,28189.7038,54007.262,42320.8326,36823.6005,39394.8108,5902.6033,50314.4413,44073.1198,55922.091,599.2949,-596.8362,26124.537
56771.9489,28198.5551,54006.7703,42325.9735,36826.6404,39404.1538,5899.2505,50317.7941,44075.7126,55923.9686,600.9936,-596.8362,26126.4145
56756.8839,28197.4822,53998.3213,42308.8968,36800.7123,39398.6553,5891.3827,50304.2042,44063.285,55913.9103,579.6254,-614.8517,26113.8976
56749.2843,28189.7038,53993.8062,42295.0387,36771.9233,39394.7214,5886.6441,50290.6591,44049.9187,55903.852,561.3863,-629.9615,26107.7285
56767.8809,28193.2801,54001.4058,42306.4381,36794.1409,39398.7,5888.9687,50309.4792,44067.8447,55909.127,571.5787,-615.5223,26114.4787
56791.1267,28197.7057,54005.6974,42317.4798,36828.4285,39405.1373,5893.0367,50339.5647,44084.698,55919.23,592.0082,-596.8809,26121.4077
56784.6447,28193.6377,54000.9141,42310.5955,36827.6685,39409.0712,5893.2155,50340.414,44086.7096,55922.8957,595.9868,-599.0714,26121.2736
56771.8595,28185.5017,53999.4836,42298.5703,36808.5802,39407.6407,5893.2155,50314.5754,44068.9623,55917.3077,578.6866,-611.8119,26116.5798
56760.9519,28179.7796,54002.9258,42291.1048,36794.0515,39405.7184,5894.3778,50298.4375,44060.6028,55915.4749,568.3154,-616.461,26116.5798
56765.0646,28180.5396,54006.5467,42294.8599,36804.1992,39402.768,5895.4954,50308.8087,44071.5551,55924.7732,581.4135,-607.6992,26121.5419
56782.5437,28182.596,54007.6643,42305.9911,36831.7813,39403.7962,5897.7753,50336.8378,44077.2772,55931.2999,597.6856,-600.189,26125.6993
56782.9907,28182.1042,54004.8033,42310.1038,36832.9436,39400.0858,5898.0435,50344.4821,44088.1848,55935.2785,602.5136,-600.1443,26129.0967
56767.568,28172.7612,54003.0152,42295.4857,36807.1049,39388.15,5896.2107,50322.7562,44081.2558,55928.3495,586.6885,-613.7341,26124.2688
56762.8294,28173.3871,54002.9258,42294.4576,36798.4772,39387.0771,5897.5965,50307.11,44074.8632,55923.3874,575.0209,-617.981,26123.9558
56779.9509,28173.9682,54007.1726,42299.4643,36812.6035,39387.9712,5901.888,50323.8738,44086.8437,55934.2504,580.9665,-610.0237,26125.1181
56789.9644,28177.1421,54003.9986,42305.9464,36832.8989,39386.943,5901.2175,50345.6891,44102.177,55938.3631,591.6059,-598.1773,26125.1181
56775.3017,28174.8623,53999.3048,42294.8599,36828.7861,39380.7739,5893.7073,50338.9388,44109.419,55937.9607,589.6837,-600.6807,26121.1395
56761.2648,28167.3521,54002.6575,42293.5635,36819.6666,39376.9741,5894.7802,50318.6435,44088.9001,55930.8082,578.6866,-610.3814,26118.6361
56752.7711,28164.7146,54005.3844,42289.0484,36802.6793,39377.9129,5896.1213,50305.7241,44076.5172,55933.1775,564.5603,-617.0422,26121.4972
56761.1307,28163.9546,54005.0715,42288.8696,36817.6997,39379.3434,5897.2836,50325.1255,44089.1236,55941.09,577.8372,-611.1413,26128.6944
56765.1093,28169.7214,53999.9306,42299.5985,36838.308,39381.3103,5900.9045,50340.5482,44104.1887,55943.2805,593.4834,-603.5864,26131.779
56761.9354,28165.1169,53995.4603,42302.9959,36833.5694,39373.7555,5901.0386,50338.6259,44097.9302,55941.0006,588.3425,-604.257,26127.7556
56746.5574,28158.3667,53993.4486,42291.1048,36810.9941,39370.6262,5897.5071,50315.1566,44086.1732,55934.2951,569.433,-614.5388,26121.6313
56739.9859,28159.9313,53996.3543,42281.1806,36793.2469,39370.3133,5901.2622,50307.7805,44075.8467,55929.0648,558.7041,-624.463,26122.2571
56753.2629,28169.5426,53997.9637,42292.8929,36814.5704,39377.2423,5906.0901,50325.0808,44083.8933,55934.0268,573.6798,-606.4475,26129.812
56768.1044,28174.3705,53997.6954,42306.8404,36838.6656,39386.6301,5906.6713,50351.5899,44095.4268,55938.4525,593.6176,-590.0413,26130.4826
56769.3114,28172.9847,53998.0978,42308.6733,36837.3692,39388.2841,5905.6878,50353.5122,44094.7115,55944.9345,595.0481,-592.9917,26129.7226
56750.1336,28171.0625,54000.1988,42299.6432,36815.4198,39381.1315,5905.956,50336.3013,44085.8603,55939.1677,583.3358,-602.9159,26129.365
56732.2969,28165.4298,54001.2717,42293.4294,36794.2303,39379.7457,5903.4973,50317.3023,44078.3054,55934.0268,572.0705,-615.7458,26125.8781
56745.1268,28169.0061,54001.4952,42302.7724,36807.999,39389.6252,5911.1416,50334.4685,44096.455,55936.4855,583.604,-602.9159,26127.4427
56761.7565,28176.114,53998.4554,42308.6733,36833.2118,39396.9566,5909.8899,50360.2177,44114.2023,55938.7207,604.3911,-589.4601,26133.6118
56758.1356,28180.5396,53995.4603,42316.7646,36847.0252,39396.0178,5911.0969,50362.3188,44114.5599,55943.504,603.4076,-588.2084,26136.5175
56742.5787,28175.0858,53995.1473,42304.2923,36817.6997,39388.7758,5907.5654,50337.8659,44100.2548,55938.6313,586.3756,-604.3464,26131.466
56733.0122,28167.6203,53996.8461,42297.2739,36803.0816,39385.6019,5905.3302,50320.3869,44086.9331,55930.4953,576.8985,-619.8585,26128.7838
56744.5457,28171.6436,53998.9471,42299.9561,36817.2526,39393.9167,5905.8666,50328.2547,44097.0361,55932.9093,581.7711,-611.0519,26131.019
56766.6292,28172.0906,54003.0599,42312.026,36840.409,39402.2763,5908.4594,50346.5384,44112.1906,55936.6196,595.6292,-597.5515,26136.1599
56776.7322,28174.6835,54004.9821,42321.1455,36852.9707,39404.3326,5908.8171,50350.0253,44109.3296,55944.8898,599.2949,-596.1657,26138.0821
56757.1074,28173.4765,54004.848,42308.4497,36836.5198,39397.8059,5905.6878,50333.038,44095.7397,55936.5302,587.4932,-610.2473,26133.7906
56740.7012,28167.3968,54001.2717,42300.8054,36815.9562,39391.1451,5902.1562,50312.9661,44083.5357,55931.1211,574.3951,-619.635,26131.019
56746.5574,28166.9497,54003.1493,42309.2544,36828.9202,39395.4813,5904.749,50317.6153,44089.6153,55935.815,579.7148,-610.0237,26133.5671
56765.601,28177.5445,54003.9986,42318.2845,36850.7802,39403.4833,5908.4594,50344.2138,44110.5366,55940.33,595.6292,-596.9703,26134.3271
56772.7536,28178.5727,54000.2882,42315.6023,36849.8415,39403.6621,5910.6499,50357.9378,44115.8116,55938.4972,592.8576,-600.5466,26134.8188
56761.3542,28173.8788,54001.987,42308.4944,36832.4518,39403.3492,5908.3253,50340.1011,44108.7037,55933.5351,581.5476,-608.9509,26131.466
56748.8372,28171.0178,53998.8577,42299.1961,36816.2692,39395.7943,5905.956,50325.1255,44094.8904,55926.919,572.7857,-617.4445,26128.2474
56757.5097,28170.079,53997.0696,42307.6451,36826.238,39397.5824,5904.4808,50332.4568,44103.1605,55932.194,584.4086,-607.2521,26129.9908
56778.6992,28176.0693,54003.7304,42315.0212,36850.9144,39404.2432,5905.6878,50354.1827,44121.4889,55938.3631,599.5631,-595.2716,26134.2824
56775.257,28175.3093,54002.0764,42311.2214,36846.0864,39401.7398,5903.0056,50359.0107,44121.1313,55937.9607,596.2104,-595.5845,26131.6448
56756.3921,28164.9381,53999.7071,42299.1514,36820.7395,39389.6252,5896.5236,50336.5248,44111.3412,55931.1211,582.844,-611.946,26126.6828
56741.7294,28160.736,53997.7849,42288.0203,36803.0816,39381.4445,5892.6344,50317.3918,44103.7416,55930.3612,571.0423,-621.8255,26123.8664
56752.0112,28162.9711,54000.6012,42292.4012,36819.4878,39383.0091,5892.5003,50333.038,44114.5599,55939.9277,576.9432,-610.8284,26129.0073
56776.5981,28176.0693,54000.8247,42306.0805,36840.409,39387.4794,5896.6577,50364.3304,44127.1663,55951.0589,586.8673,-599.4737,26133.6118
56784.1083,28173.0741,53997.5613,42312.2048,36840.8114,39383.8137,5897.6412,50360.7541,44126.4063,55947.2591,592.187,-599.876,26132.7177
56766.361,28162.5688,53996.712,42298.5703,36814.6151,39377.1082,5895.8977,50341.2187,44117.5103,55942.7887,580.743,-612.9742,26127.5768
56751.9218,28157.8302,54003.9986,42289.3614,36793.6939,39377.3317,5896.2554,50328.0312,44112.8165,55948.1978,567.9131,-620.1714,26126.5486
56761.2648,28164.2675,54005.4291,42295.2622,36815.0622,39384.5737,5897.9094,50347.4772,44126.6298,55953.6964,578.0607,-612.0354,26129.6779
56779.8167,28169.4084,54002.8811,42300.0455,36843.583,39387.5688,5896.5683,50370.4548,44137.0457,55957.8538,591.5612,-601.5748,26129.2309
56778.9227,28168.7379,54005.0715,42310.1932,36846.891,39391.458,5896.4342,50369.8289,44133.4248,55955.9762,594.914,-600.0102,26130.4826
56756.8839,28161.4512,54002.6128,42304.0688,36827.1321,39386.183,5895.4954,50342.381,44120.0584,55951.1483,577.7031,-611.5437,26126.5486
56746.0209,28161.1383,54003.7751,42295.5751,36811.5753,39383.5008,5897.4177,50328.8358,44113.4423,55951.0142,566.0802,-618.9197,26125.0734
56762.6506,28169.1849,54006.9938,42298.7938,36828.8308,39391.5027,5903.2738,50350.5617,44126.0934,55952.087,579.223,-606.8945,26129.6779
56787.4163,28178.0809,54010.3018,42310.5508,36851.4955,39398.253,5905.6878,50385.4305,44141.5608,55961.5195,596.7021,-591.6953,26137.1881
56781.6049,28172.1801,54005.9656,42309.3438,36845.0582,39392.7544,5903.6314,50385.0281,44143.3936,55960.1784,594.9587,-598.8032,26135.9364
56761.7118,28164.2675,54000.0647,42303.0406,36826.238,39381.8468,5900.0999,50362.4082,44133.9165,55953.4729,578.2843,-611.3648,26131.019
56743.4728,28163.0158,54001.1376,42296.1563,36806.7026,39380.9974,5899.5634,50347.1196,44123.9476,55949.0472,568.7177,-616.774,26132.2707
56757.5991,28164.8934,54003.9986,42306.0358,36829.1885,39390.8769,5900.9045,50367.8173,44136.6881,55952.3553,579.0889,-607.0733,26134.1482
56783.3483,28167.9779,54004.1775,42319.4915,36856.1447,39403.1256,5901.9774,50399.2885,44152.0214,55961.1171,595.8974,-594.8246,26135.6682
56784.9576,28171.8224,54002.2105,42323.5595,36855.5188,39409.9653,5904.1232,50405.1,44146.7911,55960.3125,593.5729,-598.6691,26134.9529
56765.2881,28162.8817,53999.9753,42312.6966,36831.7366,39399.5494,5898.8929,50385.1175,44136.6434,55945.6944,575.0656,-615.8352,26128.3368
56749.776,28151.6165,54000.4671,42304.2029,36812.4247,39393.0674,5894.959,50362.6764,44112.4141,55931.7917,559.8664,-626.3405,26122.3912
56765.7351,28158.6796,54003.0599,42314.0377,36833.3906,39404.3326,5899.3846,50374.791,44122.6065,55943.6828,574.3057,-609.5767,26128.0686
56775.6593,28165.3404,53999.6624,42318.821,36851.0038,39406.2996,5901.7092,50395.7123,44135.8387,55951.9529,588.6555,-597.7303,26129.1862
56774.2735,28163.8652,53996.1308,42319.2233,36847.2487,39399.1023,5896.4789,50393.5218,44132.7989,55951.0142,587.0014,-605.1064,26125.0287
56748.569,28155.4163,53996.8908,42306.0358,36821.8571,39390.6534,5891.0698,50377.965,44124.3052,55945.5603,570.327,-617.1316,26116.8033
56737.572,28149.0684,53996.3543,42296.7374,36803.5287,39388.15,5886.4206,50359.3236,44112.4588,55935.2785,555.1279,-624.0159,26111.9306
56756.7497,28153.3152,53997.606,42306.6169,36822.6618,39397.8059,5888.9687,50378.8143,44122.4724,55939.123,568.2707,-614.5835,26117.7421
56777.0004,28159.7972,53997.2037,42318.2845,36851.3167,39401.2034,5892.8579,50403.446,44130.832,55943.3252,584.2298,-605.8216,26120.2008
56767.7021,28161.183,53994.5215,42317.1669,36840.9008,39399.2364,5889.6393,50404.0718,44136.554,55943.5487,581.7264,-608.1462,26118.5914
56745.3951,28153.2705,53989.4253,42301.1631,36821.0077,39390.6087,5881.9503,50375.3722,44127.7474,55938.3184,563.0404,-621.1996,26111.3495
56733.2804,28145.045,53988.8442,42292.4459,36806.2109,39386.943,5879.581,50355.4791,44116.5268,55933.1775,551.4622,-636.0412,26104.6439
56755.6769,28149.426,53991.2581,42307.6451,36826.998,39399.147,5884.7219,50372.1982,44124.9758,55939.123,565.1861,-627.1452,26111.2154
56773.9159,28150.4095,53990.4088,42317.8822,36845.3711,39398.0742,5884.7219,50388.515,44142.0525,55948.6896,581.7711,-614.8964,26117.0715
56774.1394,28148.9789,53987.3242,42321.5479,36845.8629,39395.0343,5882.2185,50392.136,44143.7066,55948.0637,581.9947,-611.499,26115.6857
56759.1637,28144.598,53983.748,42309.7908,36824.1817,39392.3968,5879.5363,50373.137,44132.9777,55944.3086,565.5438,-627.4581,26110.9918
56739.0025,28135.3444,53984.195,42295.4857,36808.4908,39385.9148,5879.1339,50361.7823,44116.2586,55941.6264,551.194,-635.6835,26111.2601
56750.0442,28141.2899,53988.0395,42301.8336,36824.2264,39391.771,5883.4702,50380.9154,44124.4841,55940.3747,562.5039,-623.6583,26116.4904
56775.1676,28153.2705,53989.7829,42313.0989,36850.1991,39399.5494,5887.3594,50407.514,44137.5822,55945.5603,583.5593,-608.2356,26119.1726
56779.0568,28152.1529,53996.6226,42315.7364,36856.3682,39406.389,5889.1475,50416.097,44144.8241,55959.0161,587.225,-604.5252,26123.2406
56766.0034,28147.0567,53996.3543,42309.4779,36835.7152,39399.7729,5884.5431,50399.1991,44130.7425,55948.5555,566.4378,-620.6185,26116.6245
56751.8771,28136.9537,53991.7052,42290.5236,36813.4975,39387.7476,5879.7151,50375.1934,44117.4656,55938.6313,551.5516,-638.4104,26110.2766
56763.6341,28139.4124,53990.8111,42293.0717,36821.4101,39390.8322,5880.5645,50380.9601,44130.4296,55944.6663,565.4544,-626.3405,26111.0812
56786.4776,28151.9741,53990.0959,42306.9745,36849.305,39398.0742,5880.3856,50402.7754,44150.8591,55949.0025,576.4961,-616.8187,26113.5846
56785.3153,28152.1082,53994.9238,42305.7228,36847.8298,39398.5659,5878.3293,50409.0339,44155.3295,55954.7246,574.5292,-618.0257,26116.9374
56767.5233,28146.8779,53995.4603,42293.027,36819.9348,39391.7263,5875.1106,50388.6938,44137.1351,55947.4826,555.709,-631.8837,26112.1094
56756.705,28140.8876,53992.0628,42290.6578,36800.6676,39389.5358,5871.5791,50376.758,44124.4841,55945.1133,546.9471,-640.5562,26107.5944
56761.1754,28142.9887,53993.8956,42296.5586,36815.6433,39387.9712,5873.3225,50396.0699,44130.9661,55952.5341,556.9607,-630.2744,26112.2882
56775.7934,28150.8118,53995.7285,42308.1815,36842.823,39395.8837,5881.0115,50412.8337,44148.8028,55963.5758,579.983,-610.5155,26121.9889
56780.1744,28151.9741,53998.2766,42309.3438,36847.5169,39400.5775,5883.0678,50420.3439,44158.3693,55966.6604,585.5709,-605.2405,26124.8052
56763.6341,28146.0732,53996.0414,42300.5372,36818.1914,39391.7263,5882.7996,50398.9756,44144.5112,55958.4796,571.7129,-620.7973,26118.4573
56753.7993,28142.3181,53997.7849,42294.1893,36801.2041,39388.597,5882.7102,50374.791,44132.2625,55950.433,559.0171,-630.4532,26114.9257
56758.5379,28143.2569,53999.3942,42297.4527,36818.0126,39397.7612,5884.4537,50395.757,44142.4549,55955.9762,567.2425,-618.8303,26119.7537
56783.9295,28149.1578,54002.2999,42310.5508,36845.6393,39405.0479,5887.4488,50432.8161,44152.2449,55961.5642,585.3027,-602.6477,26124.4029
56782.5437,28146.2967,54002.0317,42310.3273,36852.6131,39402.1869,5887.27,50443.992,44152.6473,55958.6585,589.3707,-599.876,26126.9063
56767.2104,28147.2802,54001.1376,42303.5324,36839.8279,39403.3492,5888.924,50423.786,44146.8358,55962.4583,577.6137,-609.2191,26126.6828
56754.0228,28141.2452,53996.1755,42292.0436,36820.6054,39395.7496,5882.9337,50399.1991,44135.4364,55955.8421,561.5652,-618.428,26123.777
56764.9305,28148.3531,53996.4885,42309.3438,36839.3362,39405.8079,5885.8395,50419.8074,44148.1769,55959.0608,578.1502,-606.3581,26128.3368
56780.3979,28155.6398,54000.9588,42318.7315,36857.8434,39415.5532,5888.7452,50450.474,44163.4208,55968.985,596.9256,-591.8294,26136.3834
56786.3435,28160.7807,54002.2999,42327.3146,36863.3419,39417.699,5890.3098,50456.1067,44167.6229,55970.7284,598.222,-590.9801,26137.9033
56764.6176,28154.254,53996.5779,42319.6256,36838.755,39410.9488,5887.7617,50439.4323,44160.7386,55963.3076,581.1453,-606.671,26126.8616
56741.327,28143.3463,53988.8889,42302.1019,36810.3683,39397.8059,5882.0397,50420.8803,44144.7347,55949.0919,563.5321,-623.4795,26114.2999
56756.9733,28151.3929,53995.2815,42309.1203,36824.6287,39402.321,5884.4984,50431.475,44148.8475,55952.8023,571.7129,-613.8682,26120.2008
56783.6165,28162.2559,54003.1493,42318.7762,36854.58,39409.4288,5890.1757,50460.4429,44164.7619,55962.7265,587.0014,-596.6574,26127.8898
56777.8051,28165.5192,54002.0317,42313.1436,36851.4061,39404.3326,5887.3147,50453.7374,44170.0816,55963.397,582.2182,-602.3794,26125.297
56756.705,28162.6582,54000.6906,42302.5936,36826.0145,39397.9847,5883.3808,50437.51,44152.5578,55958.7032,566.4825,-616.0587,26119.2173
56742.1317,28155.7739,53995.2815,42285.1592,36801.4723,39387.2559,5876.5411,50430.4916,44136.5987,55951.4612,549.0482,-631.392,26114.6128
56752.2347,28156.3997,53995.3709,42288.2438,36814.7939,39391.1004,5877.1223,50440.371,44152.4684,55955.4845,557.0501,-626.1617,26115.9092
56767.568,28162.0324,53998.4107,42300.0455,36837.3245,39396.733,5881.7267,50460.3088,44166.7289,55963.0841,575.155,-612.0801,26120.0666
56771.9042,28164.0887,54000.6459,42306.8404,36843.6724,39398.1636,5885.0348,50462.5887,44166.6394,55967.6439,580.1618,-602.1559,26121.4077
56755.0957,28157.3385,54003.4622,42294.5917,36819.7113,39389.3123,5882.5761,50444.3496,44164.7619,55962.4135,566.2143,-611.1413,26116.401
56744.0987,28151.4376,54002.3893,42293.2059,36808.3566,39395.5708,5879.5363,50424.5907,44146.2994,55954.7246,553.2503,-620.6632,26111.573
56760.7731,28156.9362,54005.0715,42309.5673,36830.3955,39405.2267,5883.4702,50432.1456,44162.5267,55963.2629,568.3601,-607.4756,26120.156
56786.567,28161.8983,54008.7372,42322.4866,36856.9493,39406.9701,5889.1922,50459.8618,44182.6433,55977.0763,589.3707,-594.7798,26127.8003
56786.1199,28161.8088,54007.2173,42325.6159,36857.5305,39403.1256,5886.2418,50466.8802,44180.4975,55971.4884,590.086,-596.6127,26127.845
56763.5447,28148.3531,54002.0317,42313.6353,36834.1506,39394.3191,5884.5431,50440.9969,44164.3149,55962.5477,574.8868,-608.1462,26121.4077
56745.8868,28141.0217,54001.4505,42304.9182,36819.0408,39392.3968,5884.6772,50424.0543,44157.3411,55962.1453,560.8946,-616.6846,26116.7139
56756.6603,28147.5037,54003.5069,42310.2826,36836.4751,39396.3307,5888.5664,50440.5499,44170.4392,55970.4602,570.5953,-605.5981,26120.469
56778.3862,28156.3997,54006.9044,42320.1621,36858.4245,39401.114,5893.1708,50467.059,44181.3916,55974.1706,585.1239,-595.7186,26126.9957
56787.5504,28165.8322,54007.3514,42319.4021,36861.062,39399.1917,5895.7189,50468.6236,44182.8668,55978.4174,583.0675,-594.3775,26126.191
56772.9771,28160.0207,54004.6245,42303.8453,36842.9571,39395.3025,5893.4391,50455.5702,44173.7026,55973.4553,570.1482,-601.6195,26121.8995
56753.844,28150.3648,54002.7469,42291.6859,36818.1914,39391.0557,5890.5333,50434.1573,44158.5928,55964.1123,557.1842,-613.2871,26117.7868
56757.7779,28146.3414,54003.8198,42289.9425,36826.8192,39385.8254,5887.3594,50448.2836,44162.7055,55968.0462,566.572,-607.4756,26119.6196
56777.3581,28152.5105,54001.987,42303.3535,36854.2671,39390.8769,5889.1475,50480.3807,44177.0554,55974.26,583.4252,-595.5398,26123.9558
56787.9528,28160.2442,54001.8529,42310.0591,36864.0125,39395.6602,5889.5499,50476.3573,44179.6929,55974.7517,585.2133,-595.4057,26125.9675
56764.4387,28146.7438,53999.0366,42295.754,36831.3789,39384.529,5882.1738,50437.51,44156.5812,55966.4369,564.2921,-614.4047,26116.3563
56750.0442,28135.7467,53999.0366,42287.7967,36808.8037,39375.0072,5878.2399,50408.2739,44143.483,55958.882,551.1492,-625.0888,26112.1094
56753.8887,28140.3512,54000.4224,42294.0105,36826.2827,39378.5387,5882.2632,50426.3341,44154.7036,55964.9616,566.6614,-611.946,26116.5798
56770.3396,28151.6165,53998.3213,42305.4099,36856.5023,39390.251,5888.5664,50460.3535,44172.9873,55971.3095,583.4699,-596.7468,26122.9724
56773.0665,28146.0732,53997.919,42308.1368,36848.0086,39383.5008,5889.371,50467.059,44164.896,55970.1473,583.9616,-599.2055,26123.7323
56751.43,28137.1772,54002.8363,42299.2408,36825.4334,39378.4046,5888.2982,50448.9541,44158.7269,55972.2483,568.8518,-607.3415,26123.5535
56734.5321,28137.8031,54005.4291,42294.7258,36818.6384,39383.0538,5887.7617,50439.477,44161.8115,55963.0841,560.1794,-611.946,26121.9889
56749.8654,28145.2686,54010.4806,42308.4497,36835.5811,39393.7379,5893.6626,50462.2757,44181.481,55970.2367,576.1385,-598.4455,26126.6381
56769.5349,28157.6514,54010.7042,42324.2748,36859.8998,39408.2665,5896.4342,50498.2173,44194.2662,55979.1327,591.1142,-582.7993,26133.9247
56771.3678,28159.3502,54007.7537,42323.8724,36857.4411,39406.0761,5896.5683,50508.8568,44190.3323,55980.2055,589.9072,-584.1404,26131.1978
56755.2745,28148.5319,54005.8315,42312.3389,36831.4683,39401.6057,5893.6626,50485.1639,44177.0107,55975.1987,573.4563,-596.1657,26126.6381
56735.9626,28133.8692,54004.8927,42295.6645,36804.691,39393.7826,5889.8181,50460.8005,44163.8678,55968.5826,555.7984,-612.393,26122.3018
56744.3222,28135.5232,54000.1541,42304.6947,36823.1535,39398.4318,5891.2933,50471.7082,44169.0087,55970.192,568.7624,-605.5534,26122.0783
56765.3328,28141.8711,53999.7518,42310.5508,36850.9591,39399.6388,5893.8414,50491.0648,44179.5588,55973.9023,584.6322,-591.8294,26127.3086
56764.9752,28134.6291,54001.7635,42308.0027,36848.3216,39396.9119,5891.1592,50485.7004,44177.9047,55971.2648,581.3241,-596.0315,26124.09
56754.0675,28130.0247,54004.6692,42298.8385,36830.5743,39393.8273,5890.0416,50463.3486,44169.5452,55965.9004,570.8188,-609.3532,26118.5914
56740.0306,28131.2764,54006.2338,42291.2836,36814.3022,39391.1451,5886.7335,50448.2836,44164.0019,55960.983,556.469,-617.1763,26115.4622
56752.6817,28138.3395,54002.2999,42301.9677,36827.2662,39397.1354,5885.1242,50461.5158,44169.4111,55961.4748,565.4097,-611.3201,26117.0715
56773.3347,28144.1957,54001.0482,42318.6421,36859.1845,39409.1159,5888.2982,50496.2057,44180.8552,55969.1638,589.1025,-594.601,26122.4806
56775.6146,28149.4707,53995.7732,42318.5974,36853.7307,39405.3608,5888.477,50508.2309,44176.5189,55965.6769,585.7944,-594.601,26120.156
56762.293,28154.6563,53998.0978,42310.6402,36829.7249,39405.942,5886.8229,50490.4836,44162.5267,55959.1949,570.2376,-605.4193,26117.1162
56751.2065,28155.0139,53998.5448,42300.8054,36804.6016,39407.8642,5883.4255,50470.1436,44152.692,55957.7197,559.33,-614.0471,26113.987
56763.0976,28161.4512,53997.9637,42307.4216,36819.1749,39410.8146,5880.5645,50479.3525,44163.242,55960.8489,570.1035,-610.5155,26118.5467
56791.082,28170.7495,53993.0016,42315.647,36844.2982,39415.6426,5877.5693,50495.3116,44172.585,55956.8256,583.4252,-602.8265,26116.5798
56793.049,28172.4483,53992.644,42315.8258,36840.0961,39415.7767,5872.5625,50485.7451,44167.757,55959.5078,582.5311,-600.8595,26114.5681
56768.328,28158.5008,53990.4982,42304.4264,36816.5821,39410.0994,5868.1816,50465.9414,44149.5627,55957.6303,569.88,-611.946,26110.5895
56755.2745,28153.1811,53987.5478,42298.9279,36809.6977,39412.424,5870.7297,50458.4312,44140.8008,55946.812,563.0404,-618.0257,26106.6556
56763.4553,28155.1927,53987.3242,42306.4381,36825.6569,39414.9721,5872.2049,50475.5527,44148.1769,55948.6002,569.88,-609.8896,26113.4505
56778.3415,28161.3618,53991.2134,42311.9366,36839.1573,39414.7933,5875.1106,50496.161,44153.0049,55954.054,579.1783,-603.9888,26117.7421
56775.0335,28156.2209,53993.4039,42312.9201,36845.7735,39411.1723,5877.5246,50490.1707,44153.2284,55954.6351,585.3474,-602.3347,26119.6196
56756.1686,28148.3531,53994.8344,42303.0406,36827.1321,39402.2316,5877.9716,50462.991,44134.14,55950.0307,573.054,-615.4329,26114.7022
56744.5457,28143.2122,53994.3427,42290.8366,36810.5471,39396.6883,5880.3409,50436.303,44112.3247,55944.9792,559.2406,-625.2229,26109.7848
56751.6983,28148.3978,53995.1026,42291.7306,36826.9533,39396.4201,5884.6772,50436.6606,44118.2256,55948.2872,564.8732,-614.7623,26114.1211
56759.2531,28153.494,53995.1921,42298.9726,36849.0815,39394.632,5885.2136,50450.027,44128.1945,55950.7906,578.5078,-606.2686,26117.1609
56750.6701,28153.7175,53994.2533,42297.4974,36843.4489,39388.1053,5886.7782,50447.8365,44122.2936,55953.6517,577.2561,-612.0354,26116.4904
56733.9063,28152.1529,53997.6954,42292.2224,36826.238,39381.9362,5888.9687,50423.4284,44108.3908,55950.2542,567.5107,-620.1714,26116.2221
56720.7187,28151.84,54000.7353,42284.2652,36814.5704,39378.6281,5895.4507,50394.9076,44096.9914,55947.2591,559.1959,-629.738,26116.5798
56732.2075,28159.8866,54004.4457,42288.1097,36829.3226,39382.2938,5901.4857,50397.7686,44106.4239,55955.0822,570.9529,-616.3716,26121.2736
56744.7692,28171.5095,54003.3281,42297.5868,36855.0718,39387.9712,5903.8997,50403.7589,44112.8165,55956.8703,588.0296,-597.3727,26125.2075
56745.3057,28177.8574,54002.434,42303.3535,36854.8483,39385.1548,5904.5255,50392.9406,44108.4802,55954.7693,587.9402,-600.7701,26118.9491
56720.0482,28177.9021,53999.6177,42291.1048,36835.134,39374.7836,5900.3681,50359.6365,44092.387,55951.6847,570.9976,-615.5223,26113.987
56693.5837,28170.0343,53994.8344,42287.9308,36812.827,39367.944,5896.3448,50334.6026,44073.7903,55939.6595,557.0501,-634.0742,26110.0084
56697.5176,28169.3637,53998.5448,42294.8599,36825.7463,39373.4425,5895.6742,50348.1477,44077.456,55941.6264,566.9743,-627.1452,26112.4223
56706.8607,28171.1519,53995.6838,42304.8735,36852.7025,39372.9955,5895.6742,50358.8766,44083.178,55941.2241,584.7663,-615.8799,26112.6459
56710.3475,28172.3142,53994.2086,42311.8919,36850.9144,39374.5154,5895.7636,50355.9709,44084.0721,55936.5302,588.7002,-611.0966,26115.0599
56687.057,28166.1451,53986.7878,42299.0173,36824.2264,39372.9955,5893.5285,50321.281,44070.5717,55929.4224,570.9529,-625.1782,26108.399
56675.0318,28157.6514,53984.6867,42292.1777,36801.6064,39369.8663,5892.0979,50302.3267,44050.4998,55921.8228,558.7488,-634.253,26104.6439
56691.9744,28164.2228,53988.1736,42303.6665,36819.0408,39379.0305,5900.9939,50317.8388,44054.4337,55926.2037,571.8023,-620.2161,26113.4952
56717.4554,28174.1917,53994.745,42323.1572,36851.3167,39391.9498,5910.0688,50343.8562,44079.2441,55939.0336,597.8197,-600.3678,26125.6546
56717.5001,28171.286,53998.1425,42326.197,36857.3964,39392.3521,5908.5488,50342.8727,44075.802,55935.5915,596.4786,-600.9936,26128.4262
56700.4681,28166.8156,53997.2931,42314.0377,36831.7366,39381.355,5905.1067,50319.9846,44057.5629,55926.2931,577.4796,-614.0023,26119.9772
56681.2009,28155.7292,53989.3359,42301.2972,36792.621,39374.2472,5896.7471,50295.8447,44038.0275,55913.1503,559.8217,-629.0227,26111.0365
56685.9394,28158.0538,53988.4418,42296.3798,36800.5335,39378.0023,5895.1378,50305.0089,44038.0275,55914.2232,566.572,-625.7147,26112.02
56710.3475,28168.6038,53988.6653,42312.1154,36829.8143,39385.0207,5898.267,50327.1371,44061.1839,55922.2698,588.6108,-612.3036,26115.9539
56713.2086,28167.218,53985.9384,42315.9599,36828.0262,39384.1714,5897.8647,50322.4432,44059.217,55922.1357,588.6555,-616.1034,26114.5234
56691.7509,28158.0985,53985.402,42299.8667,36797.4043,39375.4989,5892.9026,50291.2402,44040.1733,55913.3738,567.1978,-634.9683,26107.4603
56675.4341,28146.9673,53980.6187,42287.6626,36770.0011,39361.6855,5884.5878,50263.1664,44021.8896,55900.231,549.8976,-647.4853,26100.1736
56683.7043,28148.8001,53977.5789,42289.0037,36778.2712,39358.6904,5880.3856,50276.6669,44030.1597,55899.2922,559.2406,-638.9916,26102.0958
56708.1124,28157.3385,53981.781,42304.7394,36804.6016,39368.704,5886.3312,50296.247,44046.8788,55913.9103,581.0559,-618.2939,26112.78
56720.0035,28155.6398,53982.8092,42306.9745,36802.8581,39369.7768,5889.5051,50301.522,44055.1043,55916.5031,578.0607,-613.4212,26115.9092
56715.1308,28156.3103,53985.9831,42295.5751,36781.8922,39365.8429,5889.1475,50290.3014,44046.8341,55915.3855,569.5224,-624.8206,26115.7751
56700.7363,28147.3249,53986.7431,42286.2768,36762.1332,39356.7234,5886.5994,50265.1781,44039.5027,55911.8986,554.6808,-636.8458,26112.1541
56705.9666,28143.3016,53983.3456,42290.7919,36773.8456,39363.116,5890.2651,50268.1732,44043.4813,55918.2018,566.5272,-625.4464,26117.0268
56727.7819,28152.8682,53985.4467,42307.198,36803.3946,39370.5368,5894.7802,50298.0351,44062.1674,55930.0035,587.0014,-607.3415,26121.0501
56740.3883,28157.9643,53990.2747,42312.5178,36817.3867,39370.0898,5898.3564,50305.2771,44069.767,55932.6857,592.1423,-601.2172,26124.7158
56723.4904,28156.1762,53991.6605,42301.4313,36792.174,39362.8925,5891.8744,50273.8506,44064.6261,55923.9686,578.9995,-615.1646,26120.8266
56707.3971,28148.5766,53989.4253,42294.6811,36768.4364,39359.4503,5887.0465,50253.2423,44047.6835,55915.4749,563.2639,-626.8322,26115.3728
56728.2289,28150.5436,53989.8723,42302.5936,36783.9932,39368.9722,5891.4274,50268.4861,44056.803,55924.5944,575.5126,-615.3435,26117.7421
56748.8819,28161.2277,53988.6653,42310.0144,36805.4062,39373.4872,5894.8696,50292.626,44067.8447,55934.9209,587.8955,-604.2123,26121.9442
56751.9218,28167.9779,53989.023,42309.8803,36810.9047,39371.3862,5897.5518,50294.0118,44073.7456,55940.8665,591.4718,-602.603,26125.5205
56733.7275,28164.1334,53988.1289,42298.7044,36788.553,39370.1792,5897.1494,50287.2616,44063.5532,55932.9093,573.948,-615.6117,26117.4738
56722.1045,28162.7029,53990.3194,42288.3332,36771.521,39366.6923,5896.3448,50270.8554,44051.0362,55927.8131,559.6429,-628.7992,26111.8412
56730.5535,28163.1947,53987.8607,42288.1991,36783.4121,39368.1675,5894.5566,50275.2811,44062.1674,55932.5963,565.3203,-625.67,26110.4107
56744.2328,28161.5853,53988.0395,42297.3633,36804.5568,39371.1179,5895.2272,50294.4142,44074.9079,55938.4972,579.983,-613.4659,26113.7635
56743.1599,28150.6777,53985.0891,42297.2739,36805.4062,39358.0198,5890.3098,50298.2587,44076.249,55935.3679,573.3669,-620.0373,26112.78
56723.9374,28138.876,53982.6304,42289.4508,36780.0146,39349.7497,5884.3195,50277.3821,44061.8992,55934.8762,554.3232,-632.8225,26110.0531
56712.7615,28135.3444,53988.3971,42281.6277,36762.8038,39345.9499,5886.5547,50258.7855,44050.9468,55928.0366,544.0861,-638.9022,26105.4486
56725.0997,28141.6476,53990.8111,42290.4342,36777.1536,39353.5942,5890.6227,50270.7213,44060.871,55930.7635,559.1959,-626.7875,26109.2037
56737.0802,28152.9576,53985.1338,42298.3915,36792.7551,39356.634,5888.1193,50297.1858,44069.6776,55927.9919,571.7576,-615.2987,26113.3611
56740.6118,28160.0654,53985.9831,42302.1466,36796.7337,39365.6194,5893.3944,50304.5619,44083.3122,55931.747,582.2629,-609.1744,26117.7421
56723.5351,28159.529,53988.263,42301.3866,36783.2333,39368.2122,5892.7238,50289.318,44079.1994,55930.9423,575.7362,-620.3949,26116.401
56714.1473,28164.804,53988.0395,42300.1796,36777.4665,39365.8429,5893.0814,50282.2995,44072.3151,55925.9802,565.2308,-629.1568,26113.0482
56728.676,28167.7097,53983.9715,42301.2972,36793.8727,39368.1228,5895.0484,50297.5881,44080.2276,55928.6177,570.4165,-618.0704,26113.5399
56745.8868,28171.1966,53981.2446,42309.2544,36815.1069,39370.4027,5895.0931,50316.7212,44088.9895,55939.0783,585.1686,-605.4193,26116.5798
56745.0821,28169.1402,53977.3554,42305.4546,36811.173,39366.29,5891.1145,50318.1964,44081.8816,55933.0434,581.3241,-615.1646,26112.3776
56736.2756,28161.3618,53976.9083,42298.615,36786.899,39363.5184,5886.5547,50300.8962,44067.0401,55923.8791,567.8684,-634.6107,26105.8509
56721.3893,28156.8468,53979.5011,42297.3633,36765.5754,39365.8429,5884.5878,50281.5396,44062.2121,55920.2582,556.3796,-645.9206,26099.7713
56734.1745,28158.8584,53977.1765,42307.198,36781.6687,39374.0684,5878.6869,50288.3345,44075.8467,55922.4933,560.4923,-634.6554,26102.4982
56758.8061,28165.7428,53978.2941,42321.2349,36813.7211,39383.1432,5882.0397,50314.2625,44087.5143,55926.2931,574.3057,-621.4678,26104.6439
56761.7118,28169.9002,53981.1999,42322.3078,36821.6783,39390.4746,5881.8161,50319.8057,44091.4929,55927.8578,579.4019,-619.8585,26105.2251
56743.9646,28166.011,53983.0774,42315.2894,36809.7872,39386.3171,5882.4867,50309.0322,44078.8865,55922.8957,565.4991,-632.0179,26102.8111
56731.7158,28158.9925,53980.0823,42300.1796,36788.8212,39381.668,5878.4634,50289.5415,44065.699,55915.2514,549.8976,-644.5795,26096.1056
56742.4446,28157.2491,53980.3058,42298.9279,36795.8397,39381.7127,5878.4187,50309.8369,44079.4677,55926.919,559.2853,-636.3094,26101.9617
56756.3474,28160.7807,53981.6916,42306.0805,36820.7395,39384.976,5882.1291,50340.9058,44092.9681,55939.7489,573.6351,-623.5689,26109.2037
56750.7595,28168.0226,53983.1221,42310.4614,36829.5014,39387.1218,5886.6441,50349.2206,44100.1654,55942.8781,576.2726,-622.0043,26112.78
56728.0054,28157.2938,53974.2708,42295.3069,36805.0933,39373.9343,5880.788,50324.6337,44085.9497,55934.3398,554.8149,-638.5446,26102.9452
56709.7217,28144.7768,53972.5721,42283.8181,36775.2761,39363.8313,5875.8706,50304.5619,44074.4609,55928.126,542.8791,-651.2403,26098.609
56721.2999,28151.08,53980.3058,42289.1825,36792.9339,39368.3463,5883.8278,50316.8553,44089.66,55934.8315,558.3465,-636.1306,26107.6838
56743.5175,28159.1713,53979.8141,42294.7705,36828.205,39368.6146,5886.063,50342.2916,44098.6454,55941.09,575.6915,-621.5572,26112.9141
56747.9432,28162.9711,53981.5128,42297.0951,36833.1671,39367.8993,5888.477,50348.9077,44099.8077,55947.2591,583.6487,-616.5951,26115.6857
56731.2241,28152.8682,53978.92,42282.03,36815.4645,39355.0694,5884.3642,50318.1517,44086.6649,55941.8499,569.12,-634.0295,26107.505
56708.6488,28143.1228,53978.2941,42274.1175,36793.1575,39345.637,5883.9619,50290.3461,44077.0537,55936.3067,554.5914,-644.1325,26102.0511
56723.0433,28144.8215,53975.7907,42286.2768,36810.2342,39356.4552,5891.7403,50306.7523,44088.8554,55941.8947,573.3222,-624.463,26112.8247
56747.362,28149.3813,53979.2776,42297.3633,36836.6987,39361.5961,5895.7636,50331.6522,44106.0662,55943.1911,589.5495,-609.7555,26121.7207
56748.2561,28152.6446,53985.8043,42301.7889,36836.7434,39365.7982,5898.1329,50335.0496,44112.7717,55951.5953,589.5495,-608.1909,26121.4972
56730.3747,28150.3648,53987.0113,42293.7423,36815.3751,39365.53,5898.267,50321.7727,44104.6357,55948.8237,578.5972,-617.1763,26117.4738
56716.6507,28142.2734,53986.1172,42281.8065,36803.8416,39360.1209,5895.5401,50307.8252,44093.2363,55941.0006,564.2921,-631.4367,26113.7187
56728.9889,28141.737,53985.5361,42283.6393,36817.6997,39365.6194,5895.6742,50322.0856,44098.7349,55937.9607,568.9859,-622.0043,26110.5448
56741.1929,28148.5319,53984.0609,42292.6694,36836.9222,39366.9158,5898.1329,50352.3946,44112.4588,55948.7343,582.0841,-610.1578,26113.674
56743.9646,28155.1927,53984.1503,42298.3021,36836.2516,39372.0567,5898.6694,50350.5617,44113.7999,55951.5953,579.6254,-612.5718,26111.2601
56731.8499,28147.9508,53982.2727,42287.3944,36818.549,39368.9722,5898.0435,50324.7678,44105.351,55940.4194,562.638,-622.4066,26104.4204
56719.6906,28139.4571,53983.748,42274.3857,36800.8912,39359.7633,5893.3944,50312.6532,44094.7562,55933.3563,547.4836,-634.3871,26100.8441
56735.6944,28142.9887,53987.8607,42280.063,36812.827,39366.3794,5896.6577,50325.1255,44106.6474,55943.8616,559.3747,-626.6981,26105.538
56755.4086,28152.287,53991.124,42293.4294,36840.3196,39378.8517,5897.4624,50348.7736,44127.3004,55953.1152,573.3222,-612.4377,26112.02
56755.9004,28153.1364,53992.644,42298.615,36845.8182,39382.4726,5900.681,50357.5355,44127.9262,55959.4184,573.948,-613.8235,26111.4389
56734.8897,28147.459,53990.7664,42293.6082,36822.2147,39378.9858,5897.9094,50338.2683,44119.3879,55953.4729,564.4709,-624.2394,26109.6507
56726.709,28141.2005,53990.4535,42286.9921,36801.8746,39374.0684,5897.4177,50314.8437,44106.0662,55948.1084,557.1395,-629.738,26110.0531
56732.2075,28144.6874,53985.0444,42286.9474,36812.2458,39378.9411,5896.1213,50333.485,44111.833,55947.4379,564.9179,-620.2161,26116.5798
56748.6137,28153.7622,53985.4467,42298.8385,36838.0398,39389.7146,5901.6645,50360.3071,44122.9194,55953.9646,584.5875,-602.1112,26123.4641
56749.9995,28152.3764,53987.1454,42299.2408,36843.0465,39389.7593,5904.0338,50359.5471,44118.8514,55956.3786,589.9072,-598.3114,26122.7041
56737.7061,28145.045,53986.609,42295.0387,36825.791,39388.9099,5905.9113,50336.4354,44108.7931,55952.7129,578.3737,-609.1297,26124.4476
56726.0832,28140.8429,53987.9054,42286.1874,36804.6463,39384.1714,5899.6975,50314.4413,44098.8243,55946.1415,569.433,-623.0325,26122.3912
56735.3368,28143.2569,53989.0677,42290.3895,36822.7512,39392.3521,5899.4293,50325.2149,44105.7533,55950.1201,580.6088,-619.2774,26123.7323
56752.2794,28153.2705,53986.4302,42301.1631,36846.1311,39395.6602,5897.7753,50351.9922,44122.6959,55955.7527,594.2881,-606.0004,26124.4923
56751.0277,28152.287,53984.7761,42300.8949,36851.8084,39389.4017,5890.6674,50357.0437,44120.0584,55950.8353,588.2084,-608.0121,26119.5749
56735.3815,28148.9342,53986.3855,42289.2272,36834.9105,39381.355,5891.0251,50341.7999,44105.7086,55949.7178,568.9859,-624.2841,26113.8082
56718.3495,28145.7603,53983.9715,42276.7103,36810.8153,39373.7555,5891.4274,50320.8786,44089.9283,55944.8898,558.1677,-634.6554,26109.6954
56728.0948,28143.7039,53978.7412,42278.6325,36815.5092,39375.6777,5890.2651,50331.4734,44099.763,55944.8898,563.9791,-622.8089,26110.7683
56745.6633,28149.6048,53979.7246,42297.8103,36843.4489,39382.9197,5888.3876,50348.103,44114.0234,55950.6118,579.983,-612.9295,26114.434
56752.7264,28148.3531,53980.4846,42300.4925,36850.4226,39382.3385,5890.8015,50348.7736,44117.4656,55950.3436,582.3076,-613.3318,26112.7353
56741.5953,28144.151,53978.6518,42289.7637,36829.3673,39374.9624,5889.5051,50331.6075,44106.245,55943.5487,568.2707,-627.1452,26105.3592
56727.3349,28136.149,53980.8869,42281.583,36817.6103,39370.9391,5889.0134,50313.8602,44101.5959,55947.3038,554.8596,-634.8342,26104.1969
56738.466,28143.5251,53984.955,42288.4226,36825.2546,39381.355,5895.6295,50335.6755,44111.1177,55955.6186,562.951,-623.6583,26111.573
56759.9237,28152.3764,53988.3524,42297.9444,36850.5567,39389.4017,5900.3681,50367.5491,44125.2887,55960.536,580.743,-611.0519,26118.5914
56761.6224,28155.1927,53987.4136,42293.5635,36852.7919,39384.3949,5900.5469,50372.4217,44129.312,55962.3688,580.1618,-611.7672,26118.3232
56751.8324,28155.8186,53988.3524,42290.6578,36835.7152,39378.3599,5903.2291,50361.4694,44115.3198,55953.0705,566.9743,-624.5971,26114.881
56740.0753,28151.9294,53991.0793,42283.237,36823.4664,39373.7555,5905.2855,50341.9787,44110.8942,55953.6517,554.502,-635.1471,26111.573
56736.6332,28146.3861,53991.2581,42285.8745,36831.1107,39373.3978,5899.6528,50346.6725,44120.9525,55963.0841,562.5486,-627.1452,26112.1541
56754.8275,28151.9741,53989.6935,42297.6762,36851.719,39378.7622,5897.1047,50368.6219,44131.5472,55968.9403,579.7595,-613.6,26114.6575
56754.9169,28147.772,53982.2727,42300.0008,36846.444,39375.4542,5892.545,50363.2575,44130.9661,55961.0724,579.8489,-618.0704,26108.2649
56741.3718,28139.8147,53979.6352,42288.512,36826.7298,39367.6758,5888.164,50346.2255,44120.5949,55957.1385,568.0472,-629.5592,26105.091
