FC3,FCz,FC4,C5,C3,C1,Cz,C2,C4,C6,CP3,CPz,CP4
53378.5075,25724.3067,52041.7392,39458.7368,34602.8209,36806.6132,5066.1117,49476.6086,44325.4262,55158.9131,-2161.0558,-2552.9712,23442.6409
53396.523,25729.9393,52047.1931,39466.8728,34616.4554,36811.0389,5071.2973,49483.2247,44331.2377,55159.0919,-2147.153,-2544.3882,23449.8382
53403.765,25724.709,52038.3865,39462.6707,34622.7139,36806.4344,5064.86,49495.8758,44331.9529,55154.8451,-2141.3416,-2541.8848,23448.0053
53410.4258,25733.7838,52045.2261,39470.8514,34637.1979,36813.7211,5073.2642,49501.6426,44337.4068,55161.5059,-2135.5748,-2534.6875,23448.1841
53387.4482,25714.7402,52034.9443,39451.316,34605.816,36799.6842,5059.0038,49471.8254,44318.5866,55146.5303,-2155.6467,-2557.531,23435.4883
53366.2587,25692.9696,52022.7849,39434.9992,34573.8977,36782.7415,5044.1176,49449.2501,44295.0279,55130.0794,-2180.9936,-2576.0382,23422.569
53391.0692,25705.0842,52035.5254,39455.3393,34602.6868,36800.31,5057.9756,49469.5008,44312.2834,55144.2057,-2163.1569,-2556.9499,23436.8294
53411.3646,25716.7965,52041.0687,39473.8019,34632.4146,36807.6861,5067.5422,49494.2218,44330.5671,55158.5555,-2137.3183,-2536.7439,23452.6098
53406.0895,25720.5963,52038.2077,39469.6444,34621.8199,36804.2439,5063.8318,49494.5347,44323.3699,55157.572,-2141.9227,-2540.4096,23448.8547
53399.4287,25722.7421,52040.2193,39467.9457,34610.7334,36807.9543,5064.5918,49480.1849,44320.2853,55152.0735,-2150.3717,-2546.8469,23444.2502
53379.938,25711.0298,52032.0833,39453.9982,34592.4944,36801.8299,5056.1428,49461.32,44300.8393,55137.0978,-2171.2929,-2566.9187,23432.8508
53382.1285,25710.3592,52029.3564,39448.1868,34592.9414,36800.0418,5053.7735,49466.5951,44301.2863,55141.2106,-2171.9187,-2566.5164,23428.9169
53404.2567,25720.5069,52033.782,39453.1935,34612.5215,36804.2886,5052.1642,49477.3239,44315.9491,55141.4341,-2156.5855,-2555.2511,23431.0627
53433.1352,25740.4,52051.9763,39480.418,34635.4544,36824.6287,5067.6763,49497.8875,44333.9199,55151.9394,-2138.3911,-2536.878,23447.4689
53411.5434,25726.229,52044.8238,39465.2635,34612.4321,36816.4033,5059.8979,49471.8254,44314.9209,55148.4972,-2161.3687,-2552.6136,23440.0928
53390.0857,25713.3991,52040.264,39455.1158,34590.6168,36807.9096,5055.7852,49453.2287,44300.8393,55138.4836,-2167.8954,-2564.7283,23435.9801
53397.9982,25713.712,52040.8452,39460.8825,34605.9948,36812.6035,5059.9873,49479.9614,44310.8529,55140.3612,-2161.1899,-2555.8323,23440.6739
53411.6328,25720.2387,52043.2591,39473.623,34624.1444,36819.8454,5061.3731,49497.7534,44323.1016,55148.1843,-2145.9907,-2538.2191,23445.1443
53415.7008,25726.7654,52042.0074,39478.2275,34619.1376,36820.7395,5062.2672,49491.2267,44325.2474,55144.608,-2138.257,-2536.2521,23445.7701
53404.7931,25736.1531,52042.7227,39471.8349,34602.2844,36822.6618,5059.8979,49470.3948,44311.4787,55139.6012,-2149.4329,-2550.1996,23441.4786
53392.902,25753.051,52046.8801,39463.1624,34590.5721,36824.5393,5058.3333,49456.4027,44296.7266,55134.2368,-2160.4747,-2562.4037,23440.1822
53400.3675,25750.3688,52041.0687,39464.4141,34594.059,36818.5937,5053.0583,49456.8497,44295.7878,55130.1688,-2158.91,-2558.7827,23439.0646
53442.0311,25764.361,52057.3407,39492.8902,34636.9296,36838.1739,5069.0174,49490.7349,44317.1561,55145.368,-2124.5778,-2526.5068,23461.1034
53426.9661,25742.4563,52043.4827,39471.4773,34617.8859,36825.344,5051.0466,49476.7874,44307.1872,55137.5896,-2137.4524,-2540.5884,23446.1278
53391.1586,25713.0414,52027.747,39447.8738,34592.1814,36797.4043,5035.758,49440.8458,44283.3602,55119.887,-2167.4931,-2569.0645,23426.6818
53384.9448,25711.6556,52029.8481,39441.7495,34570.6344,36797.3149,5036.6968,49423.0986,44277.4147,55115.4613,-2179.4736,-2577.0217,23424.4466
53417.623,25735.1696,52046.8354,39467.0963,34597.5012,36824.0476,5049.6608,49455.9109,44298.7382,55132.851,-2154.2162,-2551.7642,23439.7352
53431.347,25742.0987,52044.1532,39478.9875,34621.6857,36828.4285,5048.4091,49469.8137,44310.8976,55141.9705,-2142.6827,-2539.9178,23444.742
53403.3626,25711.9238,52020.7733,39449.3043,34595.9365,36800.31,5024.1798,49446.3444,44284.8802,55117.5624,-2172.2764,-2564.2812,23421.1832
53391.7397,25705.8889,52027.8811,39446.0857,34588.6052,36801.517,5029.9913,49434.5427,44283.2261,55118.7247,-2180.9042,-2570.1821,23423.9101
53388.4317,25707.6323,52036.3748,39448.8573,34583.7325,36814.1681,5035.1769,49424.7973,44283.4944,55124.8491,-2182.737,-2569.5115,23431.6438
53390.3092,25691.0473,52022.2038,39438.1285,34588.784,36808.5355,5025.2974,49440.6223,44282.645,55117.6965,-2187.8779,-2572.8196,23420.1998
53417.5336,25698.9151,52024.886,39456.2781,34617.0813,36825.0757,5035.6686,49478.8438,44307.6342,55126.5031,-2165.5709,-2552.4795,23429.0063
53425.9379,25713.6226,52035.4807,39474.6959,34624.815,36832.1836,5043.8046,49495.9652,44325.1133,55137.1872,-2153.7244,-2538.5767,23436.2036
53389.5046,25713.0414,52028.0153,39462.8048,34608.2747,36820.963,5036.6521,49481.8836,44306.8743,55126.9054,-2174.2433,-2558.5145,23427.3523
53384.8107,25729.1347,52039.2358,39463.2071,34608.3641,36825.8357,5045.9504,49464.3152,44296.7266,55122.6586,-2177.3726,-2566.5611,23430.1239
53402.6027,25736.4213,52047.7295,39470.5385,34620.5682,36828.652,5051.6725,49477.6815,44303.1639,55128.3807,-2164.6768,-2551.5854,23435.533
53408.8612,25741.294,52039.3252,39473.7571,34630.5817,36829.8143,5047.9621,49503.2072,44304.058,55126.4584,-2161.0111,-2545.8187,23431.5991
53395.7183,25738.4777,52028.3729,39479.1216,34631.0288,36824.4499,5047.6044,49502.8943,44294.4914,55122.2116,-2159.4912,-2548.1433,23432.0462
53383.2908,25728.7771,52026.2271,39468.4374,34611.4039,36817.2973,5045.4587,49482.9118,44282.9132,55116.7578,-2172.8128,-2560.5708,23430.6157
53388.7446,25748.4913,52044.8238,39473.5783,34608.1853,36833.1671,5059.6744,49475.6252,44293.5079,55126.6372,-2167.5378,-2552.4795,23441.8809
53394.3772,25758.1919,52044.9579,39470.8067,34610.9569,36834.687,5055.1146,49490.0644,44295.8325,55126.1455,-2165.9732,-2547.0257,23440.5845
53419.59,25769.7254,52048.2212,39482.4296,34634.158,36843.3148,5055.2487,49513.1314,44304.1921,55126.4584,-2150.2823,-2532.5418,23442.775
53420.9311,25777.1015,52052.5575,39489.2246,34640.5506,36845.3264,5057.7521,49513.3996,44310.0035,55128.6042,-2144.4708,-2529.8148,23445.1443
53414.2703,25769.1443,52052.1998,39485.6483,34622.8033,36839.2915,5053.9076,49490.3773,44299.9005,55123.7762,-2158.4183,-2540.8566,23441.568
53403.9438,25756.4932,52055.7761,39480.6862,34602.9103,36839.5597,5055.0252,49473.837,44291.988,55124.4915,-2168.5213,-2550.9596,23442.9091
53413.5997,25760.7847,52056.5361,39482.2955,34616.5001,36848.0086,5061.0602,49491.1373,44310.0482,55135.1756,-2159.7147,-2540.3202,23449.1676
53421.6911,25765.568,52047.1036,39483.8154,34630.3135,36847.4275,5059.4509,49511.3879,44321.3135,55132.851,-2152.1151,-2533.0335,23447.156
53421.5122,25766.1045,52042.2757,39477.9593,34632.5934,36836.2516,5055.9193,49508.7951,44311.747,55125.609,-2154.9761,-2537.2803,23443.4456
53407.1177,25769.5019,52047.1931,39475.9029,34610.9569,36830.4402,5053.55,49497.6193,44304.1474,55122.2563,-2165.3026,-2548.1433,23440.2269
53394.2878,25765.4786,52049.2047,39476.797,34605.7713,36826.551,5054.5335,49489.1703,44293.195,55116.4001,-2173.9304,-2555.6982,23439.1093
53414.8514,25765.568,52055.0162,39493.6055,34628.3913,36835.0446,5064.8153,49508.7951,44311.0764,55126.2796,-2152.5621,-2536.7439,23448.81
53418.1595,25759.8013,52049.7411,39492.7561,34636.3932,36830.8425,5059.6297,49515.1877,44314.7868,55129.23,-2149.6564,-2534.7322,23442.0598
53406.3131,25753.1404,52045.2708,39487.5258,34635.5885,36824.7628,5055.517,49505.1295,44311.4787,55125.162,-2153.9927,-2537.5485,23443.7585
53390.3539,25733.0686,52039.057,39472.4607,34609.437,36816.135,5047.3362,49487.6951,44301.0628,55116.2213,-2170.7565,-2553.4183,23435.2201
53383.0225,25717.6906,52032.1727,39456.9039,34587.7558,36806.0768,5041.6142,49468.9196,44284.299,55109.024,-2185.151,-2568.3045,23427.844
53408.1012,25733.8285,52041.5157,39479.6133,34610.7334,36821.0971,5052.7006,49484.0294,44301.4652,55122.1669,-2165.9285,-2550.4231,23441.121
53436.7114,25753.4087,52054.4797,39503.5297,34638.7625,36835.894,5064.1894,49507.9011,44324.5769,55137.9025,-2140.0005,-2528.8314,23453.7274
53421.8252,25731.0122,52036.0172,39482.2955,34622.4904,36809.9213,5045.5034,49482.0625,44304.7285,55127.1737,-2154.842,-2544.8799,23436.4271
53389.1916,25700.7927,52020.058,39448.9467,34584.5371,36786.9437,5028.9631,49437.5378,44273.1678,55110.3652,-2183.7205,-2570.8526,23418.9034
53381.2791,25691.8073,52031.2339,39451.0478,34577.027,36790.1176,5034.2381,49421.0422,44275.6265,55114.2991,-2180.0101,-2571.7467,23426.9947
53387.7164,25687.2922,52030.921,39458.2897,34588.024,36788.7765,5033.344,49425.1996,44278.8005,55113.5838,-2173.2152,-2566.0247,23428.3358
53415.1644,25706.2018,52046.1202,39483.8601,34623.9209,36808.446,5050.9572,49457.9673,44303.0745,55129.5877,-2146.3484,-2539.8284,23443.6691
53406.0895,25695.3835,52032.3068,39466.8728,34610.8228,36790.4305,5036.3392,49445.0927,44293.195,55119.3506,-2158.9547,-2556.0111,23429.2299
53401.3063,25701.2844,52034.1843,39461.2849,34596.8306,36787.793,5037.7697,49424.3503,44277.817,55117.2048,-2169.7283,-2567.7234,23426.5924
53386.2859,25699.988,52037.7159,39458.0215,34582.4361,36790.8776,5040.139,49409.3299,44272.4973,55116.1766,-2178.1325,-2572.7302,23428.604
53379.0886,25683.3136,52022.2932,39434.1052,34568.578,36778.8076,5018.4578,49407.9441,44265.7471,55106.7889,-2194.2705,-2585.6942,23414.88
53422.8534,25711.298,52044.6897,39472.4607,34619.54,36809.2507,5043.7152,49451.7088,44298.9618,55129.0512,-2153.6797,-2547.2045,23442.5068
53430.6318,25710.8957,52047.506,39480.5968,34624.3232,36819.3984,5049.2138,49465.7904,44307.5448,55132.851,-2141.8333,-2539.4261,23447.5136
53412.9739,25700.8821,52038.3865,39457.3063,34591.7344,36807.6861,5035.311,49444.7798,44283.6732,55120.5128,-2169.6836,-2561.1073,23432.0909
53386.7776,25694.8471,52025.0648,39430.0371,34554.6305,36786.3178,5018.3237,49423.6797,44262.1708,55102.5867,-2200.8419,-2586.633,23413.986
53400.5463,25720.9092,52039.7276,39449.7514,34581.7208,36807.9543,5033.2993,49459.8895,44283.8967,55120.5128,-2177.7749,-2567.5893,23430.4816
53422.451,25742.4116,52044.9132,39469.4209,34614.4885,36825.6569,5043.1788,49498.7369,44300.0346,55133.4321,-2156.5408,-2550.9596,23441.4339
53433.8951,25765.3445,52052.021,39472.1925,34618.4224,36827.0874,5047.3362,49509.2869,44299.7664,55146.8879,-2149.6117,-2543.2259,23445.7701
53414.3597,25765.6574,52044.9579,39447.6056,34586.817,36808.8037,5038.4849,49479.425,44281.4827,55135.0415,-2172.1423,-2563.8789,23433.7896
53394.6007,25754.3921,52038.61,39434.9098,34563.6606,36791.8611,5033.7464,49440.8458,44260.9191,55121.1387,-2183.497,-2573.7584,23429.0063
53402.4686,25747.9995,52038.61,39444.9681,34584.2242,36792.4869,5039.2449,49436.599,44267.1329,55124.6256,-2169.2812,-2564.5494,23433.0744
53396.076,25732.5768,52033.5585,39446.6221,34599.5575,36794.4986,5032.8523,49452.8264,44274.4642,55128.9171,-2167.2696,-2561.152,23427.9335
53401.5298,25742.4563,52049.4282,39463.1624,34619.1823,36809.6977,5046.8445,49463.287,44287.7412,55143.1328,-2153.4115,-2548.9032,23438.0364
53385.9283,25741.4281,52050.2329,39463.7883,34609.1241,36812.0223,5052.4771,49459.0402,44281.438,55136.919,-2157.8819,-2552.8818,23434.8625
53346.1422,25719.6575,52031.6809,39436.4744,34574.2553,36787.0778,5031.8241,49440.3094,44253.7218,55120.647,-2192.5718,-2582.252,23410.4991
53360.2685,25739.5506,52035.7937,39452.4336,34596.3836,36795.795,5045.2799,49454.7039,44262.0367,55133.5663,-2172.9469,-2561.152,23425.9218
53389.9069,25759.1307,52046.6566,39471.1643,34626.022,36807.7308,5059.8532,49462.08,44274.5537,55146.4409,-2150.774,-2540.8119,23439.1093
53388.387,25756.7167,52053.8986,39476.2605,34634.7839,36813.2293,5066.9163,49454.7486,44279.1134,55151.7159,-2142.7274,-2537.5038,23444.429
53365.8117,25746.5243,52048.4447,39461.8213,34615.0696,36801.1594,5061.0155,49426.2278,44252.336,55137.6343,-2161.3687,-2554.1782,23436.5165
53345.9634,25746.6584,52039.9511,39440.8107,34586.9958,36785.692,5052.6112,49407.0947,44233.2476,55122.7927,-2182.9605,-2572.7749,23424.7595
53361.1178,25761.2318,52040.1299,39447.695,34598.4399,36789.5365,5053.7735,49413.3532,44238.7462,55123.7315,-2176.6573,-2567.2764,23424.983
53390.9798,25782.4659,52050.7246,39471.7455,34635.2756,36809.7872,5065.2623,49436.0626,44266.2388,55141.9258,-2150.9081,-2542.1083,23441.7915
53391.0692,25779.2473,52047.506,39473.6677,34637.332,36816.0903,5065.9776,49430.9664,44263.2437,55140.093,-2149.6117,-2541.2589,23443.1773
53345.0693,25746.4796,52021.3991,39434.1052,34590.3933,36785.3791,5036.6968,49379.7362,44224.5752,55112.8685,-2192.4376,-2576.6641,23415.5953
53321.9129,25737.1813,52016.0794,39417.4308,34566.0299,36767.0506,5025.0739,49345.0463,44195.5626,55096.9094,-2219.8409,-2594.2326,23398.8762
53366.1693,25773.7488,52048.9812,39466.7834,34623.608,36809.8319,5062.7142,49384.7877,44238.4779,55124.715,-2170.4435,-2550.3784,23434.4155
53383.3802,25779.5602,52052.1998,39486.9894,34648.7761,36820.2031,5071.0738,49413.1744,44260.5168,55132.851,-2139.6875,-2531.8265,23446.843
53372.4278,25770.9771,52038.7441,39461.8213,34622.2669,36797.8066,5053.2818,49396.0083,44241.2943,55116.7578,-2161.0558,-2553.5077,23429.2299
53347.7068,25757.9684,52028.507,39440.2295,34592.6285,36777.6453,5042.4635,49364.8052,44207.0961,55099.0552,-2187.6544,-2577.7817,23414.0754
53328.2161,25750.6818,52021.3544,39427.1314,34572.6907,36767.1847,5035.9815,49335.1221,44188.41,55090.9638,-2206.6534,-2588.7787,23404.4194
53353.5182,25769.4572,52039.7276,39450.2431,34594.4166,36784.4403,5050.2867,49353.0482,44209.0631,55104.1514,-2183.184,-2563.5213,23421.4962
53371.7573,25765.0316,52036.4642,39458.7815,34610.0628,36784.8426,5048.3197,49365.297,44218.8531,55109.2029,-2169.5942,-2553.2842,23428.0229
53370.6397,25755.2862,52034.8549,39454.3558,34605.2349,36777.0195,5046.6657,49354.0764,44213.5781,55113.7179,-2164.945,-2558.2463,23425.9665
53354.01,25740.1317,52033.0667,39444.6999,34589.4545,36773.7114,5047.8727,49328.4613,44208.169,55107.5041,-2172.8575,-2567.634,23426.8159
53337.8273,25729.537,52031.3233,39438.799,34570.1873,36765.3519,5045.0116,49305.3496,44198.3789,55101.0668,-2187.0732,-2579.0781,23420.5127
53354.01,25737.4048,52040.1299,39445.1916,34585.2524,36771.8786,5051.2254,49320.8617,44208.3478,55110.0969,-2172.8575,-2566.4717,23424.6701
53384.8107,25754.8392,52051.6634,39464.5929,34615.4273,36787.793,5060.0767,49356.1327,44226.4527,55122.4798,-2153.0092,-2551.9878,23435.3095
53374.7524,25753.9451,52047.7295,39455.8311,34610.4205,36778.9418,5052.6112,49343.6158,44222.0718,55119.2164,-2160.2511,-2558.4251,23432.6273
53363.5765,25739.5953,52046.8354,39440.8554,34583.7325,36776.9301,5045.8163,49318.1795,44211.3876,55113.4944,-2176.6126,-2569.7798,23425.4301
53359.9108,25730.297,52047.0142,39432.4958,34572.3331,36776.2595,5048.6326,49290.5974,44205.755,55107.5935,-2186.0003,-2574.9207,23424.8936
53387.627,25742.9928,52062.7499,39463.3859,34599.4234,36799.103,5069.0621,49320.9511,44233.6053,55127.2631,-2152.1151,-2542.2871,23449.9723
53395.5395,25740.6682,52059.2183,39467.1857,34616.0531,36794.5433,5065.8435,49333.2446,44241.1155,55127.7101,-2140.1346,-2538.085,23446.7983
53403.4073,25742.2775,52057.7431,39462.3578,34608.677,36789.6259,5064.413,49332.127,44232.8453,55129.4982,-2147.2871,-2543.807,23443.5797
53385.973,25740.8917,52054.1668,39449.3043,34586.0124,36782.9651,5060.2555,49316.7043,44221.6247,55123.0162,-2165.5262,-2559.3191,23436.9189
53381.2791,25749.7877,52055.3738,39439.6484,34576.4458,36787.2119,5064.6812,49312.681,44220.6413,55123.1503,-2174.2433,-2568.9751,23438.1258
53404.6143,25767.6691,52063.1969,39450.9584,34590.7956,36798.9242,5072.3255,49336.5079,44237.8521,55135.4438,-2160.1617,-2553.7759,23444.4737
53416.7737,25775.0005,52061.2746,39459.0497,34605.9948,36800.0865,5071.9678,49358.3232,44242.993,55139.5565,-2152.8304,-2541.6613,23442.9091
53425.8485,25777.8615,52066.4155,39463.2965,34609.3923,36803.484,5073.8901,49353.4505,44257.2981,55145.6362,-2152.5621,-2534.6428,23445.4572
53400.0099,25763.6905,52064.3145,39444.4764,34579.6198,36786.139,5062.8483,49327.0755,44234.4546,55132.3146,-2177.1044,-2554.0441,23436.0248
53386.9565,25759.1754,52070.3942,39442.1518,34569.6956,36783.9485,5066.2905,49313.4409,44230.4313,55135.8461,-2180.0548,-2561.7331,23439.8693
53407.833,25762.2153,52073.6575,39451.4054,34590.3486,36791.0117,5072.8619,49328.0143,44244.2,55140.3165,-2167.2696,-2549.6185,23442.4174
53423.3451,25763.2434,52070.3048,39455.4734,34606.576,36788.4189,5068.1233,49342.4982,44244.7811,55138.7519,-2159.7147,-2546.8916,23437.9917
53426.072,25767.3562,52068.2037,39454.5346,34598.887,36788.4189,5065.0835,49335.6138,44244.8705,55141.8364,-2156.2278,-2547.6962,23437.7235
53413.0633,25757.6108,52063.0628,39444.2081,34578.1446,36785.5579,5060.8367,49314.0221,44240.6684,55136.0697,-2167.0908,-2554.5359,23436.1589
53404.5696,25751.5758,52062.0346,39437.8603,34569.5168,36786.9884,5058.7803,49302.7121,44232.6218,55130.7499,-2180.2336,-2559.3191,23435.2648
53416.3266,25766.2386,52067.5778,39448.5444,34594.8637,36798.1642,5062.4013,49331.1435,44245.4964,55139.6012,-2171.1141,-2551.0937,23438.0364
53421.6464,25770.2619,52061.8111,39454.6241,34611.4933,36799.863,5056.9028,49350.0978,44256.1805,55142.9093,-2164.1403,-2551.7195,23431.2862
53424.1945,25769.949,52058.9054,39456.7698,34602.8656,36794.8115,5057.5733,49355.2387,44252.4701,55143.1328,-2166.0626,-2553.4183,23431.5991
53408.9953,25764.1375,52058.2348,39450.2878,34579.0386,36788.106,5055.2934,49342.2747,44243.3953,55133.0745,-2179.1607,-2562.806,23427.2182
53390.8904,25755.6438,52057.4301,39441.3918,34561.4702,36776.6172,5049.1691,49332.0376,44228.5985,55122.6586,-2192.84,-2577.9158,23421.0044
53400.9933,25758.3261,52054.435,39443.8952,34579.9774,36781.0428,5044.8328,49335.0774,44230.7889,55124.5809,-2184.9722,-2576.1276,23421.0044
53422.8086,25766.1939,52049.6517,39452.7465,34606.8889,36790.3411,5043.4023,49354.7916,44241.6519,55126.6372,-2174.6904,-2565.667,23423.0161
53425.1779,25769.0102,52052.781,39452.6124,34602.5079,36794.3645,5044.8775,49361.676,44243.6188,55129.4088,-2171.6505,-2564.1024,23421.8091
53411.6775,25772.0053,52057.6984,39450.4666,34590.1698,36797.5831,5047.6491,49348.9355,44245.5411,55133.298,-2182.6923,-2568.3939,23419.5739
53399.4734,25768.429,52054.3903,39448.1421,34573.3613,36791.3246,5042.3294,49338.7431,44244.1553,55129.8559,-2194.4493,-2581.4921,23416.4
53410.4258,25773.0782,52051.6187,39451.6289,34587.6217,36794.3645,5038.4402,49357.8762,44253.2301,55132.404,-2185.6427,-2575.77,23416.9364
53431.794,25788.1433,52053.7645,39462.1342,34613.058,36802.7687,5040.4072,49379.8256,44266.9988,55135.9802,-2172.4105,-2564.1918,23420.0656
53439.483,25800.6603,52057.9219,39470.6279,34621.9987,36811.0389,5046.9786,49385.0559,44273.7043,55135.3097,-2165.8391,-2563.5213,23425.2065
53419.0536,25788.9479,52047.1036,39447.4268,34594.4166,36793.1575,5034.0593,49358.4126,44254.0348,55124.9385,-2188.772,-2581.0003,23415.0589
53411.1857,25784.8352,52049.7859,39437.2344,34578.3234,36792.0399,5036.1603,49349.159,44247.9551,55124.0444,-2197.1315,-2586.8118,23416.4894
53432.107,25793.3736,52054.2115,39447.7397,34596.2942,36804.8698,5042.5529,49374.3271,44256.5829,55136.6955,-2181.1724,-2573.0878,23427.3523
53449.4519,25802.5378,52055.6867,39461.6425,34615.159,36812.0223,5047.1574,49394.4436,44269.0104,55147.9161,-2165.3026,-2557.531,23431.018
53453.207,25813.9372,52055.1056,39463.2965,34613.2815,36814.8834,5046.1292,49401.0597,44269.6363,55147.6032,-2171.5164,-2560.9732,23427.7993
53443.7299,25809.5562,52054.1668,39458.6027,34594.6401,36814.7492,5046.5316,49393.2813,44263.2884,55149.883,-2181.3959,-2571.8808,23428.9169
53431.6599,25802.2696,52057.296,39454.8476,34575.6412,36808.759,5048.5432,49364.1794,44249.475,55146.3962,-2182.6029,-2573.4454,23430.0792
53429.693,25780.7672,52054.882,39449.3043,34584.1795,36800.8018,5041.4354,49349.3825,44242.6801,55146.575,-2177.6855,-2566.7399,23427.9335
53426.9661,25759.6225,52044.5108,39445.5492,34594.9531,36792.0846,5032.5394,49359.4408,44251.0396,55145.0104,-2168.2978,-2559.0062,23424.8936
53418.2489,25747.5525,52046.8354,39444.6552,34602.8209,36785.2896,5036.8756,49356.1774,44259.131,55152.8782,-2165.2579,-2559.2297,23425.8324
53404.0779,25738.5224,52051.3058,39445.3704,34588.7393,36777.1983,5043.5811,49334.4069,44252.6042,55154.9345,-2171.874,-2566.6058,23426.6371
53401.8427,25733.1133,52056.089,39444.1634,34580.3797,36773.5773,5046.2633,49316.0337,44252.3807,55149.9277,-2180.0548,-2573.4901,23428.0676
53423.0769,25742.501,52060.3806,39452.3889,34598.0823,36779.2547,5053.55,49336.2844,44266.507,55156.2756,-2168.8789,-2561.0179,23434.5496
53431.6152,25751.3523,52056.1337,39459.0497,34623.1163,36789.4918,5055.1146,49372.2707,44285.6848,55162.8023,-2155.1102,-2550.8255,23432.5826
53424.1945,25751.4864,52053.8092,39457.4404,34620.3893,36783.4568,5052.0748,49373.3883,44290.3787,55165.0375,-2162.7992,-2558.5145,23429.4534
53412.8845,25753.2299,52059.1289,39458.7368,34602.4632,36780.2829,5057.9309,49352.3777,44277.1912,55169.7761,-2169.5495,-2564.013,23436.2483
53406.9389,25748.1337,52058.3242,39448.0079,34582.1232,36778.0477,5051.8513,49333.781,44260.1591,55160.1201,-2183.5417,-2571.3891,23432.3144
53417.623,25754.7051,52059.9335,39446.0857,34592.8073,36778.7182,5050.0631,49335.748,44265.9706,55161.9083,-2174.3327,-2565.3988,23433.5661
53437.9631,25781.4825,52062.1687,39454.4452,34614.265,36784.8873,5052.6559,49351.573,44279.024,55168.5244,-2161.0558,-2557.7992,23439.3328
53441.1371,25795.7429,52058.503,39453.0594,34613.4156,36791.5034,5052.2983,49357.4739,44279.9628,55168.7479,-2160.6535,-2559.5427,23439.0199
53432.107,25802.1802,52057.3854,39445.3704,34590.4827,36789.9835,5051.136,49340.9336,44264.4507,55167.0492,-2171.7399,-2571.3891,23434.9519
53428.6201,25807.1423,52069.0978,39445.1469,34581.095,36793.1575,5054.7123,49323.7674,44255.3759,55166.7362,-2177.3279,-2577.3346,23435.086
53427.5472,25794.1335,52064.1804,39440.766,34587.0405,36786.4072,5046.7104,49322.3816,44253.2301,55161.5953,-2177.462,-2575.6806,23432.3591
53435.8621,25788.2327,52053.6751,39442.3753,34598.6634,36778.7182,5039.8707,49327.1202,44258.9074,55159.5837,-2169.2812,-2564.3706,23432.2697
53436.3091,25782.0189,52051.3058,39443.0459,34601.2115,36777.3771,5039.3343,49323.7227,44263.9142,55152.7441,-2172.2764,-2561.4649,23432.1803
53418.1595,25777.7274,52055.8655,39436.0274,34591.8238,36775.1867,5040.139,49309.4623,44258.818,55150.0171,-2178.2219,-2571.4338,23429.2299
53408.4588,25766.5515,52049.607,39427.6232,34571.1708,36775.9466,5034.2828,49297.7053,44245.0047,55139.4224,-2191.4989,-2587.3035,23421.4962
53425.7591,25783.0024,52054.6585,39437.8155,34587.9346,36791.7269,5042.4635,49317.4642,44257.8346,55151.3582,-2181.1277,-2575.0548,23429.4534
53445.4286,25789.5738,52059.1736,39451.763,34612.9686,36801.517,5047.1574,49340.3524,44267.0882,55163.9199,-2161.8158,-2561.2414,23438.9752
53442.1206,25780.2308,52060.7382,39450.9584,34605.0113,36799.2371,5044.207,49336.195,44265.3,55163.0259,-2161.6817,-2562.1355,23439.1093
53422.0487,25768.5632,52056.9384,39441.7942,34580.5585,36789.5365,5038.6637,49314.782,44256.9852,55156.9909,-2178.3561,-2576.53,23431.1521
53409.4423,25757.3873,52050.6799,39428.9196,34560.3526,36787.0331,5032.897,49303.1144,44253.9454,55146.6644,-2194.4493,-2586.7224,23424.8042
53430.2294,25760.4271,52055.5079,39440.1401,34578.7257,36796.0632,5034.551,49320.37,44259.3545,55150.7324,-2181.9323,-2574.6524,23430.0345
53452.8047,25772.7206,52061.5876,39452.7912,34601.5692,36809.2507,5042.7765,49333.6916,44272.6761,55160.2989,-2164.0509,-2558.1568,23436.6506
53457.4091,25777.8615,52067.8461,39451.1819,34603.4467,36816.4033,5046.4869,49338.8325,44279.0687,55163.9646,-2163.4698,-2554.8935,23438.8411
53442.1653,25771.0218,52067.2202,39442.0177,34579.0833,36810.1895,5042.9106,49322.6051,44262.6625,55161.5953,-2182.0664,-2567.0528,23434.2813
53428.2178,25760.0248,52063.1969,39428.0702,34553.3788,36798.7007,5035.1322,49305.439,44248.5809,55154.7557,-2195.5669,-2585.3813,23427.5758
53425.5356,25750.3688,52056.5361,39426.8185,34564.9123,36796.8678,5027.2644,49300.1193,44251.8443,55154.0405,-2192.7953,-2588.1529,23426.0112
53437.382,25755.9568,52060.3359,39441.6153,34584.9842,36796.9126,5029.5889,49319.9229,44262.7072,55155.7839,-2175.7632,-2572.9537,23429.7663
53429.6483,25758.2366,52060.0677,39439.3355,34585.3865,36794.8115,5033.0758,49324.885,44269.5022,55154.9345,-2175.495,-2570.0927,23429.4534
53412.1692,25750.3688,52056.8043,39431.7806,34569.1592,36789.5812,5034.0593,49317.8219,44259.1757,55149.6595,-2185.598,-2581.6709,23422.9267
53410.694,25760.5165,52062.0793,39434.4628,34564.4206,36793.0233,5039.5131,49323.1863,44257.6557,55158.332,-2187.3862,-2584.3978,23423.9548
53430.9894,25780.9013,52061.6323,39441.5706,34581.0503,36794.275,5039.6919,49344.8675,44270.2174,55170.2231,-2178.8925,-2578.5416,23428.3358
53447.4403,25797.0393,52058.3689,39450.0196,34602.7762,36795.035,5040.5413,49362.3018,44281.6615,55175.6769,-2169.1024,-2570.8526,23432.2697
53448.1108,25800.1238,52059.3077,39455.7416,34604.2514,36789.9388,5041.9718,49356.5798,44281.8403,55174.5147,-2171.3376,-2569.5115,23433.9684
53433.001,25796.6816,52058.5924,39447.0692,34581.4526,36782.2051,5039.0214,49338.9219,44273.8384,55164.814,-2187.1626,-2582.1626,23430.3921
53413.7785,25788.4562,52055.2844,39426.9526,34554.0941,36773.0409,5032.0923,49317.6877,44255.7335,55161.7295,-2199.2773,-2594.8584,23424.8936
53429.7377,25787.7856,52056.4914,39433.524,34565.2252,36780.3276,5032.897,49329.8024,44262.0814,55163.6964,-2185.9556,-2588.734,23422.9714
53443.3722,25788.5456,52055.7761,39446.8457,34585.6994,36789.0,5034.5957,49341.9617,44264.5401,55164.5011,-2175.8527,-2578.0946,23421.5856
53443.3275,25785.014,52051.6187,39439.7825,34585.163,36789.2236,5028.6055,49342.0511,44262.3049,55158.3767,-2180.4124,-2579.5698,23420.1103
53434.0292,25785.7293,52054.9268,39435.4016,34573.0484,36788.8659,5026.415,49326.3602,44252.2466,55157.7955,-2188.1461,-2589.5387,23418.0987
53434.208,25790.4679,52053.0045,39430.5289,34555.4352,36791.2352,5026.6385,49316.3466,44241.4284,55147.6926,-2196.3716,-2594.5455,23416.4447
53452.4024,25804.0577,52057.7878,39437.7261,34576.6246,36800.31,5034.1487,49340.3077,44260.8744,55166.1998,-2182.737,-2577.6476,23425.3407
53474.7094,25812.8196,52060.7382,39451.9866,34599.6916,36807.6414,5033.8805,49366.1463,44279.7393,55172.5924,-2166.1967,-2566.3823,23429.811
53479.5821,25815.9488,52068.3378,39463.0283,34605.0113,36806.2109,5041.793,49370.1249,44275.5818,55173.8441,-2165.2579,-2567.4999,23432.2697
53462.6395,25808.394,52067.3096,39453.9982,34584.5819,36799.6395,5041.1224,49351.8412,44260.3827,55165.3951,-2176.0762,-2578.5416,23427.5311
53440.9583,25806.1141,52065.9685,39444.5211,34566.3428,36793.381,5039.5578,49335.3903,44251.7102,55162.7576,-2187.6991,-2584.9342,23427.4417
53450.4354,25807.9022,52064.7615,39451.0031,34579.3962,36799.4606,5036.1603,49343.9734,44262.1708,55162.8917,-2182.4241,-2581.9391,23428.604
53462.8183,25811.1656,52068.2931,39459.452,34599.1999,36797.1808,5037.0991,49366.1016,44271.6926,55168.3009,-2169.5942,-2570.942,23435.2648
53462.2371,25813.8031,52069.0978,39460.1673,34602.7315,36794.4092,5038.7532,49369.5438,44270.575,55166.2445,-2165.9732,-2572.5514,23436.5165
53446.0992,25806.0694,52069.366,39453.7747,34586.9064,36793.7386,5040.0496,49349.606,44259.3098,55156.0968,-2177.0149,-2584.8001,23434.5049
53425.4909,25794.9382,52069.0531,39445.8622,34563.6606,36785.8708,5038.3508,49324.438,44246.9716,55154.3087,-2191.4542,-2593.9643,23432.672
53433.8504,25793.6418,52066.6391,39450.4219,34572.6907,36786.9437,5039.6025,49329.713,44252.336,55155.9627,-2184.3463,-2586.4989,23432.6273
53453.1176,25794.4912,52064.7615,39458.9603,34591.9132,36791.3246,5040.2731,49348.1755,44273.8384,55163.0259,-2166.7331,-2569.0645,23436.8294
53452.8047,25793.6418,52067.8908,39464.8612,34602.2397,36795.482,5043.2682,49350.5448,44271.782,55168.1668,-2162.4863,-2565.2647,23439.1987
53433.8057,25782.5106,52060.47,39456.2334,34582.302,36787.8824,5037.7697,49325.1085,44255.1523,55159.7178,-2177.5961,-2580.8662,23431.9568
53422.1381,25774.2852,52056.4914,39449.7514,34567.0581,36790.1176,5036.3392,49308.1212,44245.8987,55150.6877,-2189.979,-2590.0304,23429.5428
53442.5229,25777.325,52056.0443,39451.9866,34578.6363,36793.3363,5039.2896,49323.5439,44251.442,55155.158,-2184.1675,-2579.7933,23431.018
53461.0748,25787.9198,52059.3971,39469.4209,34603.8043,36805.7191,5043.4023,49345.2251,44266.0153,55164.9481,-2166.912,-2567.4999,23438.6176
53458.6161,25785.1928,52060.8723,39475.143,34610.1522,36813.0058,5046.5763,49359.8878,44271.335,55164.5458,-2162.3969,-2568.3492,23441.2998
53446.5909,25773.4805,52061.4982,39468.3033,34592.8967,36809.1613,5043.9388,49341.4253,44265.1212,55163.8305,-2174.1092,-2577.5582,23437.6341
53440.2877,25769.4572,52063.9569,39466.6493,34583.7772,36807.1049,5044.5199,49331.2776,44262.0814,55162.4,-2181.1724,-2583.7719,23439.7799
53441.7182,25770.6195,52064.985,39468.8398,34596.0259,36808.1778,5044.7434,49348.399,44272.0503,55167.7644,-2175.5397,-2576.7535,23443.535
53450.3013,25773.6146,52064.7615,39477.7805,34608.0065,36807.2391,5044.8328,49368.3368,44284.1202,55177.018,-2163.5145,-2570.2268,23442.6856
53446.0992,25770.2619,52059.263,39473.4889,34604.609,36802.6346,5038.8426,49370.1249,44282.9579,55171.0725,-2163.9615,-2571.9255,23440.5398
53438.2761,25775.4028,52058.503,39462.7601,34585.61,36801.07,5039.4237,49344.1075,44274.509,55166.2445,-2175.7632,-2582.3414,23437.2765
53431.1682,25778.4426,52056.4914,39449.9749,34562.9007,36798.8348,5035.758,49324.3486,44256.717,55157.3485,-2193.1529,-2597.5853,23428.3805
53440.6453,25781.3036,52056.7149,39455.1605,34576.9376,36799.863,5036.0709,49337.3126,44259.8462,55157.9744,-2186.7156,-2595.0819,23425.3854
53458.1691,25790.289,52057.6984,39465.934,34596.8306,36806.6132,5039.7366,49374.5953,44273.5702,55166.1551,-2169.773,-2583.6825,23429.4981
53455.4422,25792.8371,52058.5924,39464.3694,34595.4001,36805.2274,5041.7036,49375.5341,44278.5323,55163.2941,-2169.5942,-2580.9109,23430.5263
53438.9019,25786.0422,52056.3573,39450.7349,34578.7704,36797.449,5036.6968,49351.1707,44267.3117,55156.5439,-2191.7224,-2593.4279,23420.5574
53418.383,25779.3814,52056.5808,39438.8437,34561.1125,36783.725,5028.4266,49336.2844,44257.7004,55151.85,-2205.6252,-2608.0459,23411.8402
53429.8718,25791.9431,52058.1454,39453.5512,34581.8549,36792.2187,5031.8688,49350.5448,44270.9774,55162.8917,-2188.7273,-2594.5902,23421.7197
53445.6074,25793.3289,52056.402,39463.6542,34600.094,36796.2867,5033.4334,49364.537,44288.8141,55165.574,-2173.3493,-2582.3861,23431.5991
53444.1769,25792.1666,52057.3854,39470.6279,34606.0395,36796.3761,5036.6521,49357.0715,44280.3651,55165.0375,-2174.601,-2584.1296,23432.5826
53428.8883,25780.3649,52057.1172,39460.7037,34582.4361,36789.8047,5034.551,49334.228,44271.6032,55158.2873,-2189.219,-2595.0819,23431.2415
53414.9855,25767.8926,52056.4467,39446.7562,34560.9784,36783.1886,5032.897,49317.5983,44269.1445,55153.5487,-2199.0091,-2603.7097,23430.5263
53422.0487,25770.8877,52055.7314,39448.1421,34568.2651,36785.5132,5032.1817,49331.5905,44277.1912,55159.7625,-2193.3764,-2596.4677,23430.571
53435.0127,25778.9344,52052.781,39459.005,34581.4079,36790.6541,5033.5675,49349.2484,44288.4564,55166.0657,-2179.7866,-2583.8166,23433.8343
53435.1915,25780.8119,52050.1882,39459.5414,34582.8831,36791.1011,5033.657,49353.8082,44285.1484,55165.5293,-2183.3628,-2582.0732,23432.225
53423.5239,25778.4873,52049.2941,39448.6785,34565.0017,36786.586,5028.6055,49341.6041,44271.4244,55159.4496,-2198.0256,-2596.9148,23428.4699
53412.4821,25771.8712,52044.8685,39439.1119,34547.8803,36782.0263,5025.1633,49322.2475,44266.8647,55149.5254,-2208.8438,-2605.7214,23424.7595
53424.6415,25772.3629,52047.0589,39447.7397,34562.4536,36787.7483,5027.3538,49330.2047,44268.0717,55147.2455,-2198.9197,-2595.976,23423.1949
53443.3722,25772.9441,52048.6683,39455.2946,34581.4526,36793.9174,5026.8173,49342.3641,44278.8452,55152.2076,-2185.1957,-2585.6048,23424.8042
53443.5511,25771.9606,52050.0094,39455.1158,34580.2903,36792.4422,5027.9796,49338.5643,44279.5157,55154.3087,-2186.9838,-2586.1859,23425.3854
53422.8534,25760.2036,52044.0638,39442.4647,34565.1358,36786.6307,5023.1516,49313.6644,44267.3564,55141.9258,-2204.6864,-2603.7097,23416.6235
53412.348,25757.1191,52048.0871,39434.6863,34543.9017,36779.7464,5018.5472,49296.1854,44269.2339,55139.9142,-2217.2034,-2610.9964,23413.8966
53420.3947,25754.258,52039.0123,39435.1333,34543.4994,36769.9116,5007.3713,49301.4157,44267.0882,55139.1095,-2219.975,-2610.6834,23409.5603
53443.0593,25761.0977,52035.7937,39447.2033,34561.7384,36773.1303,5006.5666,49314.335,44266.4623,55141.6576,-2203.7923,-2603.4415,23412.4213
53444.9816,25758.5049,52032.3515,39448.5891,34559.3244,36777.7795,5010.3217,49314.9161,44265.2106,55142.3728,-2197.8915,-2603.0391,23416.9364
53432.9563,25749.1618,52033.2009,39436.4744,34544.751,36772.9962,5009.2936,49292.475,44257.164,55131.7334,-2206.3851,-2613.2315,23414.5224
53416.7737,25740.1764,52032.3068,39423.0187,34536.168,36767.6318,5005.4044,49279.0639,44250.5926,55133.1192,-2222.0761,-2619.803,23415.0589
53422.1381,25734.5885,52027.3,39429.7689,34547.1203,36770.8951,5005.1808,49287.2,44256.5829,55137.6343,-2214.4765,-2611.0858,23416.9364
53428.3966,25731.1016,52023.5002,39439.2461,34557.0892,36768.9729,5003.0351,49301.4157,44259.5333,55140.54,-2201.1548,-2603.1733,23418.054
53423.7474,25724.3067,52022.1144,39445.6387,34554.4964,36766.6483,5007.0137,49309.9988,44253.1407,55133.8792,-2200.3502,-2599.8205,23419.8421
53403.9885,25717.4224,52026.54,39443.9399,34540.2807,36765.5307,5007.9525,49301.1475,44248.3574,55130.0347,-2209.5144,-2607.1966,23418.2775
53391.695,25712.3262,52028.9987,39433.0323,34526.065,36762.4909,5005.8961,49289.7481,44243.5294,55127.3972,-2218.4104,-2613.7233,23415.1036
53402.2897,25714.0249,52028.954,39434.9545,34537.9561,36765.1284,5009.07,49301.2369,44255.1523,55131.1523,-2205.8934,-2603.9332,23413.4495
53405.2849,25717.8247,52026.54,39444.1634,34555.8822,36766.7377,5011.7522,49322.5604,44269.4575,55135.6226,-2197.355,-2595.4843,23414.4777
53418.6959,25724.4408,52030.4292,39448.902,34561.4254,36764.5472,5012.2887,49331.367,44270.7092,55137.5449,-2197.355,-2596.3783,23412.1531
53399.8758,25720.5516,52030.4739,39435.6698,34537.1515,36758.7358,5008.7124,49307.0036,44252.5148,55135.0862,-2212.1072,-2609.2976,23409.8285
53386.5094,25712.8179,52023.4108,39426.1479,34519.583,36756.4112,5002.588,49279.6898,44245.1388,55128.6042,-2222.0314,-2616.0032,23407.3251
53399.6969,25709.9122,52020.7286,39424.9856,34533.4411,36763.6979,5001.1575,49288.9881,44251.3973,55126.369,-2212.6883,-2609.6106,23408.2192
53414.6726,25718.0929,52021.1309,39434.8651,34555.9716,36767.1847,5003.5715,49305.5284,44257.2534,55128.5148,-2198.7408,-2601.7874,23414.0307
53411.0069,25716.7071,52020.4604,39439.559,34554.0047,36762.8485,5001.9622,49304.5449,44253.9454,55129.5877,-2200.4396,-2606.9283,23412.5108
53393.5279,25709.644,52017.644,39429.903,34529.9989,36761.1051,4996.9107,49284.4284,44236.6451,55119.0376,-2209.5591,-2615.0197,23410.812
53378.8204,25697.1717,52014.0231,39419.0401,34512.6987,36755.2936,4991.4122,49264.6247,44225.648,55115.3719,-2220.3326,-2622.3063,23408.8898
53390.1304,25701.642,52015.4536,39426.8632,34534.9163,36758.4676,4993.1109,49282.819,44235.751,55117.4283,-2210.4084,-2610.9517,23412.6896
53399.2052,25708.0346,52011.3409,39437.1003,34551.546,36759.6298,4994.005,49300.5216,44243.2612,55115.059,-2198.9644,-2602.9497,23412.779
53398.5347,25705.3524,52005.7082,39430.1713,34548.9979,36750.7786,4987.3888,49297.7053,44236.8239,55111.9745,-2203.7923,-2610.7728,23408.5768
53380.8768,25694.0424,51997.3487,39409.7865,34527.0932,36741.8826,4977.867,49270.0785,44217.2885,55099.5469,-2222.1655,-2630.3977,23396.7751
53372.8302,25688.0075,51999.8074,39400.8905,34509.7035,36745.4141,4977.0623,49251.9736,44202.8493,55093.646,-2231.285,-2636.2091,23394.8976
53384.9001,25688.4992,52002.1319,39407.0596,34519.6277,36754.1313,4977.6882,49265.6529,44220.4177,55096.82,-2217.9186,-2623.6027,23403.3018
53412.0798,25698.0658,52003.7413,39425.0751,34543.3205,36763.9214,4982.1585,49290.061,44234.4993,55105.1348,-2198.9197,-2609.8788,23408.9345
53410.0682,25699.0492,51999.4497,39419.8,34540.7277,36759.8534,4977.1965,49282.1932,44227.5256,55095.9706,-2203.5241,-2616.3161,23399.7703
53386.6435,25688.6333,51995.0688,39403.8409,34516.7667,36755.6065,4972.0109,49251.8842,44212.2817,55082.4702,-2222.389,-2631.3365,23390.8743
53376.0935,25685.4594,52000.8355,39399.46,34502.551,36755.1148,4973.5755,49236.1039,44206.6491,55084.303,-2229.8992,-2637.9079,23393.1094
53382.9331,25687.8734,51998.9133,39404.6009,34514.4868,36755.5171,4973.5308,49243.8823,44212.997,55094.3166,-2217.6951,-2633.5269,23394.5847
53390.488,25689.0357,51990.2408,39410.01,34533.6199,36751.9855,4971.8767,49259.4391,44217.2438,55096.5518,-2206.5192,-2624.9439,23395.7916
53390.8457,25693.506,51991.2243,39410.01,34537.1515,36750.7786,4970.5803,49259.2603,44210.3595,55098.2058,-2212.4648,-2625.6591,23396.2834
53369.2092,25688.7674,51987.7374,39396.1072,34516.9902,36740.8097,4964.2771,49235.2098,44182.1963,55088.1922,-2228.2451,-2640.0536,23391.6789
53340.7778,25679.8714,51982.373,39378.0917,34498.7512,36730.3044,4959.3598,49201.2352,44166.1924,55075.9882,-2241.9691,-2658.0691,23383.9899
53354.9488,25690.8238,51988.4974,39386.7195,34517.6607,36737.4569,4968.7028,49216.8814,44178.0835,55082.4255,-2227.8875,-2639.1149,23394.2717
53370.5056,25696.8141,51991.4031,39402.5892,34539.3419,36743.7154,4974.7378,49230.7395,44183.4033,55093.8249,-2212.3754,-2624.4521,23399.6809
53365.8564,25699.1833,51988.9891,39406.4784,34536.2127,36743.626,4981.1304,49226.7609,44178.8882,55094.406,-2210.2296,-2624.6309,23399.4126
53351.0596,25702.8937,51989.7938,39398.1636,34523.1146,36733.8359,4983.7232,49208.2089,44169.5005,55096.6859,-2218.0527,-2634.1975,23397.0881
53340.9566,25710.9851,51994.3982,39389.357,34507.2001,36729.4103,4985.8242,49184.5161,44162.2585,55091.7238,-2227.7981,-2642.0653,23396.3728
53353.3394,25720.5963,51997.6169,39394.1849,34520.1194,36735.4453,4989.7134,49185.0972,44167.1759,55086.2253,-2219.2597,-2633.974,23399.4573
53374.2607,25728.4194,52000.7014,39403.3939,34547.8803,36739.6921,4995.9272,49205.929,44172.9873,55092.4838,-2203.2559,-2617.389,23404.9559
53368.5386,25727.883,52002.6237,39404.9138,34545.3769,36740.4968,4997.8495,49203.7386,44167.9806,55095.0766,-2199.7243,-2615.869,23402.229
53350.7019,25726.676,52004.1436,39391.5474,34525.3497,36733.97,4996.7766,49180.3586,44150.3227,55089.578,-2215.0129,-2628.7436,23395.6575
53332.1053,25729.2241,52005.3953,39385.4231,34508.8542,36728.695,4996.7319,49155.1012,44141.6949,55085.6441,-2227.0828,-2637.9079,23393.02
53361.3861,25747.1502,52008.1669,39400.5775,34528.5237,36743.4025,5008.0419,49166.6347,44158.6822,55091.5897,-2205.8487,-2622.3511,23399.4126
53375.0653,25758.1919,52008.6586,39405.2714,34545.4216,36745.1906,5009.1594,49180.7163,44166.9971,55094.2719,-2193.8682,-2613.6339,23401.3796
53368.0469,25760.7847,52012.1902,39404.7797,34545.4216,36744.6989,5011.8864,49174.8601,44163.4208,55094.1825,-2196.1927,-2613.5445,23401.469
53355.3064,25761.3659,52014.0231,39401.561,34531.2506,36741.3908,5013.7639,49164.2654,44155.0165,55092.1708,-2202.8089,-2623.7369,23403.3018
53343.907,25759.3542,52012.9949,39389.804,34512.3857,36732.4948,5010.277,49157.1575,44145.6735,55086.5382,-2216.3987,-2635.9856,23399.7703
53364.2024,25767.2668,52015.2301,39398.7447,34529.3283,36739.9603,5013.2275,49166.7241,44159.8445,55092.0367,-2206.9663,-2624.318,23404.1959
53389.9516,25773.0782,52021.0415,39413.4074,34553.2894,36753.0137,5017.9213,49190.2828,44179.067,55101.4692,-2187.8779,-2607.733,23411.2144
53386.5541,25768.429,52021.3991,39414.525,34553.0212,36750.4656,5014.7921,49187.1089,44178.9329,55099.234,-2187.2073,-2610.9517,23410.5438
53363.1295,25760.9636,52016.6606,39402.7233,34529.4178,36744.073,5010.0535,49153.626,44155.3295,55088.1475,-2204.9546,-2625.6591,23404.2406
53345.8292,25755.5097,52017.0629,39395.4813,34516.409,36746.6211,5008.176,49129.0838,44146.6123,55082.4702,-2210.5873,-2633.5716,23402.8995
53361.1625,25766.2833,52017.8229,39400.9799,34531.0718,36753.6396,5013.0039,49150.6308,44156.8047,55086.27,-2202.7194,-2624.1839,23405.0006
53379.7592,25780.1861,52019.3875,39415.4191,34556.5081,36757.797,5017.3402,49170.8368,44167.9806,55093.1096,-2187.1626,-2608.9847,23410.2756
53379.8933,25779.2026,52021.8462,39414.7933,34556.821,36755.7406,5015.1497,49162.7902,44169.1428,55097.4458,-2186.4921,-2608.2695,23411.572
53367.2422,25770.843,52027.1212,39403.2598,34534.1116,36754.4442,5017.4296,49142.7183,44162.3926,55090.9191,-2201.423,-2621.5017,23410.365
53357.9886,25761.6788,52026.1824,39397.046,34517.8396,36750.0186,5015.2391,49124.5687,44151.5744,55082.202,-2210.6767,-2632.5434,23404.4641
53367.9575,25764.5845,52026.3165,39407.1043,34531.8317,36751.4044,5013.8533,49134.7611,44159.6657,55084.9289,-2200.0819,-2621.904,23407.7722
53383.9613,25771.3348,52028.1941,39420.6941,34558.6091,36754.8913,5016.5355,49159.2586,44172.138,55094.2272,-2180.2336,-2603.0391,23415.4165
53385.4812,25770.2619,52029.4458,39415.1509,34559.235,36755.9642,5015.4179,49154.2071,44173.4344,55093.8249,-2180.5912,-2603.3074,23415.8188
53370.6397,25762.7964,52027.9706,39400.5328,34539.2078,36744.7436,5009.1594,49130.6484,44162.8397,55085.4653,-2197.668,-2620.7417,23410.6779
53377.2558,25759.3989,52028.1047,39402.3657,34527.5402,36744.0283,5010.9923,49123.3617,44140.7561,55077.6422,-2208.4862,-2633.3928,23408.1298
53389.7281,25757.5661,52030.921,39408.3112,34542.1582,36744.8777,5012.5122,49139.7232,44157.8776,55086.1806,-2202.1383,-2623.0663,23414.0307
53400.1887,25756.9849,52032.0833,39408.9371,34562.2301,36745.4588,5010.2323,49153.4024,44170.7075,55088.4604,-2192.7953,-2612.0245,23415.4165
53396.3442,25763.1093,52034.3632,39417.8331,34566.7005,36753.4608,5015.0156,49150.8543,44174.6861,55093.5119,-2185.9556,-2607.7777,23418.7692
53383.2014,25756.1803,52028.954,39408.2665,34544.6169,36742.419,5008.4889,49127.5191,44158.9504,55086.4488,-2203.6135,-2624.1839,23411.9296
53370.595,25753.811,52028.3729,39398.3424,34528.926,36740.1838,5002.9457,49118.5784,44149.6521,55081.3973,-2219.5727,-2636.7009,23405.537
53385.3471,25760.5612,52031.4574,39401.8739,34545.9133,36745.1906,5006.2537,49148.2615,44166.0583,55087.2087,-2207.4133,-2624.8991,23407.0569
53406.8495,25764.0034,52029.8481,39411.7534,34567.1028,36744.5648,5007.3266,49164.2654,44174.999,55088.5499,-2191.9906,-2613.1868,23407.7275
53408.28,25758.8625,52029.8928,39414.8827,34569.025,36744.4307,5010.4558,49164.2654,44178.7094,55092.0814,-2191.0518,-2615.422,23408.5768
53392.7679,25750.9947,52035.3466,39406.7019,34551.9036,36739.9603,5011.4393,49144.8641,44169.4111,55086.8064,-2198.3385,-2627.8943,23408.3533
53373.0984,25743.2163,52034.1843,39389.7146,34535.7656,36733.2101,5008.176,49123.8981,44158.6375,55081.6208,-2211.2131,-2640.0089,23401.8713
53392.1421,25746.2561,52034.2737,39395.7943,34547.478,36739.3792,5006.8349,49132.4365,44164.3596,55086.1359,-2204.2394,-2632.0964,23405.3135
53411.8563,25758.3261,52037.9394,39403.0362,34564.4653,36747.2917,5008.9359,49142.8971,44177.8153,55092.3944,-2191.6777,-2614.975,23412.466
53413.868,25764.0034,52041.6945,39404.9138,34558.2515,36749.661,5014.1662,49153.8495,44182.8668,55094.5401,-2191.9906,-2611.1752,23413.4942
53402.0215,25759.5778,52041.0687,39401.8739,34538.4926,36745.7271,5013.5404,49143.7018,44166.9524,55089.0416,-2204.9993,-2625.9273,23408.711
53393.3043,25758.4602,52037.5371,39397.6718,34531.6976,36745.593,5011.8864,49135.074,44160.4704,55090.2933,-2211.7496,-2632.6776,23409.4262
53402.4239,25759.533,52033.5585,39402.321,34544.2593,36748.0069,5015.1944,49148.4851,44174.5967,55094.8977,-2200.4396,-2622.4405,23411.572
53423.4345,25770.6195,52038.2971,39420.6047,34573.7189,36754.7572,5021.8105,49175.5754,44191.9863,55104.0173,-2182.2453,-2607.3307,23416.9364
53423.658,25772.8994,52039.5041,39424.9856,34567.818,36754.176,5023.8669,49178.7046,44197.619,55106.6995,-2182.3794,-2610.0576,23417.5175
53409.4423,25763.6458,52037.9394,39410.7252,34549.3108,36749.8845,5019.3071,49168.4675,44190.9134,55098.1164,-2199.5008,-2621.8593,23409.5603
53395.0925,25757.3426,52034.989,39397.6271,34530.8483,36749.0351,5013.7639,49149.2897,44175.6248,55092.9755,-2216.6222,-2633.7057,23403.8383
53415.4326,25758.9966,52037.2689,39409.4288,34544.3487,36756.143,5015.552,49163.1031,44181.3916,55093.5566,-2203.3453,-2625.4356,23408.3086
53437.2479,25763.5564,52037.4477,39421.0517,34563.5265,36763.1614,5013.451,49189.8805,44187.516,55099.4575,-2191.3201,-2616.5396,23409.2474
53440.7347,25759.6225,52033.335,39420.7835,34559.9949,36761.5074,5007.1925,49191.8921,44184.342,55093.646,-2199.5902,-2620.4735,23406.8334
53416.2372,25755.7333,52030.161,39408.2665,34535.1845,36757.797,5006.0302,49178.6599,44177.5024,55088.1922,-2214.0294,-2627.7602,23402.0948
53400.6357,25752.3805,52030.8316,39394.6767,34519.6277,36754.7125,5001.8728,49169.6298,44171.3333,55090.9191,-2227.5746,-2638.1314,23399.9938
53419.59,25756.225,52033.6479,39402.2763,34538.4926,36761.9544,5004.108,49181.3421,44182.5092,55094.7189,-2215.1023,-2630.1295,23402.6313
53432.6881,25763.0199,52033.8267,39415.2403,34556.821,36769.107,5006.4772,49203.0233,44195.8308,55102.9891,-2199.5455,-2614.0809,23410.4097
53423.7027,25756.1803,52030.5634,39408.2665,34551.3672,36766.0224,4999.1906,49197.793,44194.1321,55102.542,-2204.8205,-2618.3277,23403.7936
53399.3393,25746.2114,52026.3165,39391.771,34521.5499,36749.5716,4991.4122,49187.1089,44183.6268,55093.2884,-2223.5066,-2638.9807,23394.4952
53388.7446,25739.5506,52021.6227,39381.5339,34509.6141,36739.9603,4987.523,49173.6531,44168.8746,55085.3759,-2235.9341,-2652.0342,23391.4554
53404.0779,25745.4515,52016.9288,39389.357,34539.2078,36747.2023,4991.2333,49181.1633,44179.7376,55095.3895,-2218.4998,-2639.7854,23398.9656
53417.3548,25741.1152,52012.1008,39397.1801,34551.6354,36746.3529,4991.9933,49196.7648,44186.2196,55098.7422,-2205.5358,-2631.1129,23400.1726
53411.1857,25731.0569,52009.9998,39396.0178,34545.1981,36737.6804,4991.5463,49189.5229,44181.5257,55097.3117,-2209.2909,-2632.9011,23397.2222
53387.8952,25720.1046,52007.7199,39383.1879,34522.5334,36728.5162,4987.523,49171.865,44169.1428,55089.0416,-2231.4191,-2648.2791,23391.9024
53372.4278,25725.5584,52010.8491,39375.633,34514.2633,36726.7281,4989.8028,49164.9806,44164.2255,55089.6227,-2238.9293,-2654.4482,23393.9588
53377.9263,25730.9228,52009.6421,39376.6612,34525.4391,36729.4103,4988.1041,49171.1497,44181.1234,55098.2058,-2226.5017,-2642.0653,23395.2552
53399.5628,25738.0754,52009.8656,39383.5902,34545.3769,36735.8476,4993.1109,49193.4121,44194.5791,55103.6596,-2212.6436,-2627.0002,23397.6245
53397.6853,25736.8237,52009.9998,39380.6845,34548.3273,36734.8641,4999.1012,49199.2682,44190.9581,55101.7374,-2217.0693,-2629.0566,23395.2999
53381.7708,25732.711,52010.1786,39375.5436,34535.0504,36735.2217,4999.1459,49189.5229,44183.7609,55101.7821,-2228.871,-2638.8019,23394.4058
53377.9711,25733.7391,52011.2962,39374.2919,34524.1874,36733.2101,4998.6988,49170.8815,44184.2079,55100.1728,-2235.2189,-2642.9147,23395.5234
53390.0857,25735.8402,52013.6207,39377.6894,34538.3137,36735.0429,4999.5482,49176.9165,44199.6306,55105.5819,-2227.8428,-2632.4093,23396.9539
53403.1838,25738.6118,52012.5479,39382.7856,34549.4896,36732.5395,5000.1293,49200.3411,44207.7219,55110.544,-2217.1587,-2624.0051,23399.9044
53399.2499,25746.0326,52014.0231,39385.4678,34552.3506,36734.6406,5003.6162,49203.068,44202.7599,55114.2097,-2215.4599,-2627.4025,23399.1444
53385.1236,25740.3105,52020.9968,39382.2938,34539.9678,36730.8408,5005.0914,49189.5229,44190.1088,55112.8685,-2229.318,-2644.0322,23393.7353
53375.3335,25736.2425,52024.9307,39375.8565,34524.3663,36728.7844,5004.2421,49175.7095,44189.6617,55114.8802,-2232.6708,-2646.4462,23397.0881
53385.5706,25738.433,52022.3826,39381.5339,34544.2146,36734.4618,5000.5764,49183.8455,44196.5014,55116.3107,-2226.7699,-2637.5502,23402.4078
53395.6736,25738.4777,52019.9239,39386.2724,34558.6538,36735.937,4998.6988,49204.2303,44203.5198,55113.9861,-2214.7894,-2630.0848,23403.5254
53384.2742,25731.2357,52009.9998,39374.7389,34541.6665,36724.9399,4994.2732,49202.8892,44198.4236,55109.7393,-2220.0197,-2638.1314,23396.7304
53375.6912,25730.6099,52007.094,39369.598,34517.0349,36718.2791,4990.7416,49183.2644,44174.5967,55104.1514,-2235.5765,-2654.1352,23387.1639
53370.4162,25729.8052,52007.6305,39364.3677,34503.5344,36714.3452,4989.5346,49159.9292,44168.517,55102.1844,-2245.6795,-2659.6785,23383.9005
53383.6931,25732.2639,52009.0163,39366.7817,34519.7171,36724.8505,4995.1226,49182.1021,44178.9329,55107.9512,-2230.5697,-2647.2509,23389.5332
53397.8194,25733.1133,52011.2514,39375.7671,34537.8667,36733.1207,4995.0778,49190.551,44183.9397,55110.544,-2217.0693,-2638.936,23392.573
53397.2383,25729.8499,52010.6256,39378.7622,34535.2739,36734.283,4992.3062,49186.483,44185.2808,55107.5041,-2220.735,-2640.9924,23389.7567
53375.6912,25718.1823,52007.6752,39364.8148,34515.6044,36721.6319,4987.523,49159.2139,44176.0272,55097.2223,-2239.6445,-2658.2479,23381.263
53367.8681,25716.2154,52011.2962,39362.5349,34508.4518,36719.8884,4985.9136,49144.73,44165.8795,55087.8793,-2248.2276,-2669.9603,23378.6702
53380.698,25719.2552,52014.336,39376.1694,34521.2817,36731.109,4988.8194,49163.729,44178.7988,55104.3302,-2233.1178,-2657.4433,23385.1969
53404.5249,25722.5633,52014.2913,39387.9712,34542.0688,36734.5512,4991.5463,49188.0476,44189.5276,55114.8802,-2218.321,-2640.903,23390.606
53402.4686,25732.6663,52014.0231,39391.5921,34548.0144,36738.3957,4995.8825,49187.4665,44193.4615,55116.8472,-2213.5824,-2635.3151,23396.3281
53389.594,25728.8665,52016.4818,39386.3618,34527.0932,36738.3957,5000.2187,49163.3713,44182.8221,55112.0192,-2218.768,-2640.8136,23399.1444
53380.2062,25721.1775,52013.576,39376.3483,34513.4586,36732.8972,5001.0234,49145.7582,44174.6414,55100.7539,-2232.3579,-2648.2791,23397.0881
53387.8058,25726.4525,52012.3243,39379.8798,34524.1427,36735.4453,5002.6327,49162.0749,44187.7842,55104.0173,-2221.7184,-2643.2276,23397.9374
53400.4569,25733.605,52013.3078,39385.9148,34540.0572,36739.2451,5001.8281,49191.3557,44195.6073,55108.1747,-2211.2578,-2635.0915,23397.848
53397.3277,25729.4923,52012.4584,39379.7457,34537.4197,36732.0925,4998.5647,49185.9466,44194.2662,55103.2126,-2214.8788,-2637.2373,23394.4505
53379.6698,25720.9986,52011.6985,39369.1957,34520.79,36725.2976,4992.2168,49164.176,44178.0388,55097.0882,-2232.3579,-2652.4812,23387.6109
53369.4327,25714.159,52009.5527,39363.9207,34503.6238,36722.1683,4988.73,49146.0264,44164.3149,55092.9308,-2241.2091,-2658.5609,23386.6721
53384.0507,25713.5332,52007.0046,39366.9158,34517.1243,36725.5211,4987.7465,49163.5501,44174.6861,55098.9211,-2226.5017,-2648.592,23389.2649
53398.8476,25715.0978,52009.955,39377.2423,34539.7443,36733.4336,4988.5958,49192.0263,44185.1914,55105.6713,-2212.2413,-2635.8962,23391.5001
53408.7718,25722.3397,52012.9949,39384.4843,34541.2642,36735.4453,4991.9039,49199.3129,44184.6102,55109.4264,-2215.0129,-2637.1479,23392.3495
53388.834,25716.4836,52012.682,39371.8332,34513.5033,36723.5988,4985.6901,49174.9495,44170.0816,55102.3185,-2232.5367,-2653.0623,23382.9618
53367.0634,25711.0745,52007.7646,39365.3959,34498.5276,36714.5687,4983.2314,49152.5531,44165.343,55096.2836,-2243.5337,-2663.7018,23376.4797
53386.0624,25719.9258,52007.9881,39371.2968,34514.9338,36719.6202,4984.9749,49164.5336,44177.9047,55100.8433,-2234.4142,-2657.8903,23379.5196
53404.972,25717.6012,52005.3059,39378.2258,34532.8152,36723.1518,4982.8291,49188.1818,44183.8056,55103.5702,-2220.9138,-2649.2178,23378.849
53404.972,25719.2105,52007.2728,39377.6447,34535.408,36725.0293,4984.8408,49189.9699,44185.2361,55105.9395,-2222.7019,-2650.0225,23379.6537
53388.2976,25717.1094,52010.6256,39368.704,34512.7881,36721.4978,4983.9914,49169.4063,44171.2886,55101.648,-2236.1577,-2661.8242,23376.5244
53375.5571,25708.7499,52008.9716,39361.9984,34495.4431,36718.145,4981.8456,49152.0613,44164.9854,55093.8696,-2249.3452,-2670.9884,23375.5857
53384.0507,25716.5283,52007.9434,39369.2851,34511.9834,36723.8224,4982.4715,49163.1478,44178.62,55098.6528,-2233.8778,-2656.8174,23381.0842
53395.0031,25724.3067,52006.8705,39374.6048,34526.4673,36727.4433,4984.5725,49176.7824,44187.7842,55096.4177,-2221.7184,-2645.731,23380.7713
53400.4569,25724.1279,52008.6139,39372.1014,34525.0815,36723.9565,4982.7844,49180.001,44187.4266,55101.335,-2224.2665,-2651.8553,23380.1007
53385.3024,25720.194,52014.3807,39364.5465,34506.3955,36718.905,4980.7727,49175.7095,44181.7492,55106.0289,-2235.7106,-2662.6736,23380.1007
53374.2607,25716.7071,52013.5313,39354.7565,34488.9611,36713.5406,4978.0011,49160.6444,44174.1049,55099.3234,-2247.3782,-2673.1342,23372.2329
53389.1916,25721.6245,52014.5595,39368.2569,34508.0942,36720.6037,4982.9185,49185.4995,44179.9611,55104.0173,-2236.56,-2661.4666,23377.7761
53400.2334,25724.3514,52013.5313,39377.1082,34526.6908,36726.6387,4987.2547,49207.4937,44196.0543,55113.0921,-2220.4667,-2646.3121,23386.7168
53386.8223,25715.1425,52010.0892,39374.9624,34526.1991,36724.9399,4984.796,49200.1176,44195.7861,55111.0804,-2222.5231,-2644.0769,23383.0065
53359.1509,25695.0706,51997.3487,39361.5514,34503.7133,36715.8651,4973.0837,49170.7474,44179.3799,55100.2622,-2240.4492,-2663.4783,23372.0988
53338.6767,25683.4477,51994.5771,39347.4251,34483.4626,36709.4725,4967.1382,49162.0302,44172.4956,55098.2952,-2252.4744,-2671.4802,23368.6566
53351.1043,25679.0668,51991.0902,39353.4601,34494.0126,36708.2655,4964.5454,49174.4131,44175.9378,55097.6247,-2246.4395,-2665.9817,23369.8189
53370.5056,25687.8287,51989.1679,39366.0665,34515.6491,36717.2509,4966.9594,49190.4616,44191.0923,55104.8219,-2230.9721,-2654.7164,23376.0774
53356.2452,25685.2359,51983.6247,39364.323,34514.0845,36712.9147,4965.4394,49182.6832,44191.6734,55102.4973,-2234.593,-2656.9068,23372.0541
53347.3939,25681.0784,51986.5304,39352.4319,34491.4198,36706.7456,4962.8913,49172.4014,44181.034,55098.5634,-2249.971,-2671.4355,23367.8967
53342.5212,25675.1329,51988.0503,39344.6088,34478.1429,36710.6795,4963.9195,49160.2868,44174.5967,55098.2058,-2257.5259,-2674.6988,23368.5672
53348.8244,25679.3797,51986.8433,39352.4319,34492.1798,36717.5639,4966.0206,49176.2012,44178.8435,55094.3613,-2242.8185,-2661.6901,23372.4564
53366.7952,25686.6664,51988.3186,39358.9586,34510.9999,36721.9448,4970.5356,49196.5413,44189.8406,55100.0834,-2230.2121,-2649.8437,23377.5079
53367.1975,25687.2475,51993.1465,39359.3609,34513.5927,36717.7874,4972.9496,49204.8562,44195.2497,55111.3039,-2231.8661,-2648.9496,23377.2397
53352.803,25681.1678,51993.5489,39348.9897,34494.2361,36709.6514,4966.3782,49188.5394,44180.1846,55101.2456,-2248.4064,-2664.1935,23371.4283
53340.4648,25678.1727,51991.7607,39340.049,34476.4888,36706.388,4960.3432,49176.8271,44174.999,55093.4672,-2260.1187,-2672.1954,23366.7791
53355.5746,25679.3797,51986.6645,39348.7215,34489.274,36709.8302,4962.489,49194.1273,44181.6151,55096.06,-2251.8039,-2661.7795,23366.3768
53375.2441,25696.7247,51990.4196,39363.429,34509.8376,36724.0459,4968.3899,49216.0767,44200.3012,55105.6713,-2234.8166,-2645.5969,23372.9482
53369.9244,25694.0871,51991.1349,39352.9683,34500.0029,36725.387,4962.2655,49217.5519,44199.9435,55105.0007,-2240.9856,-2651.7212,23373.0823
53347.6174,25680.1397,51984.2952,39344.6535,34472.7337,36714.7923,4955.7388,49186.7512,44182.241,55094.1378,-2261.9963,-2669.8709,23362.1746
53332.4629,25674.2388,51980.5402,39335.8916,34457.4451,36709.3384,4951.8496,49165.9641,44174.9096,55087.7005,-2273.038,-2678.6774,23360.2971
53352.7583,25681.5255,51983.9823,39345.5029,34480.4227,36712.9594,4956.3646,49196.0943,44191.7181,55096.3283,-2257.9283,-2666.7863,23366.5109
53373.009,25692.5672,51989.615,39358.1092,34503.8027,36719.9332,4961.3714,49221.0388,44207.7667,55105.0901,-2240.0469,-2654.6717,23372.5905
53368.7621,25682.4195,51991.3584,39355.5164,34505.6802,36715.5969,4959.5386,49218.9378,44204.101,55099.4128,-2244.3831,-2655.4316,23372.6799
53355.5299,25675.3564,51989.3914,39348.8556,34482.9708,36710.7689,4957.7951,49197.793,44192.4334,55094.4954,-2255.9166,-2668.7086,23369.8636
53344.2646,25673.1212,51987.7821,39341.256,34467.1905,36709.5172,4958.6445,49186.4383,44185.1914,55089.8015,-2264.3209,-2679.348,23365.1251
53352.0877,25669.232,51984.8317,39344.117,34477.7852,36706.9244,4954.9788,49193.3227,44196.2779,55096.2836,-2259.7164,-2670.899,23363.6051
53372.2043,25674.0153,51984.8317,39358.9586,34504.3838,36710.2325,4960.7009,49221.9329,44205.3527,55106.1183,-2243.8467,-2661.1537,23365.9744
53372.7854,25679.3797,51984.3847,39359.495,34503.6685,36705.5386,4960.1644,49217.1943,44206.1126,55103.2573,-2244.6066,-2663.8359,23363.0687
53354.0994,25677.2786,51985.1893,39346.1287,34482.1215,36701.4259,4955.0235,49194.6191,44197.4849,55096.9988,-2261.3704,-2679.1245,23357.8384
53352.3113,25678.9774,51986.7092,39344.43,34473.8066,36706.2092,4956.0964,49186.7512,44179.7376,55092.1261,-2270.4452,-2685.9641,23358.8219
53365.007,25683.5371,51989.0338,39355.2035,34489.5869,36714.4346,4962.5337,49209.2818,44194.5791,55104.2855,-2254.4414,-2670.0497,23367.3602
53383.5143,25693.1931,51996.5887,39371.6097,34515.8279,36722.9283,4964.903,49227.1632,44204.5033,55107.1018,-2238.1246,-2655.7893,23374.1105
53378.0605,25695.4283,52002.8472,39374.9624,34516.0514,36726.4152,4968.1216,49227.9679,44205.9785,55111.751,-2234.3248,-2648.8602,23380.1901
53368.0916,25691.0473,52004.0095,39367.0499,34492.3586,36726.7281,4970.3121,49224.7492,44199.4518,55112.5556,-2245.3219,-2656.728,23377.7314
53362.5484,25687.2475,52005.7529,39362.5349,34481.8532,36726.1916,4971.385,49217.7755,44196.9484,55110.5887,-2250.4628,-2661.2431,23375.4963
53376.5852,25693.3719,52010.2233,39370.1792,34496.2925,36734.5512,4976.3024,49231.1865,44206.0232,55118.8588,-2235.7106,-2652.1236,23380.2348
53403.5414,25701.3738,52011.5644,39379.4775,34521.3711,36740.4521,4978.2246,49250.856,44217.1544,55122.2563,-2220.0644,-2640.9477,23387.4321
53404.3908,25702.4914,52007.6305,39376.6612,34521.237,36735.8923,4978.8952,49248.6656,44217.065,55117.6518,-2220.5114,-2642.6017,23388.3709
53376.1382,25690.5556,52001.819,39359.2268,34492.8056,36728.6503,4972.145,49215.5403,44202.2681,55099.3681,-2238.7952,-2657.2198,23380.9501
53362.6378,25682.8666,51998.3768,39350.7332,34477.3829,36724.0459,4964.7689,49193.0097,44193.1486,55093.2437,-2250.5075,-2667.9486,23374.9598
53371.6232,25687.0687,51993.9959,39355.5611,34486.2789,36724.4035,4963.4725,49206.7784,44202.0446,55099.8598,-2242.4161,-2655.8787,23374.1105
53379.8039,25689.6615,51989.302,39366.5582,34504.7414,36726.1916,4962.5784,49226.8503,44208.8842,55102.9891,-2226.1888,-2650.3354,23375.9433
53372.2043,25680.7208,51984.9658,39367.1393,34502.6404,36725.1635,4960.2091,49225.5986,44204.0563,55093.8696,-2229.1839,-2657.041,23373.7528
53355.1723,25672.9871,51979.7802,39358.5563,34479.2604,36715.1499,4958.4657,49213.618,44193.1486,55086.0465,-2249.7922,-2670.005,23367.8073
53344.7117,25670.0367,51982.4177,39353.6389,34475.7736,36716.6251,4960.6115,49211.3829,44186.1749,55091.8132,-2258.9117,-2674.6541,23371.5624
53357.3627,25676.9657,51982.1495,39367.8546,34493.2079,36725.387,4960.2091,49228.5043,44198.2448,55096.7753,-2243.2655,-2665.0429,23372.5011
53377.2111,25684.5206,51992.6548,39386.7195,34519.7171,36737.3228,4964.6795,49253.0018,44217.6014,55110.991,-2225.7417,-2644.7475,23378.849
53378.284,25687.6498,51992.7889,39379.3434,34514.8444,36732.7631,4964.2324,49258.9474,44214.5616,55110.3204,-2231.2403,-2648.9496,23379.162
53359.9108,25685.057,51998.0192,39373.219,34487.1283,36724.4929,4962.8019,49245.0893,44203.6092,55106.6101,-2243.7572,-2661.8242,23374.9151
53348.4668,25684.2077,51999.0027,39369.5086,34471.8844,36718.9497,4959.8962,49227.2079,44196.4567,55102.8997,-2250.9098,-2665.0429,23373.9316
53356.6922,25678.5303,51997.7063,39363.8313,34488.0223,36718.0109,4957.5716,49227.789,44204.7268,55100.4857,-2244.2043,-2663.4783,23372.5905
53371.6232,25679.9608,51993.4148,39370.1792,34508.8094,36720.4696,4956.767,49250.1855,44210.7618,55102.6314,-2237.6329,-2656.8174,23373.7081
53375.6018,25683.2242,51996.544,39374.0684,34510.1058,36724.9846,4959.8068,49251.5713,44203.1622,55103.5255,-2234.593,-2652.3471,23378.1785
53358.5697,25674.9988,51995.2476,39361.909,34487.0389,36714.3452,4953.3695,49231.0524,44195.3838,55097.0882,-2250.8651,-2666.384,23374.1552
53358.4803,25678.7539,52000.9696,39363.5184,34479.7969,36719.4861,4955.4259,49219.3848,44195.8308,55098.6528,-2256.2742,-2672.106,23374.1552
53365.8117,25682.4195,52001.9531,39372.1908,34495.756,36725.387,4961.3714,49235.9251,44199.3624,55103.9279,-2246.2606,-2661.3772,23376.4797
53369.0751,25683.4924,51992.6995,39373.1296,34506.3508,36724.2694,4956.9905,49247.995,44200.7929,55098.8764,-2241.4774,-2656.5045,23372.2776
53368.5386,25687.1134,51992.9677,39373.979,34503.4003,36718.4132,4954.8,49247.3245,44204.1904,55101.1562,-2241.7456,-2660.796,23370.5789
53361.0284,25691.8967,51995.1582,39366.1559,34491.2857,36716.4463,4958.7786,49232.7064,44207.2302,55101.4692,-2250.4181,-2661.7795,23371.473
53354.2335,25684.2077,51994.0853,39365.6194,34484.6249,36723.1965,4961.8632,49226.7609,44200.7929,55095.4342,-2253.8155,-2669.0215,23373.2611
53363.2636,25683.4477,51992.6995,39369.8215,34497.3654,36732.3607,4964.3666,49246.1622,44206.7832,55097.0882,-2243.042,-2660.0361,23378.402
53384.8554,25687.2028,51992.4313,39378.2705,34516.3196,36740.1838,4965.0371,49256.3546,44211.2088,55098.1164,-2231.4191,-2651.3189,23381.4865
53378.2393,25684.0289,51987.8268,39370.4921,34510.8658,36735.937,4959.0915,49250.409,44204.2798,55091.9473,-2236.7835,-2652.8835,23378.7149
53361.9672,25683.2242,51988.6315,39365.7088,34494.7278,36732.8078,4959.2257,49231.1865,44195.2497,55091.098,-2249.7922,-2659.7232,23375.9433
53342.1636,25674.4623,51981.7024,39353.013,34479.3051,36727.7563,4954.2189,49214.1098,44183.3138,55088.8181,-2259.2694,-2673.3577,23370.0424
53355.1276,25675.6693,51981.5683,39356.0976,34494.4596,36728.9186,4953.6377,49227.2526,44181.8386,55089.7121,-2248.6299,-2665.5346,23374.6022
53371.802,25687.4263,51989.2573,39368.704,34517.169,36737.3228,4958.421,49249.0232,44189.5723,55097.1329,-2231.0168,-2650.7378,23383.7217
53368.9409,25689.1251,51988.3186,39369.3298,34511.134,36736.2946,4961.5502,49243.927,44185.0573,55097.6694,-2228.5134,-2648.0108,23382.8723
53349.9867,25686.7558,51986.9328,39356.9022,34486.9494,36722.7048,4961.1479,49223.4528,44174.5967,55088.4604,-2243.1761,-2659.4549,23375.0492
53333.0441,25680.8549,51990.1961,39347.4698,34476.31,36713.6747,4960.7903,49208.3877,44164.7172,55086.5829,-2253.6367,-2671.5249,23373.6187
53342.6106,25690.7791,51998.2874,39352.2531,34496.8736,36722.1683,4967.8087,49224.6151,44167.8464,55095.3895,-2240.2704,-2662.0477,23380.6819
53354.8594,25697.6187,51993.7724,39360.4785,34519.7618,36721.4978,4970.938,49231.8124,44167.4888,55093.0649,-2225.3841,-2655.6998,23379.609
53353.3394,25694.3107,51992.7442,39357.5728,34518.9124,36720.7378,4972.4579,49217.4625,44166.0583,55096.7753,-2224.1771,-2656.6833,23379.8325
53336.1733,25694.9365,51995.337,39348.4086,34496.8289,36717.3404,4973.4861,49196.2284,44158.5034,55097.8482,-2237.6329,-2668.6192,23378.0891
53319.4542,25699.0939,51993.7724,39343.5806,34473.449,36708.7126,4976.3918,49170.0321,44150.9038,55092.4391,-2246.2159,-2671.0778,23377.955
53320.3036,25701.5079,51992.3866,39348.051,34485.653,36704.5999,4978.3587,49177.8105,44152.5578,55089.7121,-2240.4939,-2663.4783,23378.7596
53336.5309,25709.331,51997.2593,39353.2366,34513.1457,36710.0984,4983.0526,49196.3178,44155.1507,55096.0153,-2227.1723,-2654.7611,23382.7382
53333.9828,25716.6624,51996.2311,39352.3872,34515.202,36708.3549,4984.2596,49188.0476,44144.7794,55094.9425,-2226.3229,-2657.8009,23380.9501
53316.5932,25718.54,51991.8501,39340.362,34487.7988,36697.8943,4980.0575,49156.7552,44133.1118,55086.27,-2238.8399,-2671.212,23376.5244
53308.7254,25716.8412,51991.9395,39334.774,34468.3081,36698.9225,4982.0244,49143.5677,44128.5074,55078.2233,-2246.7077,-2676.174,23377.195
53322.2705,25716.0366,51998.2427,39346.531,34497.723,36711.1713,4988.9088,49158.4986,44141.7843,55088.9522,-2234.593,-2658.9185,23387.1192
53330.3618,25720.5516,51997.3487,39359.0927,34525.6627,36720.3802,4991.591,49161.4044,44150.9932,55091.992,-2218.4998,-2648.7708,23389.3096
53320.7059,25720.5516,51997.3487,39358.0198,34518.7336,36715.7757,4988.1935,49155.8611,44140.7561,55089.3545,-2223.4172,-2652.2577,23386.0463
53302.2434,25712.952,51998.6898,39347.8274,34491.5539,36709.5172,4987.3888,49132.7494,44125.2887,55086.7617,-2235.9341,-2664.6852,23383.5429
53301.2599,25711.3874,51997.2146,39344.2065,34475.2818,36706.6562,4985.0196,49108.8331,44115.5881,55079.2068,-2243.3549,-2672.419,23380.6372
53320.6165,25712.1027,51996.4546,39353.4154,34486.9941,36711.1266,4982.0691,49120.7689,44121.6677,55078.4022,-2236.7835,-2666.9204,23378.6255
53328.8419,25714.5166,51997.3487,39366.1559,34510.3741,36716.5357,4983.7679,49139.142,44133.8271,55076.9717,-2221.4502,-2657.6668,23379.5643
53324.2375,25715.0084,51999.6732,39366.29,34508.3624,36716.9827,4980.9963,49137.0857,44130.9661,55072.9483,-2224.3559,-2661.0196,23378.6255
53306.8478,25710.2251,51998.7345,39359.6739,34489.7658,36713.0041,4974.9166,49106.732,44115.5881,55067.1369,-2236.7835,-2672.2848,23374.781
53297.9965,25700.3903,52000.1203,39349.9285,34471.4373,36707.0138,4973.6649,49088.1801,44102.1323,55060.9231,-2240.8962,-2676.8893,23374.8704
53315.4756,25701.9103,52002.1319,39353.9071,34480.1098,36709.7408,4977.0176,49103.6922,44105.4851,55062.0854,-2231.6426,-2665.0429,23378.402
53323.6116,25707.7217,52000.2991,39362.3561,34500.7628,36714.4793,4975.453,49122.1547,44125.6016,55065.8405,-2219.1256,-2651.0954,23383.1853
53325.5786,25711.8791,51996.8122,39367.9887,34502.9533,36717.2509,4975.9895,49120.5901,44122.383,55065.1699,-2220.8244,-2651.1848,23381.7995
53311.0499,25707.9452,52001.2379,39361.7302,34479.2604,36710.1878,4977.0176,49096.182,44110.4919,55060.8337,-2240.6727,-2663.3888,23378.0444
53298.4436,25701.8656,52000.165,39346.7098,34457.8028,36705.7174,4971.9661,49074.9478,44094.3092,55056.9892,-2250.1051,-2676.7105,23373.9763
53307.8313,25694.3554,51996.3652,39347.2463,34480.5568,36705.0469,4970.4462,49086.4813,44101.9982,55056.8104,-2237.4094,-2668.7533,23378.4914
53328.082,25696.5905,51992.5207,39353.2813,34503.9368,36707.8185,4970.2674,49106.285,44119.0749,55057.615,-2227.0828,-2660.8407,23383.6323
53325.5786,25688.8121,51986.7539,39349.6156,34494.0126,36699.1907,4965.3947,49090.5941,44112.7717,55050.5966,-2236.4706,-2668.1274,23376.6586
53316.8167,25684.4759,51986.441,39342.3736,34475.7289,36692.9322,4967.8981,49066.5883,44100.0313,55052.1612,-2248.4064,-2680.0632,23373.2611
53306.8031,25676.4293,51983.4012,39337.2327,34460.7979,36688.1937,4966.11,49053.2666,44098.0643,55052.7871,-2253.3238,-2681.3596,23372.9035
53315.8332,25680.7208,51984.4741,39344.0276,34472.7337,36696.8662,4968.3899,49068.5552,44109.7319,55058.7773,-2239.0634,-2669.3344,23376.9715
53328.7972,25685.2359,51980.7637,39350.0179,34500.4499,36704.1528,4967.9875,49089.2977,44118.5832,55062.1301,-2227.4405,-2660.796,23377.8656
53330.6301,25682.2854,51977.6344,39348.0062,34497.0524,36704.1528,4967.0935,49077.3618,44112.3247,55064.3653,-2230.4356,-2662.8077,23374.8704
53316.772,25682.1066,51982.8647,39339.2444,34479.5734,36701.7388,4966.6017,49059.3016,44103.6969,55060.9231,-2244.8748,-2673.9836,23370.8918
53305.5514,25681.8384,51983.133,39328.3814,34467.7716,36697.3579,4966.6911,49057.8711,44103.5628,55056.2739,-2253.2344,-2681.4491,23369.2378
53319.9012,25690.8238,51988.6315,39336.2492,34489.5869,36704.5999,4970.7592,49082.2792,44117.2421,55066.2428,-2243.3549,-2670.1838,23373.7081
53333.2229,25691.1367,51989.7044,39347.3357,34507.0213,36703.3035,4971.4297,49102.4852,44125.3334,55072.546,-2232.6708,-2661.4219,23377.3291
53338.3638,25686.9793,51989.9726,39347.6933,34508.4071,36704.3316,4975.6318,49103.6028,44128.3286,55075.2729,-2227.0381,-2660.4831,23378.7149
53324.6845,25677.1445,51993.0124,39334.4164,34479.2157,36698.6096,4975.9448,49076.1101,44116.7951,55072.2778,-2239.6892,-2674.2518,23373.4399
53308.9489,25677.5022,51991.8054,39326.9509,34462.3625,36694.2734,4976.66,49058.2287,44103.9652,55062.1301,-2250.3734,-2681.6279,23372.4564
53320.9294,25676.4293,51989.3914,39334.327,34483.1944,36694.4522,4973.6649,49072.5338,44113.4423,55069.1485,-2238.8399,-2671.3014,23378.7149
53343.0576,25679.1115,51988.855,39342.1054,34503.8474,36697.7602,4973.8437,49099.8924,44127.1663,55077.5528,-2226.7699,-2659.5443,23379.9219
53338.8108,25676.6975,51985.6364,39338.3503,34494.3255,36697.5367,4970.625,49101.1441,44128.0603,55071.3837,-2236.3365,-2667.3228,23378.0444
53325.9362,25673.3447,51985.2787,39332.4047,34480.1545,36695.078,4968.0322,49087.8224,44125.8699,55069.0591,-2245.5007,-2679.5715,23374.8704
53318.6942,25671.7801,51988.0056,39332.7177,34473.8066,36697.2685,4966.2441,49080.9381,44119.7455,55068.1651,-2247.11,-2684.5336,23374.0211
53331.1665,25676.8316,51989.0338,39341.5689,34490.1234,36700.2636,4966.9594,49097.7913,44126.8086,55070.4896,-2234.906,-2674.073,23376.2562
53351.2384,25681.3914,51991.2243,39355.2929,34508.0942,36707.6397,4974.4248,49127.7874,44148.1769,55076.4799,-2220.9585,-2660.8407,23380.7713
53354.01,25685.5488,51992.7442,39355.427,34504.3838,36709.7855,4974.5142,49134.2247,44153.8095,55073.753,-2221.1373,-2658.3374,23381.6653
53328.1714,25681.0784,51987.6033,39342.1054,34485.9213,36704.9128,4968.9263,49115.0022,44137.7163,55065.7064,-2236.6047,-2671.212,23376.1668
53323.4775,25687.8734,51995.8735,39348.7662,34486.3683,36712.7806,4974.3354,49104.3627,44130.1614,55070.4002,-2240.5833,-2676.1293,23378.6255
53341.2248,25687.024,51990.062,39353.1471,34495.4878,36715.2393,4974.2013,49119.3384,44133.9165,55075.0941,-2232.179,-2666.1605,23383.0959
53365.4988,25695.2941,51989.6597,39365.1724,34512.9222,36721.0507,4976.8388,49151.0332,44150.4568,55082.4255,-2215.9964,-2651.4083,23389.712
53368.181,25703.2067,51995.6499,39363.2501,34516.2749,36724.5823,4978.8952,49152.1955,44151.2167,55078.4916,-2218.9021,-2648.1003,23389.2649
53350.836,25699.0045,51990.062,39348.7215,34493.0291,36714.4793,4971.2062,49130.4249,44139.9515,55067.6733,-2236.113,-2661.556,23383.4535
53340.9119,25688.7227,51989.8832,39346.4416,34482.6579,36714.6134,4969.8651,49117.4608,44135.794,55071.5178,-2243.7125,-2671.3014,23381.8442
53355.7981,25688.6333,51989.4809,39351.0014,34498.8406,36715.7757,4968.7028,49136.3257,44145.1371,55077.4187,-2237.1858,-2664.8641,23383.9005
53362.6825,25696.6352,51988.855,39354.8459,34512.1622,36719.7543,4966.5123,49150.452,44155.6871,55083.9007,-2224.3112,-2654.9846,23383.7217
53358.3015,25695.473,51989.8385,39352.8789,34503.5791,36720.0226,4964.7242,49152.5531,44155.5977,55084.8842,-2226.8593,-2655.2528,23381.6653
53342.6106,25690.5109,51989.2573,39338.1715,34484.0884,36715.9992,4966.9594,49130.7378,44146.7464,55080.1903,-2244.1596,-2668.1721,23378.7149
53335.7263,25683.3136,51989.7938,39331.6448,34474.3878,36709.9196,4962.8913,49118.489,44138.4315,55072.7248,-2257.7047,-2678.7668,23373.4846
53335.3239,25684.8335,51990.509,39333.6117,34482.3003,36704.734,4955.7388,49132.4365,44147.864,55077.3293,-2253.5473,-2676.4423,23369.3719
53347.528,25688.4545,51990.5984,39347.6486,34498.5276,36705.941,4958.421,49148.3063,44161.588,55083.9454,-2240.0469,-2666.8757,23370.9365
53344.1305,25683.5371,51986.1281,39353.2813,34500.3158,36706.7456,4964.456,49144.4618,44156.4918,55086.1359,-2232.0896,-2663.3888,23376.6586
53332.1947,25682.2854,51987.0669,39347.0228,34486.1001,36703.4823,4971.385,49138.5609,44145.7629,55082.649,-2242.9079,-2670.899,23379.3408
53324.908,25684.9229,51989.2573,39340.0937,34480.1098,36704.2869,4972.9943,49132.0789,44138.5657,55080.5926,-2246.4395,-2675.9058,23377.7761
53332.4182,25684.7441,51987.1563,39343.8041,34492.6268,36706.6562,4970.4909,49146.2499,44145.45,55083.6772,-2235.9341,-2665.3558,23381.3077
53349.5396,25690.0191,51991.269,39356.7681,34512.7881,36709.7408,4971.7426,49165.83,44163.3761,55087.164,-2220.6008,-2649.2625,23388.3709
53354.0994,25691.2261,51993.9065,39352.2084,34517.4372,36707.5056,4974.3354,49174.0555,44177.7706,55089.3098,-2218.9468,-2648.3238,23389.3543
53339.2131,25688.8121,51992.7889,39336.4727,34497.4548,36702.4988,4974.7378,49152.5084,44164.4937,55081.0844,-2236.113,-2661.556,23380.9501
53327.8137,25679.8714,51994.1747,39323.3746,34479.8416,36695.7039,4972.7708,49136.7728,44154.1225,55083.0513,-2253.145,-2673.2683,23376.3009
53336.8886,25684.6547,51995.2029,39335.6681,34500.9416,36705.628,4975.6318,49158.141,44171.1992,55092.1708,-2238.9293,-2660.1255,23382.6935
53350.836,25689.5721,51992.8783,39346.5757,34521.1476,36709.2043,4979.9234,49181.1186,44180.8105,55096.5965,-2225.2053,-2648.8602,23387.2533
53352.2666,25691.9414,51995.1582,39347.8721,34521.1029,36707.6397,4983.142,49176.5589,44176.3848,55097.6247,-2228.111,-2650.8719,23386.3592
53343.1917,25691.1814,51997.4828,39342.5524,34506.4402,36710.4113,4988.9088,49163.5054,44166.55,55098.5634,-2238.0352,-2658.5609,23385.7781
53330.4513,25689.3039,51999.4944,39339.8702,34492.5821,36713.317,4989.0876,49149.4685,44162.8397,55095.5236,-2242.0585,-2660.6619,23389.1755
53337.6485,25698.2446,52000.165,39350.0626,34513.4139,36719.4414,4993.5579,49171.5074,44177.6812,55102.8103,-2227.0381,-2647.5191,23395.2999
53351.9983,25703.3855,52003.6519,39358.8692,34537.062,36720.6931,4996.866,49193.5462,44181.481,55109.6052,-2216.1305,-2639.7407,23396.1493
53347.6621,25697.5293,52000.2097,39352.9236,34527.5402,36717.9662,4992.7086,49189.8358,44180.3187,55108.3535,-2226.8593,-2646.7144,23392.8859
53334.5193,25694.5342,52001.5508,39343.8041,34502.1039,36717.4745,4990.9651,49171.5521,44173.792,55103.8831,-2240.2704,-2657.2645,23389.4885
53326.2044,25689.6615,52003.786,39340.0937,34486.4577,36712.8253,4988.0594,49157.7834,44167.1312,55099.1446,-2246.0371,-2663.1653,23384.8393
53337.3356,25690.1532,52001.819,39342.463,34500.5393,36708.2208,4984.3937,49173.2061,44176.966,55095.3895,-2241.5668,-2658.0691,23379.609
53345.2034,25694.4895,51994.9347,39349.0791,34520.5218,36713.4959,4983.0973,49186.0807,44186.5772,55102.7209,-2232.0896,-2655.5657,23381.1736
53339.1684,25692.3437,51987.1563,39348.945,34519.4489,36713.3617,4981.3986,49194.3955,44181.5704,55104.9113,-2232.9837,-2654.8058,23381.8442
53329.4231,25683.5818,51982.8647,39342.2395,34490.3469,36708.6232,4979.7893,49171.5074,44162.8397,55090.2933,-2250.1051,-2668.7086,23377.4185
53321.5553,25680.0503,51982.0601,39338.4397,34476.1759,36710.009,4977.6882,49155.2353,44153.8543,55084.1242,-2255.8272,-2679.5715,23372.1435
53338.9449,25690.7344,51987.9162,39350.1967,34505.0097,36719.8437,4981.935,49176.2012,44172.9426,55096.6412,-2238.1246,-2666.8757,23376.9268
53356.1558,25704.1454,51987.6033,39361.1491,34533.0387,36722.7048,4985.2878,49196.2284,44187.7395,55103.2573,-2223.3278,-2654.5376,23379.9666
53351.7748,25706.7829,51987.2457,39360.7914,34529.686,36722.4813,4985.2431,49197.793,44182.3304,55101.3798,-2225.1159,-2650.3801,23380.7266
53337.7826,25699.988,51990.1067,39349.7944,34502.2827,36718.6368,4981.3092,49181.2974,44167.6229,55098.5634,-2238.6163,-2660.5725,23375.1386
53330.7642,25695.16,51989.6597,39349.6156,34491.8221,36718.145,4981.6668,49166.9476,44160.4704,55095.166,-2243.489,-2669.2897,23374.0658
53346.3657,25695.1153,51989.3467,39357.9751,34511.447,36720.2908,4985.2431,49178.5705,44175.6248,55098.2058,-2230.7485,-2660.0808,23379.9666
53359.3297,25692.3437,51988.9891,39351.8507,34527.3167,36721.006,4982.5609,49191.7133,44186.309,55100.441,-2225.7864,-2652.1236,23381.8442
53360.045,25690.1085,51989.2126,39350.7779,34521.0135,36718.905,4981.1751,49178.9281,44183.9397,55100.9774,-2234.4142,-2659.8573,23379.7431
53342.4765,25686.6217,51990.0173,39342.3736,34499.1535,36708.5338,4976.7494,49165.7406,44175.4013,55090.8297,-2250.3287,-2675.5929,23372.9482
53334.5193,25686.7558,51992.4313,39334.7293,34487.3518,36708.9808,4979.3422,49159.1692,44171.3333,55087.5664,-2258.8223,-2679.1692,23370.4895
53346.8574,25694.8471,51990.3749,39342.2395,34506.7978,36719.8884,4984.5725,49177.3635,44184.8338,55098.6081,-2245.8583,-2664.1488,23374.8704
53359.8661,25699.3175,51991.1349,39350.3755,34523.2934,36719.6202,4983.4102,49183.5773,44196.099,55102.6314,-2234.1013,-2653.1965,23378.849
53355.7087,25695.8306,51989.3914,39348.1404,34519.4042,36716.8933,4980.8174,49186.0807,44192.6569,55104.6431,-2236.113,-2654.5376,23376.3009
53346.5892,25688.4098,51988.4527,39342.5524,34494.9514,36714.2558,4980.5045,49166.2771,44182.8221,55099.9939,-2247.6465,-2666.4287,23371.6071
53341.6718,25687.1134,51988.9444,39340.4514,34481.3615,36711.216,4981.5327,49147.144,44175.8931,55093.7355,-2253.2344,-2674.073,23373.574
53358.1674,25690.6003,51988.2739,39344.2512,34503.8921,36713.0935,4982.2479,49168.244,44183.6268,55099.0999,-2241.6115,-2662.4054,23377.3738
53368.628,25697.7081,51989.0785,39347.3357,34528.6131,36714.8817,4981.1304,49194.2167,44189.0806,55106.2524,-2232.7602,-2656.3257,23379.8325
53359.3297,25700.1668,51989.9726,39346.0393,34522.0417,36712.9594,4981.2198,49191.1769,44186.9348,55105.8054,-2234.7718,-2658.1585,23380.8607
53345.0246,25690.1085,51986.5304,39334.8634,34494.6384,36706.1198,4974.8272,49169.4063,44174.6861,55097.6694,-2250.1945,-2673.9389,23373.3505
53336.978,25681.8831,51981.166,39322.257,34479.0369,36699.6825,4969.5522,49156.0847,44175.4013,55096.4624,-2266.1537,-2682.8349,23368.7907
53342.7,25685.7723,51978.6179,39330.6166,34500.9863,36701.9624,4972.5026,49175.3072,44185.0573,55101.7374,-2256.4083,-2670.0944,23374.2893
53352.7136,25683.5371,51975.0416,39336.0704,34517.9737,36705.7621,4972.1897,49189.657,44192.4781,55099.0105,-2241.9691,-2661.2431,23373.7975
53345.4716,25675.6246,51975.0863,39329.6331,34514.1739,36704.421,4970.5356,49192.965,44188.6783,55098.1611,-2245.5007,-2665.7134,23371.2494
53329.2443,25678.6197,51980.719,39319.4407,34495.8901,36696.5979,4970.9827,49179.0622,44178.7094,55094.9872,-2259.8952,-2671.9272,23369.059
53326.8303,25676.2505,51982.7306,39320.6924,34483.4179,36698.1179,4971.0721,49168.3781,44174.4626,55090.4274,-2261.8175,-2671.5249,23369.4613
53349.2714,25678.3962,51982.3283,39326.9062,34498.8853,36705.8516,4968.4346,49181.2527,44184.6997,55094.2272,-2249.6134,-2662.9418,23368.746
53359.7767,25682.5536,51979.8249,39335.6681,34517.929,36711.0372,4965.6183,49195.8708,44198.2448,55095.8365,-2238.7058,-2660.5278,23368.2543
53359.2403,25685.9064,51979.8249,39338.6185,34512.341,36709.4278,4966.2888,49195.7814,44198.7365,55091.4109,-2240.3598,-2664.8641,23368.2543
53344.6223,25680.1844,51978.9308,39327.8897,34487.173,36709.5619,4969.5969,49184.8737,44182.5539,55085.8229,-2253.3238,-2676.2635,23363.4263
53338.4085,25678.7091,51987.8268,39326.8168,34480.0204,36708.6679,4974.2013,49183.5326,44185.9961,55097.4458,-2259.9846,-2680.6891,23369.5507
53351.1043,25683.1348,51994.0406,39338.3056,34497.5442,36714.0323,4977.0176,49211.517,44203.9669,55104.8219,-2241.5221,-2666.2499,23379.5196
53366.3034,25697.7528,51997.7957,39349.8838,34529.0154,36727.3092,4983.9467,49238.5626,44221.4906,55116.0872,-2219.4833,-2648.9049,23387.4768
53365.1412,25695.3388,51992.7442,39350.8226,34529.5519,36725.6105,4984.6619,49238.4732,44214.2487,55112.7344,-2225.0712,-2652.9282,23383.7217
53340.4648,25682.5536,51986.8881,39334.8187,34501.9698,36709.2937,4976.4365,49206.3761,44197.619,55101.6927,-2249.077,-2672.9107,23372.5011
53331.6135,25676.0716,51988.0503,39330.7507,34484.759,36707.7738,4972.5026,49186.1701,44186.2643,55096.5071,-2261.281,-2680.7338,23369.5507
53355.0829,25677.8598,51987.201,39336.0257,34502.0145,36716.491,4972.8602,49201.7269,44191.584,55092.4838,-2248.5852,-2675.4141,23373.127
53368.2704,25684.2971,51984.5635,39344.8323,34520.5665,36717.5639,4968.1216,49219.0719,44202.8046,55095.3001,-2236.9623,-2666.2052,23372.8141
53356.2452,25688.5439,51985.5022,39339.7808,34505.4567,36712.2442,4965.0371,49216.7026,44200.7482,55092.6179,-2240.5833,-2670.9884,23367.092
53340.8225,25683.2689,51989.6597,39332.0918,34481.9427,36704.421,4963.1149,49202.9339,44186.4878,55087.8793,-2254.6202,-2687.0817,23363.7393
53335.9945,25676.3399,51988.6315,39332.0471,34469.6492,36703.7505,4963.8301,49189.344,44184.8785,55083.9901,-2263.5162,-2688.691,23362.6664
53340.4201,25673.5682,51985.7258,39334.1929,34480.2886,36707.5056,4958.9127,49189.9252,44194.2215,55081.3079,-2256.3636,-2677.694,23359.8948
53354.2335,25677.6363,51982.5071,39347.3804,34500.9863,36713.9876,4955.7835,49212.3216,44200.3459,55079.1621,-2241.4327,-2670.0944,23361.5935
53352.5348,25680.9443,51981.9707,39349.3474,34500.1817,36717.5639,4962.7572,49218.1331,44200.8823,55083.7666,-2237.8117,-2667.5016,23367.539
53336.3521,25669.2767,51979.0202,39335.2658,34475.4606,36706.9691,4960.1197,49199.2235,44189.3041,55080.8161,-2253.2344,-2679.1692,23361.817
53320.5718,25650.7695,51972.0018,39317.2055,34464.2401,36698.4755,4948.4074,49179.7328,44167.1312,55073.8424,-2268.523,-2691.3285,23351.6693
53333.7593,25655.9998,51975.0863,39330.5272,34488.0223,36703.8399,4951.179,49196.7201,44178.7094,55079.1621,-2255.4696,-2681.002,23356.7208
53342.9235,25666.6839,51975.6675,39341.5689,34507.4683,36707.9079,4953.2801,49217.8202,44190.9134,55089.8015,-2240.4492,-2669.4238,23365.0804
53338.3638,25669.5449,51979.5567,39338.842,34501.7463,36707.6397,4955.3365,49220.6365,44187.0689,55093.6908,-2246.7077,-2671.1226,23367.7179
53320.5718,25668.7403,51978.3497,39327.3532,34481.2721,36707.2821,4955.0682,49200.7434,44177.0554,55084.1689,-2260.1634,-2683.2819,23365.6615
53320.2589,25669.232,51977.9921,39328.8732,34467.7269,36706.6562,4957.8846,49184.7396,44178.7094,55085.5547,-2260.2975,-2685.7406,23365.9744
53339.6602,25674.2388,51982.8647,39340.7196,34488.7376,36713.1382,4965.2606,49202.3528,44190.2876,55097.58,-2245.1431,-2674.9671,23372.5011
53358.078,25677.2339,51985.9493,39347.3804,34508.9436,36720.4696,4966.3782,49227.9232,44201.0611,55102.0056,-2231.3297,-2665.8028,23374.6469
53357.8992,25671.5566,51984.0717,39345.2793,34500.8522,36720.8272,4964.143,49223.8551,44195.6967,55097.7588,-2239.8233,-2667.9933,23373.7528
53340.4648,25664.0017,51982.2836,39331.8236,34482.4344,36709.5619,4957.4375,49206.0632,44186.2643,55089.8463,-2257.7941,-2680.108,23365.0804
53327.5008,25661.543,51981.3001,39326.4592,34472.1526,36705.0022,4952.9672,49193.278,44177.9494,55089.8463,-2263.4268,-2689.451,23358.1066
53341.0013,25671.0202,51984.6082,39332.9412,34486.413,36711.3948,4957.2587,49210.3994,44195.5179,55094.2719,-2250.6416,-2676.7999,23360.0736
53356.7369,25676.0269,51987.1563,39343.7147,34510.4635,36717.5639,4960.3879,49233.5111,44206.2914,55093.2437,-2239.9127,-2666.9651,23363.5604
53360.939,25676.0269,51988.0056,39341.5242,34507.4236,36718.592,4959.8515,49234.0028,44203.4304,55093.4225,-2242.5503,-2668.6192,23363.9628
53347.5727,25666.0134,51991.6713,39333.9247,34487.7094,36713.8088,4958.7339,49213.8863,44195.2944,55089.9804,-2257.1236,-2681.1361,23363.2475
53336.5309,25665.5216,51989.8385,39327.3532,34476.1312,36712.423,4958.3316,49197.9271,44191.7628,55088.2369,-2265.3043,-2688.1546,23362.3087
53351.2384,25666.1028,51989.4809,39336.1151,34492.0009,36717.5192,4960.8797,49222.3799,44203.2069,55094.0484,-2251.8933,-2677.8728,23366.1979
53365.7223,25675.1329,51990.6431,39348.8109,34510.9105,36722.4813,4965.7971,49252.7783,44215.5898,55097.7141,-2234.9954,-2663.97,23373.4846
53361.2967,25675.6246,51991.0008,39350.0626,34503.8474,36720.0673,4966.3335,49247.4139,44211.3429,55091.6344,-2232.2237,-2664.1935,23376.748
53344.0858,25669.5449,51988.9891,39338.5738,34486.5471,36711.6183,4961.2373,49219.0272,44204.6374,55094.0037,-2245.6348,-2678.2751,23371.3835
53334.9663,25664.5828,51985.9493,39330.706,34479.484,36701.56,4956.767,49196.3625,44200.0777,55089.6227,-2253.8155,-2685.4277,23368.1649
53349.4949,25661.0513,51985.1893,39340.2725,34499.1982,36704.1081,4959.6727,49211.5617,44210.9853,55090.9638,-2239.9575,-2673.5365,23373.4846
53366.8399,25670.6178,51986.7986,39354.0859,34520.03,36713.1382,4967.5852,49236.7297,44222.4294,55098.787,-2223.7748,-2661.0196,23378.5361
53360.4473,25673.4788,51984.9658,39355.8741,34516.1408,36713.5406,4966.6017,49238.5626,44221.5353,55092.752,-2230.078,-2670.1838,23376.2562
53342.0742,25665.9687,51984.6529,39343.3124,34492.0456,36706.388,4959.7621,49216.3002,44207.6325,55084.1242,-2251.5804,-2682.7902,23366.645
53334.3405,25661.6324,51984.4741,39339.9596,34487.6647,36705.941,4957.4822,49207.2254,44198.8707,55080.0562,-2262.3986,-2684.176,23363.3369
53348.6456,25672.4954,51988.6762,39355.9635,34508.1389,36719.9779,4965.8418,49231.723,44217.7355,55091.1427,-2243.802,-2668.8427,23372.1882
53357.6757,25682.956,51992.7889,39359.5845,34527.3167,36728.4268,4968.8369,49258.3662,44234.4993,55098.6528,-2232.4473,-2660.2596,23376.3903
53351.6407,25678.0833,51990.509,39354.6671,34518.3313,36726.0575,4963.3384,49257.9192,44227.6597,55098.9211,-2240.5833,-2667.6804,23372.0094
53335.9498,25674.06,51986.9775,39347.6039,34498.93,36724.9846,4959.8515,49243.5247,44210.7171,55092.7073,-2257.1236,-2678.8116,23367.4496
53328.4843,25666.2369,51983.8929,39335.2658,34480.5121,36716.4016,4955.4259,49230.0689,44208.2137,55084.1242,-2264.4103,-2685.0253,23364.0969
53338.2297,25664.1805,51981.613,39342.7759,34486.6365,36717.7874,4955.0682,49241.7812,44214.0698,55091.2321,-2252.2956,-2675.3247,23366.6003
53357.0945,25671.9142,51983.0436,39362.1325,34512.1175,36725.9234,4956.9011,49264.8035,44219.9707,55095.8812,-2239.6445,-2666.384,23369.1484
53352.7136,25669.992,51980.5849,39360.9703,34507.7813,36720.8272,4955.1576,49265.9658,44213.9357,55085.6888,-2242.1032,-2670.452,23365.7062
53339.5708,25663.5547,51980.2272,39352.566,34483.4179,36716.3569,4952.3413,49241.6024,44194.7579,55079.9221,-2254.3967,-2683.5054,23362.3534
53330.7195,25655.821,51980.3613,39346.7098,34476.2653,36711.3501,4951.939,49233.2876,44191.9416,55081.3079,-2259.8058,-2692.759,23364.8568
53343.6835,25656.3127,51978.0368,39353.6836,34491.1069,36712.9147,4953.8612,49235.791,44201.8211,55082.3361,-2244.6066,-2680.1527,23367.1814
53360.045,25662.5265,51975.2204,39361.1491,34512.8328,36722.3918,4953.7271,49257.9192,44214.6063,55091.9473,-2233.3413,-2666.1605,23369.1037
53358.7486,25673.1659,51980.8531,39363.6972,34515.6491,36728.2927,4960.1197,49264.6247,44219.9707,55093.7355,-2232.8943,-2664.1935,23372.5905
53342.253,25671.1543,51980.1378,39354.6671,34493.4762,36725.7893,4959.9856,49241.8259,44208.2584,55087.0299,-2246.0371,-2678.2304,23366.4215
53342.9235,25670.7072,51977.4556,39350.4649,34483.1049,36726.8622,4956.454,49237.8026,44191.3605,55080.9056,-2255.4696,-2689.6298,23365.9744
53359.1956,25680.7208,51982.4624,39360.255,34502.9533,36730.4385,4956.4093,49264.8482,44205.3974,55084.7948,-2244.9642,-2672.866,23374.3787
53365.0517,25682.5089,51983.133,39364.9042,34521.3264,36734.5512,4960.3879,49279.6004,44218.3614,55089.6227,-2225.9653,-2659.0079,23378.6255
53358.2568,25676.7422,51978.0815,39359.0927,34515.4703,36732.2713,4954.8894,49267.5751,44216.9309,55086.1806,-2224.9371,-2665.3111,23372.5905
53349.7632,25671.6907,51979.7802,39350.1073,34497.8124,36729.008,4949.8379,49248.7997,44195.5626,55078.0892,-2244.1596,-2680.2868,23369.5507
53336.4862,25669.8132,51982.2836,39334.7293,34482.9261,36719.3967,4946.9322,49232.6617,44186.756,55075.9882,-2258.5541,-2688.5569,23366.1979
53345.7845,25667.0862,51977.7238,39337.6797,34492.8056,36716.8039,4944.8311,49243.2117,44186.6666,55076.9269,-2255.1119,-2680.2868,23365.3486
53358.4803,25669.8132,51973.7452,39343.7594,34516.5879,36717.6086,4949.525,49256.0416,44199.9882,55083.5431,-2245.5454,-2666.6969,23368.5672
53361.7884,25671.9142,51976.7851,39344.4747,34511.8046,36716.1334,4957.3034,49253.8065,44193.238,55080.8609,-2246.8418,-2667.2333,23369.4613
53342.9682,25669.5449,51978.2603,39332.7624,34485.5636,36709.5619,4957.8846,49238.5626,44177.6812,55076.3011,-2257.9283,-2680.4656,23366.4215
53325.8021,25660.0678,51976.5615,39323.8217,34470.3645,36702.3647,4956.6329,49216.9261,44168.8746,55081.2632,-2265.2596,-2687.1264,23361.7723
53329.7807,25665.4322,51979.1096,39329.6778,34489.8105,36704.421,4959.2257,49220.6812,44167.1312,55080.995,-2252.5191,-2676.5317,23365.4827
53331.8371,25670.9754,51978.4838,39336.7857,34514.9338,36709.3831,4965.35,49234.4946,44183.895,55086.8511,-2235.8447,-2664.5958,23372.0094
53326.4279,25674.0153,51980.406,39340.7196,34513.6821,36708.3102,4968.1664,49225.8221,44183.4033,55087.924,-2237.1411,-2668.9321,23373.9316
53316.2355,25672.8977,51983.133,39332.7177,34493.5656,36702.0071,4968.4793,49197.8824,44164.8066,55083.8113,-2248.9876,-2681.1808,23370.7577
53297.1025,25667.7568,51979.2885,39320.9606,34479.171,36695.9274,4965.9312,49167.7523,44143.6172,55074.3788,-2259.1352,-2692.4461,23363.5604
53305.5514,25673.4788,51979.6014,39327.3532,34502.1933,36698.3861,4965.2606,49180.4928,44144.0642,55077.0611,-2253.8155,-2685.2041,23367.539
53316.9955,25679.2009,51982.5518,39340.6749,34517.0349,36700.6212,4966.8252,49193.8144,44152.2449,55085.51,-2239.4657,-2670.6755,23371.2494
53310.4688,25677.7257,51980.3613,39336.2939,34503.445,36699.3695,4968.3005,49179.3752,44150.5462,55079.5645,-2241.4327,-2672.6872,23369.4613
53288.5641,25670.2602,51973.2535,39321.3183,34479.4393,36687.7466,4964.5007,49156.9787,44130.832,55069.1932,-2260.0293,-2691.4179,23360.2077
53271.5768,25667.5333,51968.1573,39319.4407,34467.1458,36685.6456,4963.3384,49132.0342,44118.8514,55059.4032,-2269.73,-2696.5588,23357.1678
53281.2774,25675.6693,51966.6374,39327.9344,34483.7755,36690.2947,4966.8252,49145.937,44129.7591,55067.8968,-2254.6649,-2683.863,23367.7179
53295.7613,25680.6314,51965.4304,39334.8634,34506.8872,36692.977,4966.11,49164.623,44129.9826,55076.2117,-2244.8301,-2676.7999,23368.1202
53284.6749,25678.2174,51962.0776,39332.8965,34502.1486,36686.6738,4962.7125,49146.831,44125.6016,55065.0358,-2247.7359,-2682.8349,23361.7723
53271.5768,25667.9803,51958.4566,39326.3698,34477.2935,36682.114,4959.2257,49111.3365,44113.8893,55051.893,-2261.9516,-2696.9165,23357.302
53259.9092,25662.6159,51954.3439,39314.2551,34465.4024,36677.4648,4955.4706,49096.8525,44104.0099,55041.0748,-2272.0993,-2704.3819,23353.9045
53267.1064,25667.0862,51951.9746,39317.1161,34481.0486,36681.1305,4951.8049,49107.492,44103.0264,55040.0913,-2262.7115,-2693.3402,23357.0784
53283.7808,25672.093,51954.7909,39331.7789,34500.4946,36689.2219,4951.8049,49116.5668,44105.0828,55043.1311,-2249.3899,-2682.9243,23362.4429
53272.8285,25659.5761,51950.857,39326.9509,34485.5636,36678.9848,4944.2947,49099.1324,44096.0079,55035.5315,-2253.2791,-2692.9379,23352.921
53253.4719,25646.6568,51944.1068,39314.1657,34460.2615,36669.9994,4936.114,49071.8186,44082.284,55027.0379,-2272.591,-2714.0826,23343.6227
53243.2795,25644.5557,51942.0952,39309.8742,34445.554,36673.9333,4934.7281,49058.9887,44076.3384,55026.2332,-2278.1342,-2716.6754,23345.6343
53265.1395,25640.4877,51943.8386,39318.2337,34454.9865,36680.0576,4938.215,49072.4891,44083.178,55030.1224,-2269.2829,-2699.6881,23351.267
53282.8867,25646.3885,51947.8619,39331.2871,34471.3926,36686.9867,4944.697,49093.6339,44095.7844,55034.9504,-2254.2626,-2687.5287,23357.6596
53278.6846,25648.4449,51944.5539,39337.6797,34476.1312,36687.6125,4945.0994,49083.9779,44094.1304,55032.5811,-2253.3685,-2688.244,23357.2125
53257.7634,25640.7112,51941.0223,39321.4524,34457.5793,36682.4716,4944.9205,49058.0946,44081.4346,55025.4732,-2265.8855,-2695.4859,23354.7091
53244.0394,25630.2506,51937.4013,39306.4767,34439.7426,36674.7379,4941.5231,49054.116,44072.4939,55022.5675,-2272.2334,-2700.6269,23351.8481
53268.0452,25641.3817,51941.9163,39322.8382,34465.1788,36686.5844,4946.8428,49080.6252,44091.18,55028.6919,-2251.6698,-2687.7075,23358.0619
53286.5971,25644.1087,51941.2905,39332.2706,34475.5948,36690.6971,4946.7534,49098.9983,44097.1255,55029.2283,-2239.0634,-2680.3762,23360.7888
53269.9227,25630.787,51937.3566,39322.4359,34460.7532,36677.1519,4944.6076,49090.9964,44087.559,55028.0213,-2250.4181,-2689.2722,23355.9608
53254.0083,25623.4109,51937.1331,39309.3824,34436.4792,36671.6981,4943.0877,49067.3482,44073.7009,55023.6404,-2262.8456,-2697.7658,23353.9939
53245.0229,25623.6345,51938.8318,39305.7168,34434.2887,36670.2229,4942.9089,49051.4785,44069.32,55022.4334,-2267.2266,-2698.794,23351.8481
53266.3465,25626.6296,51939.5471,39319.2619,34461.4238,36674.1121,4944.4735,49054.876,44077.7242,55028.1107,-2258.0177,-2690.7921,23356.7208
53291.291,25628.1495,51939.2788,39329.9907,34479.1263,36673.4862,4944.0265,49075.2161,44087.7378,55030.48,-2248.2276,-2682.7008,23359.2689
53283.155,25624.752,51934.8085,39322.4806,34468.1293,36670.8487,4942.1489,49066.4095,44084.6533,55028.0213,-2249.971,-2685.8747,23356.1397
53273.946,25621.0417,51932.171,39315.6409,34447.521,36668.1665,4944.5629,49053.2666,44073.7456,55022.8804,-2258.1965,-2695.933,23353.1445
53270.3698,25620.5052,51931.1875,39305.7615,34439.1614,36671.0275,4942.0148,49048.6175,44073.835,55020.0641,-2262.935,-2701.2974,23353.0104
53278.6399,25621.7122,51926.0466,39312.8246,34452.1254,36677.0625,4940.4502,49056.977,44079.5571,55024.1321,-2260.1634,-2694.6813,23353.8151
53299.8294,25630.6529,51932.3051,39334.5058,34483.999,36684.3045,4946.7087,49083.4862,44100.7018,55035.3527,-2235.9341,-2677.8281,23360.8335
53289.8158,25616.7501,51929.9805,39325.4757,34473.0467,36669.9994,4939.6902,49075.3949,44097.0361,55031.5976,-2243.1761,-2685.7853,23352.6528
53275.7342,25609.1505,51931.6345,39310.0977,34456.1934,36669.91,4943.9371,49050.4503,44091.4929,55028.6025,-2256.1401,-2694.9495,23353.2339
53274.6613,25605.9766,51932.8415,39307.2814,34444.5705,36667.6301,4948.0498,49043.6554,44081.7028,55024.6686,-2262.8009,-2700.2245,23358.1066
53287.0442,25602.6238,51934.0038,39314.7916,34458.5627,36666.736,4947.2898,49051.1656,44091.7611,55031.7764,-2252.5638,-2691.1497,23361.5041
53297.6389,25607.9882,51932.8862,39320.8712,34473.449,36663.0256,4946.7981,49061.358,44103.2946,55038.3925,-2238.0799,-2680.9126,23361.9958
53298.533,25615.9008,51936.6413,39321.3183,34478.9475,36667.4513,4951.1343,49060.6427,44106.0662,55042.6841,-2239.5998,-2676.6211,23363.6945
53282.7973,25618.27,51936.5072,39312.4223,34457.7134,36665.9313,4951.3131,49041.599,44100.4336,55036.6491,-2255.3802,-2687.2605,23358.956
53272.3367,25616.0349,51937.5354,39310.5,34448.2362,36667.943,4953.9506,49040.3473,44099.6736,55037.3644,-2262.6221,-2692.8931,23362.3981
53291.8274,25622.5616,51944.3303,39325.5651,34468.6657,36680.3706,4955.7388,49074.8137,44119.4773,55047.9144,-2248.0041,-2679.0798,23373.7975
53312.1675,25634.0504,51947.5937,39338.7526,34491.8221,36690.7418,4959.8962,49106.6873,44136.2858,55054.4858,-2231.1956,-2665.4005,23377.2844
53313.7769,25645.5392,51950.6335,39342.2395,34493.4762,36696.5979,4966.2888,49119.5172,44145.0924,55058.5538,-2231.1956,-2664.8641,23378.7596
53304.4785,25649.026,51956.6685,39337.3221,34472.689,36699.5931,4971.3403,49107.8943,44145.9417,55058.0174,-2245.6348,-2676.1293,23376.9715
53305.5067,25650.0989,51956.6685,39333.9247,34461.7367,36703.0799,4968.1664,49102.2617,44131.6366,55056.6316,-2252.4744,-2683.3266,23373.4846
53322.9411,25660.5148,51958.6354,39348.4086,34479.9757,36707.2821,4968.524,49118.1314,44142.9913,55058.6432,-2236.6494,-2667.2333,23378.7149
53340.7778,25670.5284,51962.2564,39365.083,34502.7298,36714.2558,4971.3403,49134.0458,44152.6026,55063.3371,-2219.4386,-2651.9001,23380.5478
53343.9517,25672.0483,51960.8259,39360.6126,34501.0757,36723.2859,4971.9661,49134.9846,44143.5277,55065.4382,-2222.7466,-2656.2363,23378.9384
53326.6962,25675.4011,51963.7316,39348.8556,34483.5073,36724.3141,4973.3073,49125.0604,44137.6716,55064.7229,-2241.2539,-2669.8709,23375.8539
53322.047,25683.1795,51967.2632,39349.9732,34483.7308,36728.6503,4975.9895,49121.35,44137.2693,55060.2973,-2246.8418,-2675.7717,23376.9715
53341.7165,25692.2096,51970.0795,39360.3444,34505.0544,36737.7698,4977.5094,49147.1887,44157.6093,55063.5606,-2232.2237,-2664.73,23379.1173
53360.8943,25698.9598,51972.4041,39377.3764,34525.2603,36746.8894,4981.0857,49172.4908,44178.3071,55072.9036,-2216.8905,-2648.9943,23386.8062
53362.0566,25708.124,51977.2321,39382.9644,34533.5305,36747.1576,4985.556,49180.0457,44175.9825,55075.7647,-2215.3705,-2644.9263,23391.2319
53348.5115,25705.8889,51978.6626,39370.3133,34511.2681,36738.798,4983.2761,49157.1575,44156.2235,55066.4216,-2232.7602,-2657.4433,23385.7781
53346.4104,25710.8063,51981.3448,39365.2618,34502.8639,36736.8311,4983.902,49150.1838,44153.8095,55063.8735,-2242.3714,-2664.3723,23381.9783
53360.9837,25720.5069,51981.0766,39372.1461,34521.2817,36741.972,4983.4549,49174.1002,44171.9145,55070.6685,-2234.1013,-2657.3539,23386.6274
53373.7242,25724.1279,51984.6082,39383.5902,34537.6432,36747.3364,4987.2994,49194.8873,44181.1681,55079.8774,-2220.2879,-2645.1498,23388.2815
53369.7456,25714.3825,51988.6762,39382.9644,34534.7375,36744.7436,4989.4005,49193.0991,44176.6083,55080.4585,-2222.5231,-2646.4462,23387.745
53352.9818,25702.9384,51991.4031,39369.2404,34512.0281,36734.7747,4988.1488,49173.2955,44160.381,55073.753,-2235.9341,-2656.6386,23382.8276
53345.6057,25710.8957,51997.1699,39363.7866,34504.1156,36734.1489,4990.7863,49171.5521,44156.6259,55073.753,-2236.0235,-2655.2081,23384.6605
53356.0216,25720.641,51998.9133,39371.7438,34523.4722,36738.7086,4996.6872,49193.725,44169.2322,55086.1359,-2224.7583,-2646.938,23389.4885
53369.5221,25720.7304,51997.5275,39381.668,34542.4265,36739.6027,5000.5764,49211.8746,44184.6102,55090.2486,-2214.5659,-2643.6299,23390.8296
53364.9176,25723.5467,52003.8307,39381.0421,34543.1417,36740.9885,5004.1527,49214.5568,44186.8454,55093.646,-2211.7943,-2643.4958,23392.0813
53344.9352,25714.919,52000.3885,39364.5018,34517.7948,36723.42,4998.0283,49186.7959,44179.4246,55087.7005,-2230.3909,-2657.5327,23386.2698
53339.1237,25712.9073,51999.5391,39358.2433,34510.1058,36719.352,5000.2187,49181.2974,44173.9261,55086.2253,-2238.974,-2658.6056,23388.9073
53351.7748,25716.5283,51998.1533,39368.6593,34528.2555,36727.3986,5002.9457,49197.346,44184.4314,55089.891,-2220.6455,-2650.3354,23394.5847
53358.838,25717.1988,51993.683,39377.6447,34544.751,36731.0643,4996.5084,49206.242,44186.8454,55094.5848,-2213.7612,-2645.5075,23394.4058
53346.4998,25710.4486,51990.4643,39368.8381,34541.2195,36723.1965,4991.7698,49199.0447,44182.6433,55093.3331,-2224.9371,-2654.4482,23387.2086
53332.15,25701.5526,51987.1563,39355.1588,34515.9173,36716.8933,4987.2994,49172.9379,44169.4558,55085.7335,-2239.7786,-2668.038,23380.1007
53324.1928,25698.0658,51984.3847,39350.0626,34503.9368,36712.6465,4982.3821,49158.5433,44160.828,55081.889,-2243.5337,-2674.4753,23372.7247
53338.3191,25700.3456,51987.201,39353.1919,34524.1874,36717.3404,4982.7844,49175.9777,44174.6861,55087.2982,-2235.3083,-2663.8359,23372.5011
53361.3414,25702.9831,51992.5207,39364.0548,34543.097,36726.1916,4992.3509,49205.7949,44198.2448,55095.166,-2221.2714,-2656.8174,23378.6255
53356.7369,25707.23,51998.3321,39370.0898,34544.5722,36725.5211,4998.4753,49205.5714,44200.8823,55098.787,-2225.3841,-2656.9963,23379.9666
53341.5377,25710.9404,52001.7296,39363.3842,34522.891,36725.4317,4999.6823,49185.4101,44189.9747,55092.5732,-2242.1926,-2661.4666,23380.1454
53336.3968,25711.4768,52005.0377,39361.2385,34512.4751,36727.3986,5000.5317,49180.9398,44187.7395,55094.1825,-2243.2655,-2663.7465,23383.7217
53356.7816,25720.9539,52015.0959,39374.2025,34530.58,36738.6639,5009.6512,49209.7288,44198.0213,55104.2408,-2223.3278,-2645.5075,23396.8645
53381.0556,25729.2241,52020.2816,39388.15,34555.3905,36749.9739,5018.1001,49233.377,44219.8366,55115.2378,-2207.4133,-2626.5085,23407.1016
53381.9497,25728.4641,52015.99,39389.5805,34553.1553,36749.5716,5016.8037,49230.5607,44216.2603,55115.1931,-2209.3356,-2626.8661,23404.4641
53356.5134,25714.159,52004.0542,39373.219,34525.3944,36736.8311,5006.2537,49200.6093,44193.7745,55099.5469,-2230.8826,-2643.5852,23392.2601
53348.4221,25710.2698,52005.44,39376.3036,34517.3031,36738.798,5005.9408,49190.0593,44192.9251,55099.0999,-2230.2568,-2643.8087,23393.6012
53373.4113,25724.8878,52012.5479,39387.3006,34541.89,36747.4705,5014.1215,49204.722,44204.7715,55104.7772,-2212.8671,-2634.4657,23396.9986
53387.9846,25730.3417,52013.7548,39394.0955,34556.9104,36752.9243,5016.2673,49224.5257,44213.6675,55108.7111,-2204.8205,-2628.5648,23398.5186
53379.6251,25721.5351,52012.1455,39388.15,34548.0144,36748.1411,5009.07,49218.4907,44203.6092,55103.0785,-2210.319,-2638.7125,23393.333
53361.8331,25717.5118,52012.4584,39382.0256,34525.0815,36739.3792,5008.7124,49197.346,44197.1719,55099.1893,-2223.9536,-2651.6765,23390.2037
53351.3278,25717.5118,52015.0959,39383.0538,34519.583,36740.0497,5008.8912,49194.172,44202.3128,55098.6528,-2228.1557,-2650.6037,23393.1541
53365.32,25718.8976,52018.3593,39391.2345,34542.5606,36747.0682,5008.5336,49208.9689,44208.1243,55106.8336,-2210.5426,-2639.249,23397.5351
53385.3918,25723.9491,52019.1193,39395.4366,34555.6587,36754.2654,5013.1828,49226.7162,44219.1213,55112.6003,-2197.0421,-2628.2072,23400.1726
53381.905,25727.4359,52020.1474,39396.8225,34553.2447,36752.3432,5016.0885,49222.1117,44219.3896,55115.7296,-2198.562,-2628.4307,23401.5584
53364.5153,25723.2338,52018.9404,39381.0421,34526.6461,36747.2023,5010.8582,49202.7104,44207.0514,55107.0124,-2222.9254,-2643.8534,23393.9588
53352.2218,25716.126,52018.3593,39374.6942,34515.8279,36745.4141,5006.7902,49194.9767,44199.273,55097.6694,-2230.4803,-2650.1119,23391.4554
53372.696,25722.2503,52020.818,39390.0275,34542.8288,36752.5667,5010.9476,49217.3731,44204.7715,55103.2126,-2213.1801,-2638.1761,23394.8529
53383.559,25721.1775,52013.5313,39395.9284,34563.2583,36751.2256,5007.3266,49235.791,44204.995,55106.3865,-2204.8652,-2633.5716,23394.7188
53377.0323,25721.1328,52010.3127,39393.3803,34553.1106,36748.4987,5005.762,49227.9232,44206.1126,55110.7228,-2209.2909,-2638.6678,23389.712
53356.2005,25713.2649,52001.7743,39379.254,34527.5402,36736.7864,4999.6823,49201.9057,44190.7793,55099.681,-2230.3462,-2657.5327,23380.2348
53348.2432,25713.2202,52003.473,39371.6991,34520.3429,36731.8243,4996.6872,49192.071,44187.0689,55091.4109,-2237.0517,-2666.8757,23378.7596
53363.353,25715.7236,52004.9483,39379.7904,34536.7938,36735.2664,4996.106,49215.8979,44198.826,55096.7306,-2224.7583,-2655.1187,23386.7168
53380.9215,25720.7751,52004.4118,39391.9051,34553.7364,36740.2732,4996.7766,49242.9435,44207.7667,55104.1067,-2213.0013,-2642.6017,23395.0317
53382.4861,25721.401,52005.5294,39390.6981,34543.3652,36741.5249,5000.934,49247.995,44215.0086,55110.3652,-2217.2034,-2642.8699,23393.78
53362.2354,25717.7353,52004.7694,39382.6962,34521.7735,36733.2995,4999.9505,49228.1914,44207.3196,55106.3865,-2233.7884,-2653.107,23385.8228
53351.9536,25713.4885,52007.2281,39380.9527,34517.3925,36737.144,5004.0185,49215.4509,44202.7152,55104.3749,-2236.2024,-2658.0244,23386.538
53367.8681,25720.5069,52012.4584,39389.7146,34539.7443,36745.9953,5009.6512,49231.8124,44221.9377,55111.3039,-2219.6174,-2643.4958,23392.3495
53384.0507,25731.5487,52016.2135,39397.6718,34558.5197,36750.5103,5013.0934,49250.3196,44238.7909,55119.0376,-2205.5805,-2629.8165,23394.6294
53382.8437,25731.2357,52016.4371,39394.9896,34554.5858,36745.7718,5008.623,49244.2399,44239.0591,55116.1319,-2211.8837,-2632.007,23389.8014
53365.9905,25725.5584,52014.2019,39382.2491,34531.3847,36735.3112,5002.141,49220.7259,44220.4177,55104.2408,-2231.5532,-2647.5191,23381.5312
53357.8992,25730.0735,52013.5313,39377.3317,34516.4984,36731.6902,5004.3762,49219.8318,44211.1194,55101.9162,-2235.2636,-2654.9846,23383.5429
53372.9643,25736.9131,52014.0231,39388.7311,34543.2311,36743.4472,5009.6512,49239.7249,44225.6927,55109.024,-2220.2432,-2644.0769,23390.159
53388.6552,25732.398,52011.5644,39396.1966,34558.6538,36745.8165,5007.0137,49258.6792,44234.9017,55111.7957,-2213.0013,-2635.7621,23389.4885
53387.3141,25736.5555,52012.2796,39397.94,34555.614,36746.1294,5006.8349,49254.7899,44231.683,55109.6946,-2214.9682,-2638.3996,23388.8626
53369.1645,25727.7489,52011.3409,39391.4133,34540.3254,36739.9156,5006.0302,49235.3439,44214.0251,55102.542,-2227.4405,-2650.1119,23386.8957
53359.1509,25720.0599,52010.9832,39383.4561,34531.3847,36739.0662,5007.2819,49223.8551,44210.0465,55102.7656,-2230.078,-2650.6037,23387.298
53369.8797,25723.4573,52014.8724,39393.4697,34545.8686,36747.4258,5011.8864,49241.6471,44225.6927,55111.9298,-2215.4599,-2637.4608,23394.4505
53383.4696,25727.3018,52016.7053,39402.3657,34559.4138,36750.555,5012.8698,49264.1777,44237.0474,55116.9813,-2203.3006,-2626.0167,23400.3961
53375.8253,25725.2455,52017.0182,39396.8225,34557.0892,36747.2023,5011.6181,49262.4789,44234.097,55114.3438,-2207.0557,-2629.2354,23397.401
53362.0566,25721.6692,52013.6207,39384.7972,34530.9377,36746.1294,5010.6347,49244.9552,44223.4129,55105.0901,-2222.0314,-2637.9079,23392.4836
53361.1625,25718.6741,52013.9784,39385.3337,34522.0417,36749.3033,5012.5569,49244.6423,44221.5353,55103.6596,-2225.1606,-2646.4462,23393.4671
53378.8651,25719.5681,52015.5877,39396.0178,34541.4877,36754.8913,5015.4179,49266.2787,44227.4362,55109.8734,-2211.526,-2638.7125,23395.6128
53390.1304,25721.3116,52015.4089,39401.0246,34554.407,36753.3714,5014.0321,49279.1533,44236.2875,55113.405,-2203.39,-2633.4822,23393.8694
53390.3986,25727.2124,52017.5546,39401.2481,34555.7928,36753.4608,5015.0156,49278.5275,44235.6169,55114.9696,-2205.3123,-2634.5104,23396.2834
53374.7077,25723.9491,52016.7053,39391.8157,34538.7161,36749.4375,5012.5569,49263.0601,44226.6315,55108.6217,-2223.7301,-2648.0556,23391.0531
53368.2704,25716.8412,52017.4652,39383.5902,34525.2603,36745.4141,5010.7241,49250.0961,44223.1894,55102.9891,-2233.0731,-2649.2178,23386.1804
53378.7757,25721.8033,52018.6722,39397.6718,34545.2428,36750.8233,5010.9029,49272.7607,44228.9114,55103.7937,-2220.6903,-2639.696,23389.0861
53391.5162,25727.5701,52020.9074,39407.9089,34569.025,36756.2324,5017.0273,49290.6868,44243.2165,55113.6285,-2206.6087,-2629.7718,23393.2436
53393.4385,25726.8101,52024.886,39409.2053,34565.3594,36756.7241,5018.2343,49284.6966,44248.0445,55115.1037,-2205.044,-2630.6659,23397.9374
53383.3802,25721.3563,52027.6129,39400.5328,34549.132,36750.4656,5018.4578,49263.8201,44233.5606,55108.0853,-2219.8409,-2643.0935,23398.0715
53379.2675,25716.0366,52023.6343,39397.4483,34537.822,36754.8019,5019.6201,49249.7832,44226.5421,55100.5751,-2220.8691,-2646.0439,23398.7421
53394.1984,25723.5467,52023.4555,39407.0596,34551.2331,36763.1614,5020.3353,49265.6529,44242.0095,55100.5751,-2201.5125,-2629.0566,23402.3184
53398.0876,25726.8548,52018.9404,39415.0168,34563.9288,36760.8368,5016.8931,49284.3837,44254.2136,55107.1912,-2198.6067,-2620.3394,23403.5701
53385.5259,25721.8927,52017.8676,39409.8759,34561.649,36753.9078,5014.8368,49288.6752,44253.0513,55113.9414,-2203.39,-2628.386,23400.5749
53367.3763,25707.0959,52015.5877,39389.1782,34533.3964,36741.6143,5006.7902,49258.5897,44231.5936,55104.1514,-2223.4172,-2646.625,23390.4719
53354.4123,25696.3223,52011.7432,39381.7574,34523.2934,36738.4851,5002.2304,49238.8755,44219.5237,55095.166,-2235.3977,-2653.2859,23386.091
53367.8234,25700.1668,52009.3292,39387.9265,34537.5985,36740.6309,5000.5764,49257.1145,44228.4644,55098.4293,-2225.2947,-2644.971,23387.3427
53375.9147,25704.5925,52005.5294,39390.251,34554.0047,36738.9321,4996.3295,49264.6247,44235.7063,55103.3467,-2218.0974,-2638.8019,23388.1921
53371.9808,25699.9433,52006.1553,39387.6582,34549.8919,36738.798,4997.0001,49261.1378,44232.6665,55107.5041,-2219.3491,-2644.3005,23388.4603
53359.9555,25688.1863,52006.3341,39380.8633,34524.9027,36736.2052,4995.5249,49241.9153,44214.9639,55099.4575,-2235.6659,-2662.4054,23382.5147
53356.0216,25687.1581,52006.2,39374.5601,34507.9154,36733.8359,4992.7533,49236.0145,44216.1709,55090.9638,-2242.595,-2669.6473,23378.2232
53379.0439,25696.9482,52008.7034,39385.6019,34531.2953,36738.2616,4996.2848,49248.6656,44230.7889,55102.0056,-2227.4852,-2653.107,23381.8442
53394.6455,25706.5147,52012.9949,39398.0742,34545.4216,36745.6377,5001.381,49268.6033,44244.5576,55108.8452,-2218.2763,-2637.5502,23387.9238
53376.7194,25703.6984,52011.1173,39392.7544,34544.0805,36744.9224,4999.5482,49269.6315,44233.9629,55097.5353,-2224.6689,-2645.3733,23383.9005
53360.2238,25695.2494,52012.1008,39383.9478,34525.7968,36737.9487,5000.3976,49252.5548,44227.4809,55099.9492,-2240.8962,-2660.1702,23383.0959
53360.3579,25699.6751,52011.7879,39381.4892,34522.444,36740.8097,5003.0351,49247.0562,44228.4197,55101.2456,-2240.2704,-2661.2878,23385.6887
53378.2393,25707.4535,52012.6373,39390.3852,34546.6286,36748.1858,5002.4986,49262.5684,44230.2525,55101.8715,-2226.0547,-2650.7378,23385.7334
53388.4317,25708.5711,52009.8656,39396.5095,34562.2748,36752.2091,5000.7105,49281.6567,44233.2476,55098.6528,-2220.4667,-2643.2723,23384.7052
53378.1499,25697.0376,52005.7529,39385.2443,34551.5907,36749.7504,4995.212,49279.2428,44225.648,55094.853,-2229.7651,-2649.2178,23382.3806
53358.7933,25689.7509,52002.9366,39377.1976,34518.6442,36743.9836,4994.7649,49257.1145,44218.1826,55086.6723,-2242.8632,-2660.9302,23376.4797
53352.7583,25693.3719,52004.233,39375.4542,34508.5412,36744.6542,4995.6143,49245.6257,44217.512,55089.3098,-2246.0818,-2663.4783,23376.1668
53374.3054,25709.5546,52010.8491,39391.7263,34536.4809,36756.7241,5000.2187,49280.3603,44239.6402,55098.787,-2226.2782,-2646.178,23385.0181
53389.5046,25713.5779,52010.2233,39400.2199,34551.0095,36757.1712,4999.5482,49303.6956,44250.2797,55101.9162,-2219.8409,-2639.8301,23386.9851
53384.3637,25707.9005,52014.4701,39397.4036,34541.5324,36756.0536,5000.4423,49297.2136,44252.0678,55106.923,-2222.9254,-2642.6911,23386.538
53376.2723,25705.7995,52016.7053,39392.0392,34522.8463,36756.9923,5000.174,49273.3866,44245.7199,55100.9327,-2231.6873,-2650.3354,23385.6887
53373.8583,25698.6469,52016.0347,39385.4678,34520.6559,36749.661,4997.9836,49260.2885,44238.925,55095.0766,-2236.8282,-2653.6435,23385.0628
53383.2461,25703.7431,52016.7947,39395.7943,34537.6432,36754.8466,4999.5482,49278.3934,44246.4799,55099.9492,-2224.7136,-2642.0653,23387.9238
53411.2751,25710.2698,52018.0464,39413.4969,34557.7151,36763.5638,5003.4374,49302.8462,44258.5498,55104.0173,-2208.6203,-2632.0517,23393.2883
53399.4734,25703.8772,52016.8841,39411.664,34555.4352,36759.3169,5003.7056,49304.3214,44251.3078,55108.7111,-2211.1237,-2631.56,23396.0152
53373.4113,25697.7975,52014.5148,39404.4667,34538.4479,36752.2538,5002.588,49291.0892,44238.8356,55105.4478,-2223.4172,-2642.9147,23392.8412
53369.5221,25699.7198,52016.3476,39395.5261,34534.6928,36751.7173,5000.4423,49282.9084,44232.9347,55104.1514,-2228.111,-2651.2295,23389.3991
53381.7708,25709.3757,52018.5828,39405.1373,34555.7034,36764.1896,5005.3149,49311.2057,44248.9386,55113.3156,-2212.4201,-2638.1761,23394.2717
53394.869,25715.4107,52016.9735,39417.0731,34569.6062,36767.1847,5007.1031,49337.6255,44258.5498,55113.8967,-2202.7194,-2629.146,23396.0152
53387.627,25709.5546,52009.508,39411.7534,34556.7316,36758.244,4998.1177,49333.0657,44246.6587,55112.7344,-2213.0013,-2634.4657,23389.3096
53365.7223,25697.6187,52004.4118,39399.8176,34535.7209,36749.7951,4993.9603,49310.5799,44232.8006,55107.9065,-2232.7602,-2649.7543,23380.3689
53358.6591,25697.9316,52008.0775,39394.2744,34521.6393,36750.8233,4998.0283,49303.6956,44239.2826,55107.5935,-2237.9011,-2654.6717,23384.437
53375.4677,25697.9316,52007.0046,39402.3657,34539.2972,36750.1527,4999.1459,49318.6265,44249.3409,55107.8618,-2226.1441,-2647.5191,23387.9238
53385.0342,25692.0308,51995.8735,39406.3443,34550.8307,36744.7436,4995.4802,49323.8568,44247.6869,55104.2855,-2221.6737,-2645.6416,23386.538
53371.3996,25688.991,51991.3584,39405.9867,34548.2379,36741.0332,4989.8475,49314.782,44233.6053,55094.8977,-2226.8593,-2649.1731,23381.3077
53351.2831,25689.6168,51994.3088,39398.9682,34529.0601,36738.7086,4987.6571,49289.7034,44212.1923,55083.4537,-2239.0634,-2659.4102,23377.5973
53347.8856,25692.5225,51995.2476,39395.6602,34519.3595,36743.4472,4992.1721,49277.6781,44208.9736,55086.7617,-2241.7009,-2661.2431,23379.162
53362.4589,25697.9764,51993.5936,39407.4172,34536.3468,36753.3714,4996.9107,49295.5148,44226.9444,55095.8812,-2229.2733,-2649.352,23383.0065
53383.7378,25700.0327,51996.6781,39417.0284,34557.6257,36757.35,4999.3247,49315.4079,44243.0824,55100.3516,-2220.5114,-2643.1829,23388.6391
53385.6601,25705.9336,52000.0309,39412.9604,34551.5907,36757.037,4997.8942,49317.4195,44242.5013,55102.7656,-2227.6193,-2648.4132,23387.1639
53374.1266,25708.7052,52003.9201,39401.2928,34528.3449,36752.6561,4996.419,49304.7684,44235.4828,55102.8997,-2234.5036,-2658.7844,23385.9569
53369.9691,25706.6488,52004.5012,39393.2909,34511.134,36754.6678,4994.2285,49297.7053,44229.4925,55100.0386,-2239.5104,-2662.5842,23384.7499
53389.5046,25711.0298,52003.7413,39400.0411,34529.0601,36769.4199,4994.899,49316.1678,44237.271,55105.8948,-2224.3112,-2647.0274,23389.8908
53409.7552,25715.8577,52005.5294,39418.7719,34548.5955,36778.1818,4995.9719,49335.9715,44248.7597,55111.2145,-2204.2841,-2631.5153,23395.1658
53406.9389,25717.8247,52008.3904,39414.7038,34543.097,36774.4714,4994.7649,49330.3388,44243.9765,55109.0688,-2206.5192,-2638.489,23393.7353
53379.2675,25704.4137,52003.3389,39395.3472,34517.0349,36761.1498,4987.9253,49296.4536,44228.4197,55098.2058,-2224.6689,-2654.9399,23387.4321
53372.1149,25702.2679,51999.8968,39390.1616,34508.5859,36763.1614,4986.8524,49286.0824,44224.7987,55092.1708,-2232.6708,-2661.9136,23385.331
53385.973,25711.9238,52003.2942,39406.4337,34535.6315,36769.1964,4992.8427,49314.2456,44232.6218,55099.6363,-2220.1538,-2644.4793,23390.919
53402.1109,25715.5001,52006.4682,39414.2568,34563.1242,36769.3305,4997.1342,49341.8723,44236.958,55098.9658,-2209.0673,-2634.4657,23393.1988
53395.1819,25712.0132,52003.6966,39407.1937,34553.2447,36763.9214,4995.7037,49330.92,44228.1961,55090.1592,-2212.9118,-2638.0867,23393.2883
53375.7359,25713.6226,52006.6917,39398.6106,34530.3118,36759.1381,4998.1624,49305.886,44218.1826,55097.2223,-2226.7699,-2645.0157,23389.9355
53360.7155,25715.6342,52011.5644,39395.9731,34521.2817,36756.0089,5000.0399,49286.6635,44205.5762,55093.0649,-2231.4638,-2647.5191,23388.1027
53360.4473,25719.2552,52010.715,39400.0858,34540.8171,36751.0021,4999.9058,49303.6062,44208.616,55094.4954,-2217.114,-2639.6066,23389.0414
53368.4045,25722.0715,52010.3574,39409.5182,34562.4089,36756.4112,5000.934,49314.4691,44215.098,55097.6247,-2206.7428,-2631.0682,23394.54
53368.9857,25724.1726,52014.1125,39410.904,34558.1621,36754.7125,5003.348,49299.404,44212.3711,55100.9774,-2208.7991,-2632.0964,23395.5234
53351.8195,25717.9588,52013.3078,39396.1966,34538.269,36749.3033,5002.3645,49264.8035,44197.5296,55097.6247,-2225.2053,-2646.625,23389.1755
53334.6534,25716.3942,52008.1222,39388.2394,34525.9309,36740.9438,5005.9855,49251.1243,44190.8687,55094.2719,-2232.1343,-2651.6765,23385.4651
53336.8886,25720.9986,52007.1834,39389.8934,34537.062,36741.8379,5007.2819,49266.6364,44194.445,55093.6908,-2224.9818,-2644.8369,23386.8957
53354.0994,25729.4476,52011.2962,39405.2714,34557.9386,36747.8728,5010.6794,49286.6188,44193.3274,55097.2223,-2209.872,-2633.1246,23394.1823
53351.3278,25730.1182,52008.5245,39402.0975,34553.5129,36748.6328,5011.5287,49275.5324,44188.2312,55095.8365,-2210.0955,-2634.2422,23392.6177
53331.8371,25724.4408,52004.6353,39385.9148,34533.3964,36739.6027,5009.4277,49248.9785,44172.8085,55088.4604,-2228.2004,-2647.7873,23388.6391
53316.4144,25720.2834,52007.7199,39380.3269,34522.6675,36736.6076,5010.7688,49233.6899,44165.5219,55090.1592,-2234.1907,-2650.3354,23391.5448
53332.0159,25732.398,52011.1173,39396.4648,34547.8356,36742.8213,5021.587,49255.684,44183.7609,55102.0056,-2215.3705,-2639.7407,23402.3184
53349.1373,25737.7625,52009.9103,39404.2432,34562.4536,36742.8213,5023.3752,49267.3069,44187.6054,55104.4643,-2207.6368,-2627.8496,23406.8781
53331.8371,25727.6148,52002.4002,39395.0343,34543.7676,36736.1605,5015.552,49248.6209,44185.9961,55094.2272,-2222.7019,-2636.8797,23397.8033
53308.8148,25717.02,52000.2991,39386.2724,34519.4042,36729.4103,5011.3946,49215.2721,44163.4208,55085.1524,-2239.8233,-2656.3257,23389.8461
53298.3094,25720.0599,52003.1601,39384.6184,34508.8989,36732.8972,5013.3169,49200.6987,44151.0379,55086.8958,-2241.5221,-2660.7066,23390.8296
53312.8828,25734.2756,52003.8307,39394.3191,34531.4741,36741.7932,5019.8883,49217.6861,44160.6492,55089.3992,-2224.6689,-2648.2791,23392.0366
53336.8886,25746.2114,52007.4964,39406.3443,34550.6072,36754.2207,5025.3868,49238.205,44173.6579,55095.7471,-2211.2131,-2638.3102,23395.5234
53337.7379,25739.0141,52005.1271,39403.7515,34540.1019,36753.1925,5023.3305,49230.963,44168.1594,55088.4604,-2210.8555,-2637.1032,23392.4389
53317.4425,25726.7654,52002.4896,39390.1169,34511.5811,36744.1624,5016.9379,49196.9436,44148.8922,55078.8492,-2226.6358,-2654.7164,23384.884
53310.0665,25720.0152,52002.4896,39384.8866,34503.4897,36739.1557,5014.9709,49177.2741,44136.0176,55071.3837,-2234.4589,-2662.7183,23379.3855
53332.3735,25727.5254,52006.5129,39394.632,34527.4955,36742.3296,5018.8601,49185.276,44142.9466,55067.9415,-2218.8574,-2646.7144,23383.7217
53353.7865,25733.4709,52010.2233,39410.6358,34547.4333,36748.1411,5020.38,49209.1477,44153.899,55072.8142,-2203.837,-2633.7057,23386.2698
53349.4949,25728.3747,52010.6256,39411.4405,34530.9377,36749.6163,5014.345,49198.1059,44150.8591,55075.5858,-2205.6699,-2643.5852,23387.3427
53323.9692,25714.0696,52007.094,39391.6368,34500.2711,36741.1673,5007.8183,49159.3033,44137.4481,55066.2875,-2227.7534,-2661.6007,23384.6605
53315.7885,25709.9569,52007.2281,39386.5407,34489.8105,36736.2946,5007.2819,49148.9321,44129.7591,55065.1252,-2232.1343,-2666.6075,23387.7003
53338.3191,25711.8791,52007.7646,39398.4318,34512.4751,36742.8213,5010.0982,49170.8368,44152.2449,55075.8541,-2216.8905,-2645.1945,23396.8198
53350.9701,25712.4603,52011.0279,39399.7282,34528.7025,36745.1906,5015.0156,49190.1487,44161.8562,55082.202,-2206.5192,-2628.6542,23407.0122
53340.7778,25708.0793,52011.7879,39391.5027,34511.9834,36738.3063,5013.3169,49181.4762,44152.9602,55078.5363,-2213.3142,-2634.5104,23404.6429
53334.1616,25709.7781,52009.1951,39385.5125,34492.3586,36736.6076,5013.898,49159.7056,44150.6803,55077.3293,-2225.0265,-2645.0604,23399.055
53332.6417,25705.5312,52008.7928,39381.7127,34482.0768,36732.1372,5015.865,49146.384,44140.175,55076.4799,-2228.6922,-2645.6416,23396.1046
53353.8759,25708.4817,52012.3243,39391.1898,34506.8872,36737.7251,5018.1001,49162.9243,44151.9767,55081.0397,-2216.0858,-2636.8797,23398.1162
53371.6679,25720.4175,52007.6305,39398.9682,34534.201,36745.3247,5016.312,49190.864,44161.1409,55086.0018,-2202.943,-2629.8165,23398.2056
53358.9274,25718.0035,52004.2777,39392.0392,34527.272,36738.351,5013.7639,49184.0243,44153.586,55084.9289,-2206.9663,-2636.7009,23393.2436
53337.0674,25707.7664,52001.5955,39385.4678,34500.7181,36733.523,5005.2255,49166.9029,44142.0972,55074.4236,-2224.3112,-2652.9729,23379.5196
53329.8254,25696.5905,51995.5605,39379.701,34484.9825,36734.9982,4999.2353,49156.6658,44140.3985,55070.7579,-2235.1295,-2660.3937,23375.9433
53344.8011,25689.6168,51995.0688,39387.7029,34501.9698,36735.8476,5003.0351,49168.5569,44152.6473,55080.7714,-2222.0314,-2650.5142,23384.5264
53354.1888,25694.0871,52002.6684,39394.0508,34523.651,36736.5628,5012.3781,49182.6832,44169.4111,55094.2272,-2208.1286,-2632.4093,23394.7188
53338.7661,25699.0939,52005.3953,39389.4464,34517.2584,36732.2266,5015.9097,49182.9515,44170.9757,55097.3117,-2215.147,-2632.4093,23399.0103
53328.4843,25698.2893,52008.1669,39378.5834,34500.2264,36729.8573,5014.7921,49167.0817,44167.8464,55096.4177,-2228.5134,-2642.1994,23401.022
53325.8468,25694.9365,52004.8589,39369.5086,34489.274,36724.2694,5011.1711,49153.313,44162.5267,55093.5119,-2238.8846,-2648.1003,23397.9374
53343.1917,25701.2397,52001.9084,39374.5601,34503.4897,36730.4832,5008.0866,49163.1031,44165.4325,55096.5071,-2225.697,-2640.5007,23398.295
53356.0216,25709.6887,52005.0377,39385.6913,34520.8347,36738.798,5011.6628,49176.3353,44176.4295,55100.9774,-2211.1237,-2628.6095,23401.2902
