FC3,FCz,FC4,C5,C3,C1,Cz,C2,C4,C6,CP3,CPz,CP4
53513.4673,25819.2569,52093.1482,39514.7502,34591.6897,36863.1184,5063.653,49182.6832,44163.5996,55161.4612,-2109.4233,-2569.9139,23515.9546
53532.4216,25822.1179,52094.3552,39522.7969,34612.2086,36862.3137,5060.3896,49203.8727,44186.1749,55172.3689,-2096.8616,-2558.6933,23519.0392
53553.2534,25834.8584,52095.5175,39538.0855,34628.6148,36867.8123,5065.307,49220.9047,44199.273,55179.4767,-2087.0268,-2547.3833,23524.8059
53549.543,25837.2277,52094.0423,39531.4693,34620.747,36867.6335,5066.2011,49215.8979,44190.1088,55178.7615,-2090.3796,-2555.7429,23524.6271
53532.0193,25828.1529,52092.4777,39515.1973,34587.8452,36858.9163,5056.8134,49195.2002,44179.2905,55169.8208,-2107.3669,-2574.1607,23514.2112
53528.1301,25825.2025,52088.9014,39504.9602,34583.9113,36854.7142,5046.9339,49188.1371,44183.0456,55166.3339,-2114.2066,-2577.424,23509.2044
53545.2068,25831.148,52088.4097,39513.5432,34607.6936,36857.9775,5049.035,49216.032,44193.3721,55171.6089,-2101.6896,-2564.8177,23512.1995
53551.6888,25827.84,52084.5205,39520.4723,34620.1211,36855.9211,5050.9572,49231.41,44196.0096,55169.0608,-2096.0569,-2560.0344,23510.9031
53544.6703,25829.1811,52089.7955,39518.55,34607.8724,36853.8201,5054.4888,49227.8785,44196.1437,55170.536,-2101.3319,-2560.1685,23511.4843
53527.5489,25831.9527,52096.7692,39510.9951,34586.5041,36853.7307,5056.5451,49220.7706,44189.5723,55174.1123,-2109.9597,-2566.6952,23513.5406
53519.6364,25829.941,52095.3387,39508.1788,34589.0075,36855.0271,5053.9523,49212.9475,44195.1603,55171.8324,-2109.0209,-2570.8526,23515.7311
53539.9318,25836.1995,52094.2211,39522.7522,34612.1639,36859.408,5056.724,49237.3556,44212.0582,55178.225,-2095.8781,-2560.9732,23520.0226
53542.7928,25835.2607,52092.2095,39524.9873,34620.7917,36861.5985,5055.5617,49248.3526,44212.9523,55179.4767,-2094.6711,-2556.2346,23517.5192
53534.3885,25831.908,52091.8071,39520.6064,34615.0249,36864.7277,5057.171,49228.1467,44205.3974,55177.4651,-2099.0968,-2556.5475,23515.9993
53516.6413,25823.3249,52089.7955,39508.3576,34594.2825,36858.4692,5051.2254,49206.6443,44187.7395,55167.1386,-2116.2182,-2572.2831,23506.0751
53512.8862,25814.6524,52084.8781,39500.8475,34581.6761,36851.0038,5042.7765,49207.3596,44175.446,55158.9131,-2124.4884,-2584.0849,23498.1626
53523.2574,25817.5135,52084.8334,39507.8659,34601.4351,36853.8201,5041.8824,49228.996,44189.7959,55162.8917,-2109.8256,-2571.2103,23503.1247
53531.8851,25818.9887,52084.5205,39524.1827,34622.8927,36862.2243,5046.5316,49249.5596,44202.7599,55170.536,-2096.3699,-2562.359,23509.8302
53522.7656,25814.9207,52080.4524,39515.1079,34603.8938,36856.6811,5046.7551,49237.2662,44197.2166,55165.7528,-2105.1764,-2571.255,23506.4328
53506.8065,25805.98,52074.8645,39499.1487,34575.82,36846.5781,5041.033,49211.0252,44178.4859,55151.403,-2121.672,-2587.6611,23501.2025
53506.1806,25807.5893,52073.5234,39496.5112,34571.1708,36842.4207,5037.2779,49206.3761,44175.6696,55151.403,-2124.2648,-2587.9741,23500.7107
53522.5421,25816.4853,52071.8694,39508.2682,34595.2213,36847.2487,5034.7298,49222.514,44186.1749,55155.2474,-2115.3241,-2576.0382,23500.7107
53534.8356,25817.1111,52076.4738,39518.2818,34612.1192,36852.9707,5034.2381,49241.2448,44194.892,55157.7508,-2107.4116,-2568.5281,23502.2753
53523.168,25808.2598,52082.1959,39515.0185,34604.8772,36854.1777,5039.7813,49231.6335,44191.8075,55158.3767,-2115.9947,-2573.3113,23502.4095
53510.6063,25808.9304,52084.2969,39506.3013,34584.716,36853.8648,5044.6093,49215.8532,44187.203,55159.5837,-2125.2483,-2582.7885,23502.5883
53511.098,25810.9421,52083.5817,39502.5462,34582.7043,36858.0222,5046.1292,49218.7589,44184.9679,55157.572,-2117.0229,-2581.4474,23500.9342
53529.7394,25821.0003,52085.8616,39514.4373,34609.5711,36864.1913,5049.4373,49246.9221,44200.5247,55164.5011,-2101.4214,-2566.5164,23505.3599
53545.5644,25831.4162,52085.9957,39523.1992,34624.9044,36871.0309,5051.0913,49265.6082,44201.1505,55170.2231,-2096.8169,-2559.1403,23510.7243
53536.6684,25828.0188,52086.7556,39515.9572,34608.4535,36869.958,5050.8678,49249.202,44197.7084,55170.089,-2104.3718,-2565.8906,23509.8749
53518.7423,25824.3531,52090.1084,39507.4636,34591.4215,36866.5159,5048.4538,49237.1768,44190.1535,55166.8704,-2117.7828,-2573.5348,23507.2374
53525.582,25827.84,52093.6847,39513.0068,34598.7529,36871.8356,5055.8746,49245.7151,44198.0213,55171.5642,-2110.4962,-2566.9634,23510.5008
53545.8326,25832.355,52091.3154,39521.9922,34620.2105,36877.5576,5057.3051,49268.8715,44213.3546,55178.4933,-2096.0122,-2557.8886,23513.5853
53549.3195,25839.1947,52093.4165,39529.7706,34630.2688,36881.5362,5059.8085,49295.6489,44222.5635,55178.7615,-2085.3728,-2551.049,23517.0722
53540.2,25843.8438,52093.1035,39530.3518,34621.9093,36880.2845,5065.6199,49287.7811,44221.2671,55175.2746,-2087.9209,-2551.1831,23516.8934
53522.9892,25840.0887,52091.8071,39519.757,34593.3884,36874.9201,5064.413,49263.0601,44212.997,55170.6702,-2104.4165,-2562.2696,23512.8701
53532.511,25835.2607,52094.0423,39520.3829,34593.6567,36878.7199,5067.8104,49260.5567,44217.959,55178.4039,-2102.6284,-2554.7147,23516.6699
53556.6956,25841.0722,52096.0093,39536.2526,34625.0832,36889.4041,5066.2458,49279.2428,44223.6364,55179.2085,-2087.1162,-2543.0471,23520.3356
53558.9755,25839.9099,52093.8188,39535.9397,34635.4544,36886.8113,5061.5966,49286.2165,44222.34,55177.9121,-2088.3679,-2542.2424,23517.7875
53540.2447,25832.1762,52093.1035,39527.1331,34615.3826,36878.6305,5059.6297,49275.3536,44215.9474,55183.1871,-2101.2425,-2550.6914,23513.8983
53522.8103,25823.8614,52087.5156,39513.5432,34597.7694,36873.4002,5054.8911,49257.8298,44201.8211,55174.2911,-2115.1453,-2564.9965,23508.5338
53520.4858,25821.5815,52084.9675,39509.8776,34589.9463,36874.2496,5050.3761,49253.5383,44201.3294,55165.9316,-2115.1453,-2563.8342,23507.0586
53532.8686,25824.6213,52080.4971,39515.3314,34605.3243,36869.8686,5046.0845,49273.6548,44211.8794,55169.329,-2101.5108,-2552.5689,23506.9245
53544.9833,25828.2423,52082.9111,39526.8649,34623.4292,36870.718,5050.0631,49289.1222,44217.065,55170.4466,-2091.1843,-2542.7341,23512.0207
53532.9133,25818.8993,52079.5137,39519.0865,34610.5099,36862.6267,5045.5481,49278.8851,44204.7715,55169.6867,-2104.6847,-2554.4018,23507.5951
53514.6296,25811.4785,52074.3281,39508.3576,34587.3982,36859.8104,5041.7036,49259.752,44193.8639,55166.468,-2121.5379,-2570.4056,23503.84
53515.1213,25816.6194,52074.0151,39509.2517,34587.6664,36860.4362,5039.5578,49260.2438,44192.4334,55161.5059,-2122.8343,-2576.7982,23501.1578
53529.65,25816.6194,52074.0151,39515.242,34605.816,36862.8502,5034.3722,49274.6383,44207.8114,55170.4019,-2110.8985,-2565.3094,23504.5552
53539.6636,25821.8944,52075.6245,39524.7191,34620.5682,36867.4099,5036.9203,49288.1387,44227.3468,55178.2697,-2100.572,-2554.7594,23509.7408
53529.0688,25816.4406,52080.2736,39517.7901,34598.8423,36864.3701,5035.4004,49272.8949,44220.2836,55175.7216,-2109.7362,-2562.2249,23506.3434
53515.6131,25810.9421,52083.1794,39512.7386,34575.9541,36859.1845,5039.4684,49255.9522,44207.409,55163.9199,-2125.9636,-2576.977,23499.772
53516.9095,25808.841,52078.4408,39513.8562,34578.8151,36862.2243,5039.3343,49252.7783,44199.3177,55161.8189,-2129.8081,-2580.6874,23499.459
53529.8735,25810.3609,52079.7819,39522.8416,34603.9832,36869.4216,5038.1273,49274.3701,44209.0183,55166.9598,-2108.7527,-2571.4338,23502.8118
53540.2,25813.356,52080.5866,39534.2857,34620.3446,36876.4848,5041.033,49295.3807,44212.9076,55167.2727,-2098.5603,-2562.359,23504.6893
53530.9911,25816.8429,52082.6876,39534.5986,34613.1921,36871.165,5044.6093,49283.8472,44218.6743,55178.0015,-2098.4262,-2559.9897,23504.5999
53510.7851,25810.7185,52082.8217,39519.9358,34587.7111,36865.1748,5041.1671,49263.8201,44209.1078,55169.5973,-2114.296,-2572.7749,23500.6213
53511.5898,25808.0363,52083.0452,39516.9854,34584.8054,36863.1184,5041.3013,49269.0057,44205.2633,55162.6235,-2119.1686,-2575.6359,23499.5931
53528.5771,25805.5776,52083.7158,39530.5753,34604.2514,36869.6004,5043.5811,49288.1387,44222.4741,55170.7596,-2106.8752,-2560.2132,23504.6893
53532.958,25805.1753,52084.8334,39538.9348,34612.745,36872.9532,5041.346,49295.3807,44228.4197,55175.8111,-2101.2425,-2553.6418,23506.0751
53523.8832,25808.3493,52089.6614,39526.4179,34602.0162,36865.3983,5041.9271,49283.5343,44218.8084,55172.95,-2108.5292,-2556.9052,23505.2258
53516.1942,25806.0247,52093.9976,39513.3197,34577.2952,36859.2739,5041.7483,49259.7073,44207.4537,55165.7975,-2120.5097,-2567.5893,23505.3599
53513.6014,25800.392,52089.0802,39511.3081,34575.6412,36860.168,5040.9436,49258.3662,44207.9008,55164.5011,-2124.2201,-2569.9139,23505.0917
53529.6947,25805.6223,52089.9743,39524.138,34599.781,36861.9561,5042.6871,49285.4565,44216.0368,55168.5244,-2111.3008,-2558.2463,23505.8069
53540.5129,25811.255,52093.1035,39533.481,34607.6488,36866.203,5043.0447,49293.5926,44225.0669,55169.6867,-2105.4894,-2555.3405,23505.8963
53536.7131,25813.8478,52093.5953,39531.6929,34606.9336,36867.4994,5043.8941,49283.9366,44222.8764,55164.6799,-2113.4913,-2557.4863,23506.5669
53523.168,25811.8361,52090.6448,39525.8814,34594.9978,36865.5771,5047.7386,49273.6995,44209.4654,55161.4612,-2122.7449,-2567.7681,23506.5222
53517.8035,25806.7399,52088.5438,39526.552,34597.5459,36876.753,5050.4208,49279.1086,44217.3779,55163.3835,-2118.0063,-2564.773,23511.0819
53541.0494,25820.7768,52090.9131,39534.4198,34619.0929,36885.8725,5053.103,49312.7704,44237.4945,55166.8704,-2104.3718,-2553.5971,23513.183
53559.8248,25830.3881,52090.9131,39543.2264,34630.3582,36890.3875,5053.7288,49329.7577,44244.1106,55167.4962,-2096.6828,-2550.3337,23510.8584
53549.4983,25830.2987,52094.7576,39546.9815,34621.641,36887.5712,5054.0417,49328.6848,44234.6334,55176.7945,-2100.0355,-2552.8371,23511.8419
53531.4828,25828.1976,52096.8586,39543.9863,34605.056,36887.8394,5057.5286,49308.7471,44227.4362,55175.2746,-2107.8587,-2563.2083,23512.6019
53525.7161,25819.1675,52094.7129,39536.7891,34601.2563,36886.9007,5055.0699,49300.8345,44224.1728,55172.9053,-2108.3951,-2567.7681,23510.0538
53531.8851,25818.9887,52089.9743,39537.2361,34616.4107,36879.9716,5051.0019,49315.6761,44230.029,55173.2183,-2099.5438,-2556.9052,23510.2326
53541.3176,25822.2073,52085.2804,39545.6403,34630.5817,36877.9153,5046.4869,49326.2261,44229.8502,55176.3922,-2090.5137,-2548.1433,23512.0654
53533.4945,25823.3249,52086.3086,39540.0971,34624.6809,36880.7316,5046.308,49302.0415,44228.4197,55171.6536,-2098.5603,-2553.1501,23511.8419
53532.7345,25814.9654,52087.158,39532.5869,34610.5993,36875.9483,5046.5316,49278.7957,44220.0601,55163.3388,-2110.5409,-2566.0694,23505.1364
53537.026,25817.2005,52091.0025,39540.2312,34611.851,36879.5246,5048.8561,49285.3671,44217.8249,55169.2396,-2111.3455,-2566.2929,23506.254
53545.3856,25824.6213,52088.6332,39545.998,34627.0502,36884.889,5046.4869,49309.3729,44228.1961,55172.1901,-2098.6944,-2554.8935,23506.8351
53552.4487,25828.5105,52087.9626,39544.7463,34638.7178,36886.7218,5043.7152,49330.6071,44239.6402,55174.6041,-2089.5749,-2552.1666,23505.4493
53545.5644,25830.701,52089.3931,39534.9115,34628.3466,36885.8725,5045.1905,49319.8782,44232.7112,55168.7032,-2098.5156,-2561.7778,23502.0965
53533.718,25824.8001,52088.9461,39528.1166,34604.4302,36881.9833,5041.5695,49297.4818,44220.8201,55159.9413,-2116.4417,-2571.8808,23498.8779
53536.3555,25823.4143,52092.2989,39526.6861,34602.9103,36884.2185,5041.1224,49298.3758,44221.2224,55163.3388,-2117.8275,-2572.7302,23502.8118
53549.9901,25829.047,52089.0802,39533.6598,34613.6391,36887.9735,5038.1273,49315.4526,44234.3652,55168.9714,-2100.4826,-2557.7992,23507.9527
53551.4653,25834.6796,52088.4544,39535.4927,34615.5167,36889.9405,5038.4849,49327.0755,44230.5654,55169.4185,-2092.3018,-2554.4912,23506.5669
53547.3078,25846.6154,52095.2493,39539.0689,34617.6177,36896.1543,5046.7104,49325.1979,44225.1116,55175.7663,-2088.0997,-2554.3123,23515.0605
53535.5955,25847.286,52096.0093,39531.4246,34597.0094,36888.1524,5046.1739,49312.2339,44219.5237,55173.9782,-2097.5322,-2563.4766,23516.3122
53535.8191,25841.251,52096.8586,39529.6365,34598.3058,36887.9288,5049.6608,49301.8627,44214.0251,55173.1735,-2095.5652,-2562.6719,23518.2345
53547.2184,25838.7923,52094.4446,39535.3585,34621.9987,36898.1659,5051.6725,49312.1445,44222.7423,55177.6439,-2083.0035,-2548.188,23521.5873
53558.7519,25842.5921,52092.2989,39538.2643,34637.9578,36900.8034,5052.4324,49331.4564,44228.6879,55180.0132,-2076.0298,-2540.1413,23520.2014
53547.7996,25837.6747,52096.2775,39537.6384,34629.1959,36892.131,5054.6229,49318.8053,44221.0436,55176.124,-2082.8247,-2546.4892,23520.3356
53526.7442,25827.2141,52100.7031,39526.8649,34610.7334,36883.1903,5055.6958,49292.2068,44202.9387,55165.8422,-2100.2591,-2560.0344,23514.0771
53517.4012,25821.7603,52098.7362,39514.1691,34601.5245,36876.753,5053.0136,49276.7841,44192.791,55163.5623,-2105.3553,-2567.5893,23510.8584
53527.6383,25830.254,52100.2114,39524.2721,34617.0813,36877.7364,5055.6064,49290.3292,44204.4139,55173.2183,-2089.7537,-2553.6865,23516.3122
53530.1864,25835.7972,52097.3951,39526.7308,34623.4292,36874.0261,5057.2157,49288.094,44203.8774,55170.3125,-2085.4622,-2553.4183,23511.9313
53520.3516,25838.6135,52098.6021,39516.5384,34616.9472,36866.6947,5059.5403,49270.3468,44191.3605,55168.7479,-2092.7042,-2560.1238,23509.4726
53505.4207,25837.7641,52100.0773,39509.0729,34603.5361,36866.8735,5065.6199,49250.856,44185.4596,55169.5079,-2102.3601,-2567.7234,23509.7408
53497.0164,25838.0324,52096.2775,39505.0049,34602.0162,36866.65,5067.274,49246.6539,44173.0767,55167.4515,-2110.4515,-2573.9819,23507.2821
53510.4722,25845.9002,52093.3717,39514.1244,34617.1707,36863.1184,5065.9776,49258.6792,44177.2789,55164.1881,-2097.398,-2561.3308,23513.3171
53517.2224,25848.5824,52091.1366,39524.9426,34632.3699,36863.9231,5070.4032,49262.6578,44185.4596,55159.0025,-2084.1658,-2551.0937,23520.3356
53509.6675,25851.9799,52092.0753,39522.9757,34624.6362,36865.1748,5073.0854,49242.3624,44179.6035,55166.9151,-2090.3349,-2558.3804,23521.9896
53487.2711,25849.0294,52094.6681,39507.5083,34601.5245,36856.7705,5073.6219,49217.4178,44164.9854,55159.8519,-2107.054,-2570.4056,23518.7262
53479.0456,25848.94,52097.4845,39494.8572,34594.9531,36846.9805,5071.6549,49202.4422,44159.0399,55156.6333,-2110.0938,-2572.9984,23515.9993
53499.0728,25861.1441,52097.5739,39515.7784,34621.6857,36856.2341,5078.1369,49218.8036,44167.9806,55164.2329,-2085.9092,-2556.1005,23521.8108
53503.6325,25867.3579,52101.8654,39528.3401,34638.3601,36861.0173,5080.685,49225.3751,44171.9145,55168.1668,-2078.3991,-2545.0587,23524.1801
53492.1438,25862.3511,52103.3853,39524.7191,34625.7538,36857.0834,5078.0475,49210.3994,44164.9854,55165.8869,-2086.1775,-2553.1501,23519.7097
53469.0768,25853.1421,52097.0374,39512.9621,34591.198,36846.5334,5071.3867,49178.2129,44151.3062,55155.0686,-2105.8917,-2571.3891,23511.2607
53466.5734,25851.8457,52095.4281,39514.2138,34580.9609,36848.9921,5072.4149,49170.8815,44147.0593,55150.9559,-2107.814,-2573.6243,23510.3667
53489.1039,25855.9138,52094.2658,39529.413,34597.1435,36857.4858,5075.3653,49194.172,44151.7979,55154.0852,-2087.9656,-2557.5757,23511.529
53498.3575,25862.7981,52091.3154,39539.6501,34610.4652,36859.3186,5074.9183,49196.0943,44157.0282,55155.7839,-2081.7965,-2549.395,23509.2938
53484.0077,25858.6407,52088.9014,39537.4149,34603.0891,36855.8764,5074.6053,49179.3752,44154.2119,55152.9229,-2087.8762,-2554.8935,23510.9478
53470.9096,25849.4765,52087.4709,39522.8416,34576.8929,36850.9144,5071.0291,49156.5764,44134.0059,55144.2057,-2108.5292,-2569.1986,23506.3434
53472.5636,25843.8885,52087.0239,39522.931,34575.82,36849.3497,5067.2293,49150.8096,44128.7756,55142.5517,-2112.9996,-2571.7467,23506.1198
53491.4285,25849.387,52088.2308,39541.17,34594.2825,36857.6646,5073.0854,49167.2158,44145.8523,55147.6479,-2093.2853,-2557.531,23515.15
53497.7764,25848.6718,52086.6662,39543.9863,34601.8821,36860.3021,5075.4994,49177.4529,44146.2994,55140.7635,-2083.4953,-2553.5077,23514.7029
53494.5577,25843.7097,52088.2308,39533.7045,34582.9278,36857.8434,5076.1253,49162.3878,44142.4549,55144.3398,-2089.8432,-2562.9401,23513.4959
53483.6948,25841.0275,52091.0025,39520.2488,34559.6373,36853.0601,5071.8784,49129.3073,44133.5589,55140.987,-2103.2095,-2572.8643,23508.0421
53476.6763,25838.3006,52092.7012,39517.8795,34561.7384,36848.2322,5064.4577,49124.7922,44127.0322,55137.9919,-2107.6798,-2578.3181,23505.4493
53491.8755,25835.8866,52090.7789,39521.5005,34581.2291,36851.5402,5063.6977,49143.2548,44129.9379,55136.9637,-2096.0569,-2567.0975,23507.0586
53500.6374,25832.4891,52084.0287,39525.9708,34590.438,36849.0368,5055.517,49141.6901,44129.6697,55132.7616,-2090.6031,-2564.1471,23504.5552
53492.6802,25831.5951,52081.0783,39521.9475,34575.4176,36843.9853,5053.4159,49123.6746,44123.6347,55129.4088,-2096.2358,-2572.0149,23504.2423
53476.4528,25826.7671,52080.5418,39518.2371,34559.4138,36837.4139,5052.7453,49105.3909,44109.1061,55125.2961,-2108.1716,-2580.0169,23499.1461
53480.0291,25830.9692,52081.8383,39513.6327,34555.9716,36835.134,5052.2089,49111.4706,44104.9039,55122.2563,-2111.3008,-2578.4075,23498.7885
53503.8561,25831.2821,52087.8285,39525.4344,34581.989,36841.0349,5057.1263,49116.9244,44124.6182,55131.644,-2094.8499,-2563.1636,23507.3715
53518.6529,25828.734,52086.9344,39530.2176,34594.2825,36848.5898,5058.6015,49121.5289,44139.728,55133.8792,-2084.1211,-2557.084,23510.9478
53509.5334,25821.8944,52086.8897,39520.6958,34580.3797,36848.9921,5057.8862,49109.3695,44134.8106,55132.2699,-2088.1891,-2559.4532,23510.8137
53492.3673,25817.8711,52092.1201,39504.379,34556.9551,36842.6442,5059.2273,49087.6883,44128.418,55131.3758,-2105.087,-2569.7798,23510.8584
53490.4003,25821.9838,52091.7624,39496.4218,34547.3439,36841.169,5057.4392,49090.7282,44125.6911,55134.4156,-2110.2726,-2574.9654,23509.3832
53513.9143,25829.8069,52092.433,39507.5083,34577.9657,36846.3993,5060.792,49120.6795,44138.4315,55135.9355,-2095.2076,-2563.0742,23511.0372
53521.8269,25838.5241,52097.5292,39514.7949,34593.2543,36846.5781,5063.5636,49136.8622,44158.3693,55147.6926,-2088.5915,-2552.4348,23515.6417
53511.5898,25840.1334,52099.2726,39507.2848,34585.7441,36845.3264,5059.2273,49131.9448,44155.6871,55156.2756,-2099.0521,-2563.8342,23515.0605
53495.0942,25839.1052,52095.6516,39496.2877,34551.5907,36839.202,5051.8513,49110.353,44140.3985,55145.6809,-2115.5477,-2578.1393,23508.6232
53493.3954,25834.2326,52095.7857,39495.6619,34546.3604,36840.6326,5054.6229,49110.7553,44135.7493,55141.4341,-2113.2231,-2579.8827,23507.0586
53499.0281,25828.6446,52091.1366,39497.2712,34563.5265,36839.2467,5056.5898,49125.0604,44144.8241,55145.2786,-2105.847,-2571.5679,23507.148
53508.9076,25825.4707,52090.9131,39502.6803,34574.3448,36835.3575,5058.1545,49140.662,44153.899,55148.1843,-2100.9743,-2563.4766,23510.8137
53502.0232,25823.6825,52089.8849,39501.1157,34566.7452,36835.5811,5061.3731,49133.6435,44151.7532,55148.4525,-2102.7178,-2563.566,23511.9313
53485.5276,25816.53,52088.8567,39499.104,34551.9036,36834.5082,5061.8649,49119.8748,44142.7231,55147.2008,-2109.8256,-2573.3113,23510.7243
53494.513,25820.3298,52093.327,39502.1439,34556.061,36841.929,5064.5024,49130.9613,44145.7629,55151.6265,-2108.3951,-2567.0528,23512.423
53515.3896,25840.5358,52095.7857,39515.5549,34580.6926,36855.9659,5069.5539,49155.4141,44166.5053,55160.2989,-2085.6857,-2548.8585,23521.7661
53527.236,25855.7796,52098.1997,39527.0437,34593.299,36863.9678,5073.4431,49170.9709,44173.032,55162.4447,-2079.2484,-2544.1647,23527.6222
53528.6665,25856.0926,52100.7478,39524.1827,34585.0289,36864.5936,5077.1534,49168.691,44166.3265,55160.2542,-2086.6245,-2552.1666,23529.2315
53509.444,25851.5328,52104.2794,39514.3926,34569.025,36861.8667,5079.6568,49157.3364,44158.414,55154.9345,-2094.9841,-2559.1403,23526.9517
53504.616,25853.5892,52111.5661,39519.5782,34574.9259,36865.89,5084.4848,49161.1809,44164.9407,55156.8121,-2091.229,-2554.3123,23529.5892
53525.4031,25866.1062,52119.3445,39529.5024,34604.4302,36877.2,5093.1126,49190.3275,44184.1185,55167.4068,-2071.9618,-2538.0403,23538.5299
53537.8754,25874.6445,52117.8246,39543.2711,34618.1542,36889.0464,5093.8725,49199.8941,44185.2808,55169.642,-2058.7742,-2527.982,23538.3064
53527.8618,25873.5269,52112.1472,39535.7162,34600.4069,36883.1009,5087.927,49188.4053,44169.9475,55156.9015,-2070.6207,-2538.7108,23529.008
53514.0932,25865.8379,52103.6088,39524.1827,34575.1941,36876.7083,5080.4615,49162.2537,44152.6473,55142.8199,-2091.1396,-2556.4581,23518.6815
53512.1709,25868.0284,52098.9597,39519.9805,34575.4176,36875.8589,5079.2545,49163.2819,44151.0826,55148.676,-2095.9675,-2555.877,23518.011
53534.9697,25869.593,52097.6186,39523.8698,34595.266,36883.2797,5074.5606,49177.0059,44162.9738,55155.2922,-2084.7023,-2549.6185,23516.8934
53539.753,25863.5581,52091.3601,39522.5286,34602.4185,36885.4254,5066.1564,49180.5822,44166.863,55158.0191,-2081.4836,-2549.082,23513.8535
53528.6218,25849.8788,52084.3863,39518.9524,34586.37,36877.8706,5059.1379,49176.1118,44156.3576,55152.7441,-2094.0006,-2563.7448,23508.355
53504.7501,25830.5669,52078.262,39504.8708,34566.2534,36864.5489,5053.6841,49151.8378,44138.4763,55141.4788,-2111.1667,-2583.2355,23500.6213
53494.6024,25825.7389,52077.6808,39501.1604,34568.0863,36861.8667,5056.1875,49143.8359,44146.657,55142.8199,-2109.1998,-2579.2569,23503.3482
53507.2982,25833.562,52082.2406,39510.414,34591.645,36869.1981,5060.2108,49173.7872,44161.9456,55149.7489,-2090.022,-2563.1189,23510.0538
53521.8716,25849.9682,52090.4213,39519.5782,34611.1804,36868.7958,5064.413,49189.2993,44173.1662,55156.9462,-2078.3544,-2551.2725,23514.3453
53513.2438,25850.0129,52093.9082,39514.3926,34605.3243,36865.2195,5064.1894,49176.1118,44170.1263,55154.8004,-2092.6148,-2557.8886,23514.5241
53497.2847,25841.2957,52091.6283,39500.6239,34583.509,36855.2953,5066.8716,49157.3811,44161.4985,55149.4807,-2108.3057,-2569.0645,23513.3618
53502.7385,25842.6368,52090.019,39508.4471,34588.3369,36856.6364,5071.342,49159.348,44169.6793,55149.2572,-2106.7411,-2565.4882,23517.5639
53529.7841,25850.3705,52099.4067,39523.825,34607.8277,36860.8385,5078.4498,49178.0341,44182.8668,55160.1648,-2090.1561,-2547.9645,23527.1305
53542.8822,25857.3443,52100.8372,39526.7308,34625.7985,36866.0241,5081.2662,49199.5811,44193.3721,55167.5856,-2077.9073,-2540.3649,23532.2714
53529.0241,25852.3822,52098.4679,39516.3596,34612.9686,36859.1398,5078.0028,49184.4267,44183.0009,55160.2989,-2090.2902,-2549.1714,23524.3142
53515.3449,25841.7428,52098.0656,39503.6638,34589.9016,36850.4673,5076.1253,49156.1294,44167.3994,55150.8665,-2109.9597,-2562.6719,23514.3453
53519.4129,25840.3569,52098.7809,39505.586,34589.678,36855.0271,5079.8804,49159.3033,44174.8202,55152.1629,-2103.0307,-2560.8391,23516.0887
53534.4779,25845.2743,52095.5622,39511.7551,34615.2037,36862.7608,5078.6734,49181.1633,44178.7094,55153.951,-2085.9092,-2547.9198,23518.1898
53542.7481,25845.2296,52096.5457,39520.3829,34631.5205,36865.6665,5079.6568,49199.5811,44171.4227,55154.6663,-2078.4438,-2544.4776,23520.2014
53532.7345,25840.6699,52096.7692,39522.171,34616.4554,36864.996,5082.6967,49190.9534,44176.7871,55160.2989,-2080.1425,-2546.7128,23525.1188
53514.719,25828.8234,52095.3834,39510.0564,34596.9647,36859.0504,5083.0096,49173.6531,44171.0651,55156.4544,-2090.8713,-2553.2842,23522.4813
53508.684,25816.977,52094.7576,39499.4617,34585.3865,36855.2506,5079.7909,49173.7872,44174.3284,55154.9345,-2096.5487,-2558.6039,23518.3239
53523.7044,25818.1393,52095.741,39507.5977,34610.2864,36867.1864,5082.3838,49203.068,44193.3274,55163.3388,-2077.8179,-2545.1034,23527.8457
53524.7773,25812.8196,52089.572,39511.2187,34622.7139,36866.2924,5079.2098,49209.8629,44201.1058,55167.8538,-2071.0677,-2539.0238,23532.7631
53506.4489,25801.6884,52083.3135,39500.8475,34601.9268,36856.994,5070.4479,49199.5364,44195.4285,55163.4729,-2084.6128,-2552.8371,23531.0644
53479.3586,25788.4562,52074.9986,39481.7144,34576.5352,36844.9688,5058.7803,49172.6696,44180.3187,55153.951,-2103.5671,-2570.7185,23525.7447
53475.5588,25779.6496,52073.2105,39471.4326,34567.2369,36840.5432,5054.8017,49164.9359,44166.7289,55149.883,-2111.3455,-2575.9488,23520.2909
53488.6569,25786.8469,52070.7071,39482.1167,34585.2077,36842.5995,5053.6841,49181.2527,44174.7308,55151.0453,-2100.7061,-2561.0179,23516.8487
53499.7433,25789.1715,52061.4535,39488.554,34599.1105,36843.136,5052.2536,49183.622,44183.9397,55147.2902,-2095.3864,-2558.2016,23511.2607
53485.5723,25783.6282,52053.1833,39481.1332,34581.1397,36838.0398,5046.9786,49165.9641,44172.0039,55135.5332,-2108.6633,-2568.2598,23505.8516
53459.0185,25776.9674,52049.4282,39472.9078,34558.5644,36830.8872,5040.4966,49145.7134,44150.4121,55124.8491,-2127.3047,-2587.08,23495.7486
53456.4257,25767.8926,52042.4098,39472.2819,34553.96,36829.3673,5036.4286,49134.4035,44139.9068,55115.3272,-2131.1939,-2592.5338,23487.1209
53464.2041,25765.4339,52039.0123,39478.0487,34571.0367,36831.2448,5037.5462,49148.8427,44146.4335,55114.3885,-2118.9898,-2579.7933,23485.0198
53474.3965,25774.1958,52042.1416,39492.0409,34583.6431,36838.5315,5045.861,49162.7008,44159.9339,55121.9434,-2104.2377,-2570.495,23491.9935
53462.1924,25767.5797,52042.678,39485.8271,34571.2602,36832.9436,5045.0116,49155.5482,44156.1341,55121.3622,-2108.7974,-2577.3346,23490.6971
53446.5462,25762.5729,52045.9414,39476.1264,34557.1786,36833.3459,5045.8163,49148.7533,44138.7892,55116.5342,-2123.7284,-2587.3035,23490.4289
53446.9038,25762.5282,52049.607,39485.2459,34559.0562,36836.5198,5050.2867,49146.7416,44148.5792,55122.3904,-2121.0015,-2584.6213,23494.8546
53467.8698,25769.0996,52053.4515,39503.4403,34584.2242,36840.3196,5053.1924,49167.7076,44169.5452,55132.0463,-2101.1531,-2566.4717,23502.3648
53481.0573,25770.1278,52049.2494,39503.3509,34596.2942,36835.5811,5051.2254,49178.0341,44169.6793,55130.6158,-2099.0968,-2560.5708,23502.3201
53476.9446,25763.4223,52045.5837,39489.5375,34578.1893,36833.0777,5045.8163,49164.1313,44160.381,55120.7811,-2112.5078,-2573.4454,23494.4969
53470.8649,25756.0462,52049.7859,39487.3917,34571.8861,36830.6637,5046.2633,49146.1158,44157.5199,55120.8258,-2118.3193,-2581.6709,23491.5018
53466.6628,25752.6487,52050.3223,39486.587,34567.371,36832.72,5045.861,49152.1955,44156.5812,55123.5527,-2113.7595,-2580.1063,23496.7321
53481.1467,25759.3542,52049.8753,39492.5326,34578.6363,36838.1739,5049.035,49172.7591,44162.2585,55129.7218,-2098.918,-2564.2365,23502.4989
53485.7512,25764.8975,52046.7907,39494.0525,34583.9113,36840.0514,5050.7784,49176.8271,44166.863,55132.404,-2091.6313,-2560.4367,23501.6942
53475.5588,25764.4057,52043.8403,39482.9214,34578.2787,36834.7317,5049.4373,49168.7804,44160.1127,55127.576,-2100.7955,-2572.4173,23499.9955
53456.2916,25763.1987,52045.7625,39469.7338,34560.3079,36825.8804,5044.8775,49150.7649,44148.7581,55121.4516,-2114.5195,-2586.4989,23499.3249
53462.5053,25770.1278,52053.3174,39474.0254,34562.096,36829.9037,5049.4373,49148.6192,44155.553,55130.1241,-2109.1998,-2580.5533,23505.047
53491.0262,25791.1384,52064.8509,39494.0972,34594.9531,36845.4605,5060.1214,49181.1633,44182.9562,55147.1561,-2088.3232,-2559.7662,23518.4133
53498.7599,25794.8041,52070.7518,39496.7794,34610.6887,36846.444,5062.893,49196.6754,44195.9649,55153.5487,-2082.1095,-2553.3289,23521.5873
53489.6851,25788.5009,52072.1376,39484.4413,34598.1717,36840.2302,5063.0271,49184.7396,44191.137,55153.6381,-2092.7489,-2562.7613,23516.5358
53478.5539,25785.5952,52074.5963,39474.0254,34582.7937,36835.0446,5062.2672,49177.2294,44183.8056,55157.572,-2103.5671,-2570.4056,23518.3686
53477.0787,25780.6331,52070.2153,39470.5832,34579.7539,36833.927,5058.6909,49177.0059,44185.4596,55162.5788,-2112.4184,-2571.2997,23517.2063
53487.6287,25779.3367,52062.4816,39479.2557,34589.5886,36832.8542,5052.4324,49187.4218,44193.0145,55163.8305,-2106.7411,-2565.5329,23516.0887
53485.9747,25775.8498,52049.7411,39479.0769,34592.0473,36824.0476,5044.9222,49201.2352,44191.584,55163.7858,-2105.3106,-2568.5728,23510.7243
53462.2371,25761.6788,52036.3301,39464.9059,34571.3943,36809.6083,5035.0875,49184.9631,44180.0505,55155.2027,-2121.225,-2587.0353,23500.219
53432.7775,25746.4349,52025.7801,39450.7796,34542.4265,36802.8581,5024.4927,49162.0749,44160.381,55139.6459,-2142.325,-2603.7097,23490.0266
53424.2839,25744.0209,52019.4769,39450.7349,34541.5324,36802.5899,5019.7095,49159.4374,44151.4403,55132.0016,-2145.1861,-2604.2014,23485.6009
53444.8475,25743.5739,52015.9006,39465.04,34561.2913,36806.345,5018.3684,49176.5589,44162.1244,55130.0347,-2129.6293,-2597.0936,23484.8857
53452.3129,25740.2211,52009.4633,39469.555,34570.2767,36806.9708,5012.6463,49180.0457,44155.9106,55123.7762,-2125.6953,-2596.3336,23480.2812
53447.2615,25742.6798,52009.2845,39467.5881,34567.5498,36808.9825,5012.691,49172.6696,44149.3392,55120.5575,-2126.4106,-2600.1334,23480.1024
53445.7862,25754.6604,52022.7402,39472.5502,34564.8676,36820.516,5026.0574,49164.5783,44156.8941,55126.369,-2121.0909,-2597.2277,23487.255
53455.4869,25764.9869,52032.3068,39478.8086,34569.9191,36830.4402,5036.3839,49176.1118,44165.5219,55128.8277,-2116.6652,-2587.6611,23492.4853
53479.135,25785.2823,52044.9132,39494.9019,34594.3719,36846.891,5042.3741,49214.2886,44184.9679,55143.2669,-2100.9743,-2571.7467,23500.9789
53500.2351,25796.1005,52053.7645,39513.8115,34615.4273,36858.4245,5053.2818,49241.96,44198.7813,55151.0453,-2089.4855,-2558.0227,23509.5173
53500.6821,25800.7944,52062.1687,39513.9903,34618.1095,36863.8784,5063.9212,49240.2613,44204.5927,55150.3748,-2092.9724,-2554.8488,23517.3404
53488.344,25802.8954,52069.5448,39508.9388,34604.5196,36869.6004,5070.9397,49239.7249,44206.4703,55149.8383,-2098.918,-2553.7312,23523.1519
53486.5558,25808.841,52073.6575,39510.5481,34602.2397,36870.9862,5072.8172,49240.1719,44204.2798,55149.1231,-2099.365,-2556.2346,23521.0061
53501.2633,25814.876,52071.3329,39515.7784,34616.9919,36868.1252,5070.1797,49258.5003,44207.9008,55153.951,-2091.4972,-2553.5524,23520.0226
53497.687,25811.5679,52071.02,39522.0816,34626.6925,36868.751,5068.1233,49264.7141,44209.0183,55153.7722,-2085.954,-2550.8255,23518.0557
53483.0689,25804.9965,52066.4155,39514.9291,34614.9355,36862.4479,5061.1943,49260.5567,44204.0563,55148.1396,-2097.3533,-2562.0908,23512.2442
53468.5403,25794.4912,52064.3145,39503.6191,34596.8753,36857.754,5057.0816,49246.0281,44193.6851,55147.5137,-2111.5243,-2571.0315,23508.6232
53474.9329,25794.9382,52063.4204,39505.2731,34600.3622,36858.6481,5058.378,49237.4897,44192.9698,55149.3466,-2107.4116,-2569.0645,23509.115
53500.1904,25802.5825,52066.8179,39519.9358,34621.194,36870.5839,5062.1778,49259.8861,44203.1175,55155.8286,-2091.7654,-2553.5524,23516.6252
53514.8978,25815.2783,52068.3378,39541.8406,34638.7625,36885.2019,5069.0621,49278.2146,44211.9241,55160.4778,-2067.9384,-2537.9956,23522.8837
53519.4129,25820.4639,52070.2153,39543.8522,34636.4379,36890.8346,5075.1418,49269.8103,44210.3595,55162.9812,-2064.1387,-2540.2308,23524.0906
53516.5071,25826.6777,52077.0103,39542.4217,34617.4389,36895.752,5081.5791,49261.3614,44210.4936,55170.536,-2069.369,-2540.3202,23527.6669
53518.787,25831.8186,52085.1463,39546.7579,34624.5468,36900.5352,5087.7482,49272.3137,44217.6014,55181.4884,-2066.5973,-2534.5087,23536.7864
53525.0008,25832.0421,52085.4145,39547.7861,34643.0987,36896.8695,5086.72,49289.3904,44231.5042,55182.3825,-2060.2494,-2525.3445,23536.4288
53530.9017,25830.701,52083.984,39547.9649,34654.1852,36894.8132,5083.1884,49301.6392,44237.1815,55181.1308,-2062.7975,-2527.8926,23537.6805
53513.0203,25816.3065,52077.502,39525.9261,34628.8383,36879.9716,5072.8619,49291.9385,44230.9678,55173.8441,-2084.1658,-2545.6846,23530.5279
53505.4207,25810.1821,52078.8431,39513.4985,34600.988,36876.1718,5068.5704,49272.5819,44224.0387,55169.3738,-2102.9413,-2560.4367,23525.0741
53500.6374,25799.8556,52074.4622,39504.6473,34584.2242,36869.0193,5060.7026,49265.0717,44222.3847,55169.8208,-2113.3125,-2563.7448,23521.1849
53510.9192,25798.738,52066.4155,39505.586,34594.2378,36864.996,5050.4208,49278.8851,44231.4148,55177.778,-2103.3436,-2556.9052,23520.9167
53517.3565,25803.6554,52066.2814,39509.9223,34606.6207,36863.4313,5049.5267,49290.0163,44235.6616,55186.227,-2099.0074,-2555.5193,23521.7214
53505.4207,25799.4086,52065.9685,39509.654,34596.6071,36863.9231,5048.6326,49282.372,44228.2408,55184.6623,-2107.4116,-2563.7895,23516.1781
53485.7512,25794.4018,52061.4982,39499.0146,34578.1893,36859.9892,5042.7318,49264.3565,44216.0368,55170.0443,-2121.0015,-2580.1957,23505.941
53479.448,25790.0655,52057.1172,39490.521,34575.3729,36853.0154,5034.2381,49252.9571,44205.2633,55156.7674,-2127.6176,-2585.2472,23496.1063
53499.2516,25797.3969,52054.435,39505.0049,34599.7363,36859.408,5037.4568,49273.7889,44201.5529,55153.4593,-2114.5195,-2572.6408,23494.5863
53517.133,25806.6952,52049.607,39519.0418,34625.1726,36867.3652,5039.7813,49285.4118,44208.8842,55152.0735,-2100.2144,-2564.2365,23493.3347
53513.3779,25810.495,52053.0939,39518.2371,34613.1474,36866.0241,5040.6307,49280.5392,44207.3643,55154.6216,-2105.8917,-2571.9255,23492.7982
53502.3361,25815.1889,52060.2465,39515.3314,34596.2942,36866.3818,5046.5316,49257.5616,44202.8493,55150.5536,-2114.296,-2581.5368,23492.7088
53505.7336,25820.6874,52067.8461,39523.5568,34606.1736,36875.3672,5057.7074,49259.7073,44209.0631,55150.8665,-2105.4894,-2574.7865,23502.3201
53521.7375,25825.9177,52069.9024,39530.4412,34631.1182,36884.6655,5064.2341,49288.407,44224.6199,55158.779,-2089.9326,-2555.877,23512.1995
53534.165,25829.941,52072.3164,39538.6219,34648.2843,36887.0348,5068.8833,49319.3418,44239.4167,55166.1551,-2078.6226,-2545.9081,23515.597
53523.4362,25831.461,52073.9257,39533.7939,34634.6945,36880.2845,5069.4197,49314.2456,44240.7578,55177.9568,-2086.2669,-2552.7477,23518.9497
53499.2516,25826.1412,52070.9753,39517.5666,34602.195,36870.1816,5060.479,49286.9765,44228.822,55171.6089,-2106.607,-2568.5281,23515.4629
53501.9785,25824.2637,52076.6079,39516.0466,34598.1717,36868.3487,5059.4509,49282.372,44231.8171,55174.7829,-2111.3902,-2568.6175,23520.1567
53513.0203,25825.9624,52081.5253,39528.9212,34621.7752,36877.2,5064.5471,49304.6343,44246.1222,55187.0316,-2095.0288,-2555.6982,23527.8457
53522.3186,25830.4328,52085.4145,39532.5422,34636.1697,36879.2117,5068.2575,49324.7956,44260.2485,55191.8596,-2083.4953,-2547.2492,23531.9585
53513.9143,25822.0285,52084.3416,39522.1263,34619.3612,36870.0027,5064.5024,49313.2174,44256.0464,55189.8479,-2091.1843,-2556.9052,23525.5659
53501.308,25809.8245,52083.9393,39509.4305,34600.3175,36864.8171,5059.3615,49291.8938,44241.2049,55181.3096,-2106.7411,-2571.7467,23516.7593
53496.6588,25808.4834,52082.5535,39511.3528,34598.6634,36868.0805,5059.6744,49288.4517,44242.0095,55182.6954,-2106.607,-2569.0645,23517.0275
53508.7287,25815.7253,52078.4855,39522.7522,34620.8811,36876.3953,5060.1214,49306.9589,44249.922,55188.8198,-2097.398,-2555.3405,23515.6417
53515.7025,25817.7817,52072.4505,39526.4626,34627.4525,36875.2331,5061.1943,49320.0123,44249.8326,55184.0365,-2096.7722,-2556.2346,23511.4843
53499.4304,25812.4173,52070.6624,39523.1545,34614.8461,36871.0756,5059.8979,49306.8695,44242.8589,55174.6041,-2109.0209,-2566.3376,23504.9129
53485.4382,25804.9518,52068.5166,39516.6725,34591.2427,36868.2146,5056.2322,49286.5741,44225.1563,55166.468,-2129.5846,-2579.4804,23497.2239
53490.1321,25808.1704,52068.9636,39515.9572,34589.0522,36862.7608,5054.3547,49283.2661,44224.2175,55162.4447,-2130.121,-2580.1063,23493.5135
53513.6014,25817.9605,52071.0647,39528.4742,34611.8957,36873.3555,5057.9309,49318.5818,44238.8356,55166.1551,-2110.2726,-2564.6389,23495.1675
53526.6548,25815.2336,52071.2882,39541.4382,34624.0997,36876.0377,5057.3051,49332.4399,44245.5858,55166.3786,-2100.4826,-2558.2016,23500.5766
53516.4624,25813.2666,52076.1162,39536.6102,34616.1425,36873.8472,5056.2322,49320.9511,44240.4896,55164.2776,-2108.4845,-2562.7613,23502.9906
53500.5033,25811.9702,52078.3514,39528.5636,34594.3272,36876.7977,5057.5733,49303.6509,44239.1932,55162.3106,-2116.5311,-2567.8575,23504.5999
53504.2137,25813.8925,52085.7275,39531.6482,34597.68,36887.3477,5060.9708,49302.9803,44249.6091,55173.3971,-2108.3951,-2562.5825,23510.5902
53521.2457,25821.358,52093.327,39543.7181,34631.6993,36894.9473,5068.0786,49325.7791,44267.2223,55189.8479,-2092.4807,-2545.3717,23523.5542
53538.0095,25825.2472,52094.6681,39547.9202,34637.5108,36891.1922,5069.1962,49341.0677,44281.1698,55192.3066,-2088.9491,-2538.2191,23526.7282
53528.1301,25820.2404,52094.3999,39541.17,34624.0103,36887.1242,5068.168,49333.021,44266.6411,55187.6128,-2097.4427,-2550.1549,23524.5824
53502.7385,25813.2219,52094.2658,39524.4062,34598.7976,36880.1057,5060.3449,49308.3894,44250.0114,55174.8723,-2114.6536,-2568.4834,23517.3404
53496.5694,25810.1374,52092.2542,39518.8183,34590.3933,36875.6801,5055.6958,49308.3447,44244.7364,55170.4913,-2120.3756,-2569.8245,23512.423
53512.8862,25815.8147,52090.7789,39529.1001,34611.851,36877.8259,5052.7453,49331.3223,44255.8676,55176.571,-2104.4612,-2558.6933,23514.2559
53525.6714,25826.5436,52095.5622,39536.6102,34630.5817,36883.1456,5058.2439,49352.4224,44267.8034,55182.2484,-2095.4758,-2551.5854,23513.7641
53514.9425,25824.5319,52098.6021,39525.6579,34620.1211,36883.682,5058.378,49346.8791,44258.9521,55178.985,-2110.0044,-2562.2249,23508.355
53505.376,25821.2686,52100.6137,39517.0748,34600.094,36879.8375,5059.9426,49327.4331,44246.2116,55176.7945,-2118.5428,-2573.669,23504.9576
53512.2603,25827.6612,52102.1783,39529.2342,34604.162,36888.6888,5067.0058,49342.4982,44248.8492,55175.9005,-2110.3173,-2565.8458,23510.9925
53532.6451,25840.2228,52100.7478,39541.93,34625.3067,36891.4157,5071.5208,49367.6662,44268.474,55182.8295,-2095.3417,-2549.082,23516.5358
53549.0066,25846.3472,52100.2561,39552.48,34643.5905,36897.2272,5078.9416,49375.1764,44274.7325,55186.5399,-2081.0366,-2540.0072,23521.4531
53539.1718,25837.8536,52101.5972,39547.5626,34632.8616,36892.0863,5080.0145,49346.6109,44273.7043,55180.5496,-2085.3281,-2541.0354,23521.4531
53525.0008,25828.8682,52103.2065,39538.3984,34613.2368,36884.3079,5080.7297,49326.9861,44259.3992,55169.642,-2097.8004,-2550.9596,23518.905
53524.9561,25828.2423,52104.5476,39538.6219,34612.745,36884.7549,5080.1486,49329.4895,44264.853,55167.675,-2090.6031,-2548.8585,23521.1402
53551.5994,25840.1781,52108.5262,39561.5995,34642.9199,36900.2223,5087.3011,49353.1823,44281.6168,55185.5117,-2065.9268,-2531.2006,23531.0644
53555.3545,25851.7563,52106.6487,39569.1097,34653.8275,36907.2407,5088.5081,49362.2571,44283.4496,55190.1609,-2056.852,-2523.0646,23532.4055
53542.5246,25849.9682,52104.2794,39558.4702,34641.0871,36899.1941,5083.4566,49352.2435,44270.7986,55181.4884,-2067.7596,-2533.9723,23526.594
53529.2923,25850.2364,52102.3571,39545.1933,34621.9093,36896.3778,5079.3886,49335.435,44249.2962,55172.0113,-2087.1162,-2551.4066,23519.3968
53531.0805,25855.8691,52106.0675,39545.4615,34616.4107,36903.3068,5080.685,49336.4632,44251.442,55177.018,-2084.4787,-2548.3668,23523.5542
53556.6509,25869.6377,52107.6769,39557.3974,34639.0754,36912.4711,5084.9319,49365.3417,44275.403,55187.7916,-2068.0279,-2530.4854,23530.7515
53570.0172,25870.6659,52106.2911,39562.4936,34656.8674,36917.299,5083.9484,49382.4184,44280.3204,55187.5234,-2060.5624,-2525.121,23531.1985
53560.4954,25867.8496,52104.95,39556.1457,34644.6633,36913.0075,5082.7861,49372.8966,44272.8996,55188.4621,-2069.056,-2531.8265,23530.0362
53542.5246,25853.1421,52102.0889,39539.4713,34616.4554,36902.4575,5074.65,49348.399,44254.3477,55181.8013,-2089.709,-2546.4445,23523.8671
53533.7627,25845.7214,52096.501,39531.3799,34611.7169,36902.234,5069.6433,49342.5876,44254.8394,55182.2931,-2088.2785,-2548.9479,23525.2529
53538.0989,25842.8156,52090.466,39533.3469,34626.6925,36902.1446,5068.168,49353.0482,44263.5566,55185.8246,-2077.6838,-2542.153,23528.5163
53539.1271,25842.9497,52087.7838,39531.6482,34632.6381,36895.1708,5062.7142,49357.1609,44258.9968,55181.0414,-2075.4486,-2543.0471,23525.8341
53530.4993,25836.2889,52083.1794,39531.3352,34621.9987,36895.1708,5058.825,49340.4865,44245.7646,55172.7712,-2089.5302,-2556.1899,23517.2957
53510.7851,25821.6262,52077.1444,39521.2322,34603.2232,36888.2865,5056.5451,49314.1562,44224.6646,55161.4612,-2106.0258,-2569.1986,23510.0985
53507.2982,25819.5251,52076.5632,39516.1361,34604.8772,36882.475,5056.0981,49309.6411,44213.9357,55160.2542,-2104.6847,-2567.8575,23510.7243
53525.8949,25830.0751,52085.1463,39532.2293,34631.4311,36890.6111,5065.8435,49335.5691,44233.0688,55173.2183,-2081.8859,-2550.1549,23519.0839
53536.3108,25841.0275,52093.5953,39538.1749,34643.7693,36892.7121,5071.9678,49343.2581,44239.5061,55181.2649,-2075.4933,-2543.2259,23521.9449
53523.4362,25850.5493,52098.5574,39533.7045,34639.2542,36886.543,5081.892,49329.6683,44228.3303,55176.9733,-2082.4671,-2550.1549,23521.0955
53506.4042,25850.907,52105.6205,39525.3003,34623.3845,36884.9784,5090.4304,49306.9589,44216.2603,55171.0725,-2095.3864,-2555.564,23519.8885
53507.7453,25847.4648,52112.3707,39528.653,34619.5847,36890.7005,5096.4653,49298.3758,44215.2768,55165.3951,-2092.8383,-2551.6301,23528.5163
53517.1777,25860.1159,52114.0248,39536.4761,34635.9015,36892.7568,5102.1874,49314.8267,44223.0999,55169.9549,-2075.3145,-2541.4824,23536.1159
53529.337,25868.2966,52118.2269,39545.0145,34648.1949,36893.1592,5104.2885,49322.2922,44230.8784,55183.1424,-2067.402,-2529.1443,23539.7816
53519.6364,25872.9905,52120.2832,39546.1768,34645.1998,36891.3263,5110.5469,49304.679,44230.3419,55185.914,-2069.369,-2529.9937,23539.2898
53498.6258,25872.6776,52122.6972,39531.514,34624.9938,36883.0115,5109.8317,49276.0241,44215.3662,55177.018,-2085.6857,-2543.0918,23535.8924
53493.8425,25875.0021,52128.1064,39535.448,34627.676,36881.4468,5111.7092,49276.2476,44219.5237,55175.1405,-2083.1823,-2538.3979,23537.1888
53506.8512,25880.0983,52125.29,39541.93,34640.64,36886.3642,5114.302,49282.7743,44222.2953,55177.4651,-2066.5526,-2527.4009,23540.765
53515.0319,25888.9496,52122.8313,39550.5577,34644.261,36887.7947,5116.3137,49285.0542,44222.9658,55180.3708,-2060.2047,-2523.914,23542.4191
53502.6044,25885.9545,52125.9606,39549.3954,34637.8684,36887.3477,5118.1018,49276.5605,44214.6063,55178.3144,-2065.3456,-2529.1443,23543.3131
53482.9348,25875.8515,52122.876,39542.2429,34613.0133,36884.3079,5113.0503,49259.3944,44191.9416,55167.4962,-2083.8976,-2541.4824,23536.9653
53490.4897,25876.6115,52123.8595,39545.6403,34608.5429,36887.4818,5115.6878,49244.9105,44192.9251,55165.574,-2086.8033,-2538.6661,23536.3841
53510.6957,25881.2606,52124.0383,39558.6938,34634.6051,36894.5897,5120.6946,49259.0815,44204.6374,55173.4418,-2070.0395,-2523.9587,23544.2966
53513.7802,25882.87,52121.4902,39562.8065,34645.3786,36891.2369,5120.9182,49271.7773,44204.3245,55170.9831,-2058.9978,-2520.6506,23545.9507
53501.1739,25878.2208,52117.4669,39553.1058,34622.8927,36882.6985,5117.2078,49258.2321,44190.9581,55159.539,-2070.5312,-2531.7818,23537.0994
53478.241,25861.5911,52108.5709,39544.3887,34595.1766,36871.1203,5110.3681,49228.2808,44174.3284,55146.3962,-2089.0832,-2549.3056,23527.801
53466.7969,25855.3773,52103.43,39538.9348,34580.1115,36866.4265,5101.2933,49217.4625,44163.5102,55145.6809,-2092.2124,-2553.8653,23522.6154
53471.8037,25854.7962,52099.3173,39542.9134,34595.6683,36866.6947,5098.2535,49226.0009,44168.6064,55143.8928,-2085.5069,-2545.014,23520.6038
53477.7045,25857.6572,52101.1949,39551.9435,34610.8675,36872.5955,5100.3993,49228.1914,44172.8979,55146.575,-2081.2601,-2534.464,23525.2529
53474.62,25851.4881,52097.6186,39545.3274,34599.4234,36870.5392,5097.6276,49216.5685,44173.8367,55150.5983,-2089.6643,-2543.4047,23523.8224
53458.035,25842.1004,52089.4378,39527.9825,34565.7617,36856.994,5086.5859,49183.5326,44153.2284,55137.4108,-2109.0209,-2567.8575,23513.4065
53456.8727,25844.872,52089.9743,39523.2886,34552.753,36853.4625,5081.3556,49172.312,44154.3907,55134.2815,-2105.4,-2570.6291,23513.8535
53473.9941,25847.286,52092.0306,39538.4878,34578.9492,36862.582,5084.6189,49196.8095,44169.8134,55142.5964,-2089.3067,-2552.6136,23520.425
53483.3372,25849.4765,52091.7177,39547.5179,34599.4681,36864.996,5088.8658,49199.9388,44172.6297,55148.8996,-2082.2436,-2545.9081,23523.7777
53481.102,25848.6718,52092.7906,39538.9795,34583.5984,36855.6976,5086.4965,49186.2595,44164.2702,55141.7023,-2089.0832,-2554.3123,23519.7991
53470.4179,25844.0226,52096.3222,39524.0486,34557.3127,36849.7074,5081.1321,49160.7785,44146.8805,55136.1144,-2100.572,-2569.8692,23517.7875
53471.3566,25840.7593,52097.8868,39523.7356,34551.546,36849.8862,5080.1933,49150.2732,44142.0078,55136.5614,-2105.8023,-2570.2715,23519.2627
53492.9484,25846.0343,52094.5787,39535.895,34572.0202,36857.2176,5081.0874,49173.2061,44161.9009,55142.5517,-2091.9442,-2555.4746,23522.2578
53507.2982,25856.4055,52099.5855,39539.8289,34588.8287,36860.1233,5082.8308,49187.9582,44168.6958,55147.9608,-2079.919,-2544.8352,23526.8623
53505.1972,25855.5561,52102.2677,39536.6997,34583.0619,36856.4129,5087.0329,49175.0836,44160.0233,55147.2008,-2086.4904,-2550.9596,23524.6718
53493.9319,25849.0741,52100.9713,39530.6647,34568.578,36855.7423,5087.5247,49149.3791,44147.104,55139.9589,-2099.0968,-2560.2132,23520.9614
53495.5412,25848.5824,52105.0841,39528.0719,34565.8958,36857.8881,5088.6869,49149.6474,44154.7036,55145.5468,-2098.4262,-2558.1568,23520.112
53511.5898,25853.0527,52105.1735,39533.9727,34586.0571,36864.0125,5090.7433,49171.6862,44171.2439,55154.5769,-2083.1823,-2541.5719,23526.3705
53522.855,25854.215,52102.536,39536.2526,34594.9531,36867.5888,5091.1009,49188.1371,44175.3119,55151.2688,-2076.3874,-2534.1958,23528.0246
53525.8055,25857.5678,52109.5544,39539.1583,34595.4448,36873.8025,5091.9503,49181.2527,44175.8931,55152.9229,-2080.9919,-2541.8848,23528.1587
53511.8133,25857.3443,52116.3046,39529.1448,34583.4643,36871.2097,5092.442,49165.6512,44179.2458,55159.0025,-2090.8266,-2554.1335,23530.3938
53502.4703,25859.3559,52114.8294,39529.0554,34575.4176,36870.0475,5092.5314,49163.9078,44178.3965,55160.8801,-2087.1609,-2552.6136,23531.2432
53518.1612,25858.3277,52112.9072,39540.1418,34594.5507,36873.132,5091.9056,49179.554,44181.7939,55164.2329,-2076.0745,-2537.4144,23535.5347
53527.4595,25853.6786,52110.7614,39544.4781,34604.5196,36870.8968,5092.2632,49190.864,44182.4198,55160.2542,-2070.3077,-2532.1841,23534.596
53510.2487,25844.3356,52109.8673,39535.6715,34594.4166,36856.1447,5088.9552,49178.5705,44173.9261,55156.4544,-2081.3942,-2542.3318,23530.6174
53493.3507,25827.4823,52104.7711,39516.6725,34567.6392,36842.9571,5079.3439,49147.8145,44157.967,55148.2737,-2098.5156,-2564.5047,23520.6038
53497.8211,25830.7457,52105.3076,39514.7949,34565.5829,36843.7171,5083.0543,49147.2781,44155.9553,55148.4972,-2099.365,-2564.6389,23522.5707
53516.0601,25841.8322,52110.8955,39533.3469,34593.4778,36859.8998,5092.5761,49177.8105,44173.8814,55159.0472,-2077.5944,-2542.5553,23532.8525
53525.582,25850.1023,52112.6837,39536.9679,34600.0046,36869.4216,5094.9901,49200.4752,44185.102,55163.5623,-2070.7101,-2532.8547,23533.9254
53517.1777,25847.4648,52108.6603,39529.3683,34580.5138,36864.996,5091.7715,49191.758,44177.2789,55155.7839,-2082.5565,-2545.2375,23526.0129
53507.9241,25849.5212,52109.5991,39532.5869,34572.6013,36864.3254,5093.9173,49179.107,44175.7143,55158.6449,-2087.3845,-2550.8702,23528.9186
53505.9124,25855.9585,52109.6438,39530.8435,34577.6528,36865.3536,5093.4702,49178.1235,44178.8435,55161.6848,-2087.2504,-2548.7691,23529.9915
53522.4974,25864.9439,52111.5214,39549.7531,34610.1075,36875.9036,5098.477,49206.242,44194.892,55168.8373,-2067.3126,-2533.5699,23535.6688
53543.1951,25871.2471,52114.5612,39561.8677,34630.7158,36887.6606,5108.2224,49230.5607,44198.6024,55175.1405,-2056.7626,-2522.4835,23540.4521
53531.7063,25869.5036,52109.6438,39552.0329,34614.9802,36882.0727,5102.7685,49222.1117,44190.6452,55164.5905,-2071.0677,-2534.5534,23532.629
53520.5752,25864.8992,52109.018,39549.1719,34596.1154,36887.0348,5098.3876,49205.3926,44179.7823,55155.3816,-2083.8529,-2548.3221,23528.4269
53524.5091,25872.1858,52113.3095,39558.3361,34603.0891,36893.4721,5098.8793,49207.4043,44188.5442,55166.5574,-2076.7897,-2542.3765,23533.7466
53538.8589,25875.4492,52112.1472,39564.7734,34619.5847,36897.3613,5097.5382,49230.8289,44196.412,55167.4962,-2066.1503,-2533.0782,23536.1159
53549.4536,25873.4375,52111.3425,39570.1826,34632.6828,36905.2738,5096.6442,49241.7812,44208.4372,55166.2445,-2058.4613,-2523.5116,23541.3462
53547.7996,25869.9059,52112.8178,39568.6626,34625.5749,36905.3632,5095.7948,49246.5198,44213.9804,55163.6964,-2065.6139,-2532.8547,23540.8098
53526.9231,25862.3511,52109.0627,39554.581,34603.5361,36900.4905,5095.7054,49234.6287,44197.2613,55157.572,-2078.5332,-2547.4727,23534.3724
53521.6033,25863.2451,52105.1735,39548.1884,34601.8374,36897.6295,5097.3594,49233.1088,44190.3323,55156.3203,-2084.0317,-2550.0208,23530.2597
53544.3127,25872.0517,52106.9616,39561.0631,34623.1163,36906.6149,5100.5781,49252.8677,44206.6491,55168.3456,-2067.4914,-2536.2074,23536.9205
53552.9852,25871.2918,52107.9451,39562.3147,34636.5273,36902.0104,5098.3876,49266.2787,44219.0766,55178.1356,-2059.2213,-2527.7138,23539.5133
53544.2233,25867.8943,52109.6885,39555.3857,34624.4574,36895.7967,5099.0582,49256.9357,44214.6957,55174.2911,-2068.2514,-2532.05,23533.0313
53523.7044,25861.457,52108.7497,39547.2944,34604.3408,36892.9356,5098.2982,49238.3838,44195.9202,55165.7975,-2086.0881,-2548.4115,23523.733
53523.2574,25867.7155,52111.1637,39548.9037,34606.7548,36891.0581,5102.9027,49236.1486,44198.2895,55167.675,-2082.1542,-2544.9246,23528.3375
53541.5411,25872.6776,52110.0909,39559.7219,34627.8995,36893.1592,5104.6461,49254.2088,44215.0533,55177.2863,-2070.1289,-2530.7536,23532.629
53546.4138,25872.8117,52107.5428,39562.7171,34638.8966,36891.0581,5106.3895,49256.6675,44216.7073,55179.0744,-2058.5507,-2524.361,23535.8477
53538.7248,25868.5201,52107.6322,39550.5577,34627.8995,36883.4585,5105.6296,49245.9387,44209.6889,55172.503,-2069.3243,-2530.9324,23533.0313
53518.5635,25855.422,52101.6866,39536.6102,34607.9171,36875.7248,5098.7899,49225.8668,44193.5062,55161.9083,-2089.7537,-2547.5174,23529.0527
53515.0319,25852.8739,52096.8139,39528.1166,34602.5974,36868.2146,5092.0844,49222.4693,44191.584,55157.7508,-2093.0618,-2551.4066,23529.2315
53533.4498,25863.6922,52102.983,39544.9698,34631.9228,36880.5528,5099.8181,49247.548,44214.5169,55172.0113,-2070.7548,-2533.8382,23537.457
53544.2233,25864.3627,52106.5593,39553.9552,34648.1949,36883.6373,5103.3497,49259.1262,44222.0718,55180.4602,-2062.0376,-2530.2619,23538.9769
53530.4546,25858.4172,52101.4184,39544.4334,34629.2406,36876.0377,5097.8065,49244.0164,44212.0135,55173.1735,-2076.3427,-2541.1248,23532.0926
53507.6112,25852.6504,52104.5029,39531.6482,34605.1008,36870.4945,5096.0183,49222.827,44203.8774,55173.9782,-2091.8995,-2554.67,23531.7349
53509.7569,25849.6106,52101.4631,39531.6929,34607.47,36868.2146,5091.235,49218.7142,44200.8823,55172.056,-2095.4311,-2553.3289,23528.6057
53527.2807,25853.5445,52104.6817,39545.5956,34634.7839,36875.5013,5096.4653,49249.202,44218.7637,55183.053,-2073.3029,-2531.1559,23533.5231
53529.1135,25859.6689,52105.9781,39556.5927,34645.468,36881.0445,5100.8463,49267.2175,44226.0951,55189.535,-2060.92,-2524.5398,23538.2169
53521.648,25857.1208,52102.0889,39549.2166,34629.8218,36877.8259,5096.9571,49250.3196,44213.891,55184.707,-2071.47,-2534.1064,23534.1489
53509.6675,25842.4133,52097.6633,39535.9397,34604.0279,36873.3555,5092.6208,49225.5986,44202.6258,55175.8558,-2090.6031,-2548.188,23524.8059
53515.166,25840.0887,52102.1783,39540.5889,34608.9453,36881.6704,5096.823,49226.6715,44211.477,55173.0841,-2087.3398,-2544.12,23531.422
53531.6616,25846.2578,52101.2843,39550.066,34636.7508,36882.3856,5100.8016,49246.6539,44223.3235,55175.6322,-2072.4535,-2528.7867,23537.5464
53529.65,25851.0411,52098.8703,39555.0281,34648.6419,36882.7432,5099.4605,49253.0465,44223.994,55177.2416,-2062.0823,-2522.3494,23538.9322
53521.6033,25852.0693,52100.9713,39552.6588,34640.4165,36879.4352,5099.2817,49242.0495,44213.8463,55174.2017,-2070.9336,-2526.5962,23538.2169
53507.2982,25845.3637,52100.0773,39540.5442,34609.7052,36877.1553,5098.6111,49218.3119,44200.7929,55169.5079,-2087.4739,-2540.1413,23533.0313
53496.7035,25839.0158,52096.4563,39537.8172,34606.4866,36877.2894,5094.5878,49214.0204,44200.6588,55167.0492,-2089.0385,-2541.7954,23530.7515
53512.9309,25845.7214,52097.3504,39547.5179,34629.5983,36882.6538,5096.7783,49241.066,44215.3662,55170.4019,-2070.6654,-2528.2949,23535.043
53515.1213,25839.9993,52091.226,39544.7016,34631.3864,36882.8773,5089.4916,49247.5033,44214.0698,55165.4845,-2069.369,-2528.8761,23532.9866
53504.3925,25836.2442,52090.8237,39538.0408,34614.6226,36879.3011,5085.7365,49237.5344,44206.8726,55168.7032,-2082.5565,-2538.9791,23528.5163
53494.5577,25836.5124,52093.4612,39536.2079,34601.6586,36877.6023,5088.9552,49219.7871,44200.7482,55172.6371,-2097.7557,-2553.5077,23526.1917
53494.6918,25833.2044,52088.9014,39534.0174,34602.0609,36876.5295,5088.8658,49218.1331,44196.3226,55163.2494,-2097.5322,-2553.9994,23523.4648
53506.7618,25837.2277,52086.2192,39543.2711,34622.0434,36880.1057,5089.0446,49249.6043,44206.1573,55166.0657,-2084.3446,-2540.5437,23525.4765
53514.7637,25840.6699,52090.6448,39553.7764,34636.9296,36883.1456,5087.6588,49260.959,44214.9192,55170.4913,-2075.9404,-2536.6992,23526.3258
53505.5548,25833.0703,52092.4777,39545.0592,34628.5701,36875.3225,5083.9037,49245.6704,44206.515,55164.814,-2085.0152,-2545.6846,23522.4813
53491.7861,25824.9342,52089.3931,39530.7094,34603.5808,36867.0076,5080.1933,49220.3683,44197.7978,55158.6449,-2095.297,-2558.2463,23517.2957
53493.7978,25827.84,52090.6001,39529.5918,34597.4565,36871.925,5078.271,49223.6763,44201.1058,55162.2659,-2095.7887,-2555.7876,23517.5639
53510.651,25834.9925,52091.9859,39539.0689,34610.1522,36880.4187,5079.3886,49239.7249,44207.2749,55163.4729,-2087.5186,-2544.4776,23519.6203
53523.1233,25834.769,52089.3037,39543.3158,34622.4457,36879.2564,5078.9416,49252.2866,44213.5781,55165.261,-2076.7897,-2538.2191,23520.5591
53513.8696,25832.3103,52087.1133,39542.0641,34615.8296,36872.4614,5078.1369,49241.8259,44203.9222,55162.1318,-2082.4671,-2545.4611,23517.5192
53498.9387,25828.287,52087.1133,39532.5869,34597.6353,36867.3205,5076.0806,49211.4276,44195.9202,55157.0356,-2096.7722,-2557.7992,23513.9877
53499.6092,25823.1461,52084.2075,39529.0107,34597.367,36869.6898,5075.7229,49214.6462,44198.4236,55155.3369,-2101.7343,-2559.3638,23511.3055
53521.961,25834.2773,52090.1084,39537.9066,34627.676,36881.0445,5080.4168,49246.7433,44217.7802,55169.0608,-2081.126,-2540.7225,23519.4415
53535.8191,25841.7875,52096.8139,39544.6122,34640.7741,36886.7218,5085.7365,49266.5917,44228.4197,55174.2911,-2072.2747,-2532.9441,23526.8176
53522.9892,25844.4697,52099.8091,39542.2429,34631.7887,36888.4653,5088.2846,49254.7899,44226.9892,55170.7596,-2076.2086,-2538.4426,23524.3589
53514.4508,25844.1567,52104.8605,39537.0126,34609.6158,36887.4818,5091.5033,49240.7978,44219.166,55178.8509,-2085.2834,-2545.0587,23526.3705
53523.5703,25842.5921,52104.2794,39538.0855,34615.159,36891.6839,5094.1408,49241.3789,44220.8648,55179.2532,-2083.3611,-2540.9013,23528.9633
53544.1786,25849.5659,52106.5146,39548.859,34646.7644,36899.0153,5097.1359,49269.7209,44237.0474,55186.8081,-2064.0492,-2528.9208,23535.9371
53551.9123,25854.7068,52106.6487,39552.5694,34662.0083,36898.0765,5098.5664,49281.2097,44240.0426,55189.1774,-2058.9083,-2526.9985,23534.3724
53539.0824,25847.3754,52104.4135,39542.7346,34638.9413,36884.442,5095.616,49266.0552,44231.236,55181.3096,-2072.9452,-2541.7507,23528.4269
53522.0057,25842.1004,52105.5311,39533.8386,34615.2931,36879.6587,5092.6656,49246.6092,44222.34,55173.9335,-2089.4855,-2554.8935,23522.839
53523.8832,25846.6154,52105.0841,39537.102,34613.8179,36883.1009,5096.3312,49256.0416,44228.0173,55175.4534,-2089.5302,-2551.049,23522.0343
53544.4915,25848.0012,52104.5476,39547.8308,34635.7226,36886.3642,5098.7899,49275.5771,44243.5294,55182.4719,-2080.6789,-2539.1132,23525.5659
53555.8462,25849.0294,52101.8654,39553.5976,34647.7926,36892.7121,5099.9075,49283.8472,44245.4517,55188.9539,-2071.6488,-2536.7886,23525.9235
53546.3691,25842.3239,52097.1715,39542.5558,34636.6167,36883.3244,5094.5431,49277.7675,44237.5392,55182.606,-2079.7849,-2543.8517,23523.3307
53523.7491,25832.5338,52095.6963,39534.5092,34615.8743,36873.2214,5088.6422,49258.6344,44222.2953,55172.7712,-2099.812,-2555.7876,23513.63
53517.3118,25827.8847,52093.0141,39531.2905,34612.745,36869.0193,5084.3507,49250.5878,44223.5023,55167.7197,-2099.4991,-2557.4863,23511.3055
53535.5508,25833.4726,52100.3455,39544.5228,34633.4428,36877.3788,5090.8327,49276.4711,44236.6004,55180.4602,-2079.2037,-2542.153,23517.5192
53546.4585,25841.0275,52099.9432,39550.5577,34651.0112,36876.3953,5092.755,49293.3244,44245.6305,55186.2717,-2074.5099,-2537.1015,23520.7826
53540.6023,25843.4862,52096.9033,39543.7628,34646.7197,36878.0941,5091.3692,49292.6091,44239.1932,55180.639,-2086.3116,-2548.188,23517.6533
53527.9959,25838.7476,52098.9597,39536.3867,34621.8646,36876.2612,5090.2069,49277.9911,44230.2078,55180.3708,-2102.4942,-2561.0179,23517.3851
53523.7491,25836.6466,52101.2843,39535.4927,34625.4855,36878.5858,5092.755,49282.5061,44236.3322,55187.7916,-2099.1415,-2558.6039,23523.1519
53538.7695,25845.7214,52103.8771,39546.6238,34648.2843,36885.6043,5092.7997,49296.1407,44251.5761,55192.4407,-2081.2154,-2546.3998,23526.6387
53545.8326,25846.1684,52102.4019,39554.134,34664.914,36892.3992,5092.2632,49307.8977,44255.3759,55191.5467,-2075.538,-2539.2473,23527.3093
53532.5557,25833.6067,52098.5126,39546.1768,34643.6352,36889.7617,5090.0728,49295.0678,44249.4303,55189.2221,-2084.1211,-2545.7293,23525.0294
53508.684,25822.565,52097.7974,39535.6715,34624.368,36883.9949,5088.9999,49277.9464,44242.3671,55187.9257,-2095.1182,-2558.0227,23525.1188
53511.7686,25826.1859,52104.95,39542.6005,34633.6216,36887.4818,5092.9785,49287.5576,44248.8045,55186.2717,-2089.9326,-2552.4348,23529.6339
53529.8288,25828.8234,52099.8091,39554.6705,34655.8392,36892.578,5092.7997,49313.2621,44261.5449,55188.3727,-2078.8908,-2539.3367,23531.1985
53543.3292,25832.5338,52098.2891,39556.6821,34661.8295,36892.8462,5093.3361,49326.3155,44266.5517,55191.4573,-2070.4865,-2532.1394,23532.2714
53529.8288,25826.9012,52096.9927,39549.7978,34657.225,36890.3875,5088.4187,49312.5021,44257.7451,55185.1541,-2078.8908,-2541.4377,23527.5775
53515.6131,25829.1811,52101.2843,39551.1836,34638.986,36887.2136,5091.548,49294.0396,44246.7034,55180.2367,-2086.7139,-2548.0539,23525.387
53523.5256,25833.1597,52107.9898,39556.2351,34638.986,36893.4274,5092.2632,49296.1407,44250.682,55182.5166,-2079.4719,-2541.5719,23529.5892
53543.8657,25830.9692,52107.4533,39561.823,34661.2483,36900.4458,5093.202,49310.1776,44258.8627,55189.1774,-2068.162,-2531.8712,23533.6125
53546.7267,25833.3385,52110.0014,39569.3779,34676.5816,36899.6859,5097.4488,49317.8219,44268.6528,55193.5136,-2061.7247,-2521.7235,23534.5513
53535.9532,25830.1198,52100.0326,39561.7336,34656.1074,36888.6888,5090.9221,49302.5333,44255.8676,55181.2202,-2074.9122,-2536.0733,23524.8506
53527.1913,25826.9459,52100.5243,39551.6753,34636.3038,36886.5877,5086.9435,49277.8569,44238.3885,55180.952,-2092.0783,-2551.049,23521.319
53523.615,25827.4823,52099.5855,39550.0213,34636.6614,36891.6839,5086.9435,49281.0756,44240.4002,55184.1259,-2089.6196,-2549.9761,23522.839
53539.8424,25834.0538,52101.9101,39555.4751,34662.7682,36896.6907,5093.7831,49310.0882,44256.6276,55187.3446,-2075.4486,-2534.3299,23526.4152
53551.7782,25841.6981,52102.1336,39561.0631,34676.5369,36899.8647,5096.4206,49326.3155,44266.3729,55191.8596,-2067.7149,-2529.5019,23529.3657
53535.7744,25828.9129,52096.4563,39554.581,34660.1307,36894.7238,5089.7598,49313.2174,44260.8297,55187.2104,-2075.8957,-2538.9344,23522.079
53509.5781,25821.358,52092.3883,39539.5607,34630.1347,36885.9172,5085.4683,49291.2233,44247.2398,55179.0297,-2093.9112,-2552.2113,23517.2957
53509.5334,25823.1461,52094.3999,39542.6005,34621.1046,36886.3195,5086.1835,49289.3904,44249.2962,55178.8956,-2091.9889,-2550.7361,23516.9381
53540.0212,25832.3103,52101.1949,39554.134,34644.9316,36896.9589,5089.134,49315.2738,44262.1261,55187.8363,-2074.8675,-2535.1793,23525.4765
53547.2631,25839.597,52104.95,39558.3808,34661.4718,36900.3117,5091.1903,49333.781,44274.2854,55193.8266,-2067.0444,-2526.7303,23531.0644
53539.7083,25836.7807,52099.362,39557.7103,34647.3902,36895.9308,5089.3575,49323.231,44268.8763,55187.5234,-2076.5215,-2534.7769,23527.7116
53521.7375,25831.2821,52098.915,39551.7647,34621.8646,36893.4721,5088.4187,49300.4769,44257.2981,55185.5564,-2088.055,-2542.913,23526.147
53528.3536,25830.5669,52100.0326,39546.9368,34618.2883,36892.8462,5091.548,49297.9288,44258.4157,55189.2668,-2083.0035,-2540.186,23529.4998
53542.7034,25831.2821,52103.5194,39554.7152,34638.1366,36895.0367,5093.5596,49319.3865,44272.6761,55197.5816,-2072.1406,-2532.3182,23532.9866
53549.4536,25834.8137,52103.43,39556.0116,34645.6915,36891.1922,5091.1903,49334.0492,44277.8617,55199.9956,-2069.4137,-2527.3561,23532.5843
53531.1252,25830.9692,52098.1997,39547.205,34635.812,36881.2233,5082.7861,49326.8073,44265.1659,55190.0715,-2078.2202,-2538.6661,23526.3705
53513.0203,25824.8448,52092.4777,39538.3984,34609.1241,36877.5129,5076.2147,49288.6752,44252.5595,55180.7731,-2100.7508,-2555.0723,23517.0275
53519.2788,25820.9556,52093.3717,39541.3935,34603.4467,36878.2729,5075.1865,49283.2661,44254.7947,55187.4787,-2105.087,-2554.3123,23517.0722
53536.8472,25824.6213,52095.4281,39546.5791,34625.7985,36883.1456,5075.9017,49312.2339,44259.5333,55187.5681,-2091.5419,-2546.9363,23516.9828
53546.682,25826.8565,52092.0306,39549.3954,34632.8169,36887.0348,5074.7842,49321.3087,44262.5731,55187.5234,-2085.2834,-2545.014,23516.2228
53528.443,25823.3249,52089.9296,39547.9202,34622.7139,36883.5032,5074.9183,49310.4458,44258.0581,55184.7965,-2091.7207,-2549.2609,23515.1052
53510.4722,25821.0003,52090.2425,39541.7064,34610.6887,36881.8939,5075.9465,49304.4108,44249.2962,55178.8062,-2105.0423,-2558.3804,23510.0538
53510.1146,25817.4241,52094.087,39546.0874,34610.7334,36886.5877,5082.6073,49308.1212,44245.4964,55181.2202,-2104.1036,-2553.1054,23513.63
53529.6053,25821.9391,52095.741,39554.0893,34634.6051,36889.8511,5085.8706,49331.6799,44256.3146,55192.0831,-2091.0501,-2535.3134,23518.1004
53538.0989,25828.734,52096.501,39561.2866,34650.5195,36888.0183,5087.0776,49342.4982,44268.7869,55195.6594,-2078.0861,-2532.0947,23520.5144
53529.7841,25830.9692,52099.4067,39559.0514,34642.1152,36890.1193,5089.2234,49340.4418,44271.0221,55198.2522,-2082.2436,-2536.878,23521.2743
53507.2535,25824.4872,52099.7643,39543.6287,34609.1688,36882.3409,5085.3789,49314.6479,44259.7121,55194.4524,-2097.3086,-2553.5077,23516.1781
53515.166,25818.8099,52094.8917,39539.6948,34608.23,36882.5197,5083.7696,49315.6761,44255.2418,55187.2104,-2101.8237,-2556.2346,23512.8701
53537.4284,25823.4143,52095.7857,39558.4255,34634.6051,36890.0746,5085.1554,49339.6372,44263.0649,55191.8596,-2084.9705,-2541.9742,23516.3569
53545.1174,25829.6281,52098.2891,39569.1991,34652.4864,36897.7189,5088.1058,49349.6954,44270.9774,55199.5933,-2068.5196,-2529.189,23521.0508
53531.8404,25832.0868,52098.4679,39559.8561,34642.294,36900.267,5086.9882,49342.4982,44270.4856,55201.5603,-2072.1853,-2535.0899,23521.6767
53507.2088,25824.1296,52096.4116,39544.4781,34618.6459,36887.303,5084.1272,49322.6498,44264.093,55196.33,-2086.5798,-2550.289,23517.2957
53508.9076,25830.9245,52100.1667,39545.998,34618.1989,36891.5945,5087.3011,49328.0143,44268.6528,55204.6448,-2086.0434,-2545.8187,23521.8555
53525.0902,25838.8817,52102.9383,39553.5976,34638.8519,36899.5517,5088.8658,49352.2435,44275.7607,55207.6846,-2072.2747,-2533.3017,23526.5046
53534.3885,25840.044,52108.0345,39564.9076,34654.3193,36905.4973,5088.6869,49363.9112,44285.2378,55214.7031,-2063.1105,-2523.7799,23529.4551
53529.5606,25839.8652,52106.9616,39564.5052,34642.7858,36904.6926,5089.9833,49355.0599,44286.0425,55213.4961,-2070.576,-2532.3629,23529.6339
53510.4722,25834.5455,52102.8489,39549.7531,34621.5963,36897.4507,5085.3789,49331.9929,44270.4856,55205.0024,-2083.227,-2545.7293,23525.7894
53507.5217,25825.1131,52099.6749,39542.4217,34615.9637,36889.6276,5080.5956,49322.6945,44266.2388,55197.7605,-2086.2669,-2551.6748,23521.0061
53537.4284,25824.1296,52100.4349,39558.4255,34631.9228,36895.4837,5085.8259,49355.4622,44280.8568,55206.7012,-2071.2912,-2537.0121,23526.7282
53549.6324,25824.219,52102.7148,39564.7734,34645.2892,36895.2155,5088.5975,49371.6002,44279.6499,55212.2891,-2067.4467,-2532.6312,23530.3938
53539.9318,25828.1529,52103.3406,39562.0912,34634.4262,36891.818,5087.2564,49361.1842,44281.2145,55212.155,-2071.8724,-2539.6496,23529.5445
53513.8249,25824.4872,52100.2561,39550.4236,34610.2864,36882.5197,5082.0708,49332.6634,44268.6081,55205.0471,-2086.5798,-2552.0772,23522.9284
53510.4275,25821.4474,52095.2493,39545.998,34606.5313,36881.7151,5076.4829,49324.885,44258.5498,55199.8615,-2093.5982,-2550.7361,23517.1169
53533.7627,25832.9809,52096.501,39557.1738,34634.6498,36894.7685,5083.4119,49354.9258,44278.8899,55207.5505,-2073.5264,-2533.4358,23527.5328
53543.8657,25837.5853,52094.2658,39562.0018,34647.9267,36897.853,5083.5907,49372.8071,44285.4613,55211.4844,-2067.2679,-2533.704,23527.3093
53532.8686,25830.1646,52088.1861,39556.101,34634.2027,36892.4886,5077.9134,49359.709,44277.8617,55197.7158,-2081.126,-2543.807,23517.6086
53511.3662,25823.3249,52083.8499,39534.1516,34608.4535,36880.6422,5073.8901,49344.8675,44269.4575,55193.7371,-2102.0919,-2555.6535,23510.9478
53508.1923,25817.1558,52088.0967,39538.5325,34605.5925,36880.6422,5073.3089,49347.5944,44274.2407,55199.5933,-2102.3154,-2554.5359,23509.3832
53530.0076,25821.7603,52091.3601,39558.962,34635.5885,36887.4818,5074.9183,49360.6031,44279.4263,55200.4874,-2085.1493,-2545.0587,23512.3336
53544.2233,25833.2938,52096.7245,39561.5995,34647.5691,36888.8229,5076.9746,49367.5768,44281.8403,55204.2872,-2073.8393,-2537.9956,23516.4464
53542.4352,25834.5902,52094.9364,39552.2565,34626.6925,36885.4254,5074.0242,49347.0132,44276.2971,55199.5486,-2083.54,-2545.014,23515.6417
53524.1961,25834.0985,52095.6963,39542.2876,34606.576,36879.0776,5071.5208,49329.7577,44261.1873,55195.5253,-2100.2144,-2561.152,23509.2044
53519.2788,25833.8302,52096.1881,39541.5276,34599.6916,36879.7928,5070.2244,49326.4049,44257.3875,55196.5088,-2103.1648,-2559.9897,23508.8468
53543.2845,25838.39,52100.569,39557.1738,34625.3961,36888.8676,5076.17,49348.5779,44268.1611,55204.6448,-2083.9423,-2540.186,23517.8769
53553.2087,25843.8885,52100.7478,39567.4556,34641.7129,36893.3827,5080.4615,49364.9393,44278.1746,55205.7177,-2070.7101,-2529.3678,23522.5707
53548.649,25836.3783,52099.5855,39564.0582,34620.6576,36892.3992,5075.4547,49354.5681,44275.403,55203.5272,-2084.3446,-2536.2968,23518.1898
53527.9065,25826.1859,52092.7906,39548.099,34594.059,36889.5382,5066.4246,49333.6469,44259.8015,55191.0549,-2098.0686,-2554.9382,23513.7641
53524.4644,25822.2073,52089.3931,39543.9863,34600.2728,36891.9075,5062.4013,49333.9598,44259.6227,55184.8412,-2096.4146,-2553.2842,23515.6864
53549.3642,25829.8069,52093.9082,39564.9076,34638.226,36904.335,5066.8269,49355.5069,44274.1066,55190.3844,-2080.5001,-2539.7837,23521.6767
53548.0231,25826.4989,52089.0355,39560.3925,34637.6449,36900.5352,5059.0485,49359.5749,44268.3399,55194.2736,-2078.8014,-2546.9363,23520.9614
53539.8424,25824.6213,52086.9792,39554.3575,34613.1474,36897.406,5053.6394,49349.1143,44262.0814,55187.1657,-2088.3679,-2559.0062,23516.8487
53524.5538,25816.977,52085.1016,39543.1817,34587.8899,36892.6227,5052.8795,49333.0657,44248.6703,55180.9072,-2103.5671,-2569.0198,23509.9196
53515.926,25811.0315,52084.0734,39536.5208,34582.1679,36890.3428,5050.4208,49326.0026,44246.2564,55178.0015,-2106.8305,-2568.9751,23507.9527
53541.407,25815.0101,52087.9179,39556.3245,34616.1872,36899.5517,5059.2273,49347.3709,44257.0746,55186.0482,-2085.3281,-2546.2657,23517.5192
53550.1242,25818.3628,52087.8285,39558.202,34631.2076,36893.6062,5061.9096,49359.1279,44265.9706,55190.0268,-2080.3213,-2539.1132,23517.1616
53533.5839,25820.8662,52085.951,39546.3556,34614.3991,36886.4983,5062.0437,49352.78,44249.8773,55183.9471,-2092.6595,-2549.3056,23511.4396
53516.2836,25814.9207,52083.5817,39535.3585,34603.2232,36883.5926,5061.6413,49342.677,44228.4197,55175.9452,-2102.4942,-2560.9732,23510.2773
53507.5665,25815.6359,52087.3368,39529.1001,34604.6984,36884.8443,5064.413,49333.1552,44229.0008,55181.4437,-2100.8849,-2559.1403,23514.837
53516.1495,25824.219,52089.4378,39536.6102,34616.9919,36883.7714,5065.6646,49345.6721,44241.8307,55186.0034,-2085.3728,-2550.602,23516.0887
53516.6413,25823.1014,52085.6827,39538.3537,34621.3281,36876.2165,5063.5189,49345.2698,44238.1203,55183.0083,-2086.401,-2549.0373,23511.1266
53507.79,25829.2258,52087.2921,39537.5937,34615.7402,36870.4945,5066.9163,49324.6615,44223.0999,55183.9024,-2092.5254,-2558.8274,23509.9196
53487.0923,25826.9459,52085.3251,39527.8037,34594.9084,36861.5985,5066.5587,49290.8657,44206.1126,55180.6837,-2108.261,-2572.6408,23503.2588
53484.5889,25828.5999,52087.2921,39526.1049,34590.0804,36862.4032,5070.7161,49280.2262,44202.6258,55179.4767,-2110.9879,-2570.495,23502.8565
53505.2419,25839.1052,52088.3203,39542.8687,34616.6342,36869.3769,5073.7113,49292.2515,44206.6491,55181.9801,-2088.2785,-2557.8886,23507.4162
53510.0698,25841.7875,52084.6099,39550.1107,34637.2426,36865.89,5072.996,49301.5051,44202.5363,55178.225,-2078.8908,-2552.8818,23508.7126
53489.7745,25840.8934,52085.4145,39539.8289,34621.5516,36857.1728,5072.9066,49285.1883,44202.5363,55177.8674,-2089.0385,-2561.2414,23508.4444
53474.6647,25839.2394,52085.638,39525.4344,34592.1814,36853.3731,5071.0738,49251.0796,44187.203,55171.3854,-2108.5739,-2573.6243,23507.9974
53477.034,25842.6815,52086.8897,39531.2905,34593.3437,36861.9561,5075.3206,49250.4537,44178.9329,55171.1619,-2102.5836,-2567.7234,23513.6747
53488.791,25849.2976,52089.259,39544.6569,34615.1143,36866.4265,5080.2827,49259.9308,44192.8357,55178.225,-2088.7256,-2550.7361,23518.011
53495.0942,25855.3326,52089.5272,39548.3226,34622.6692,36872.372,5080.3721,49272.8502,44202.8046,55182.0695,-2080.0084,-2539.3814,23521.7214
53481.9514,25851.5328,52088.7673,39535.6268,34600.8539,36866.4712,5076.3488,49261.3614,44182.2857,55172.7712,-2091.2737,-2553.7312,23516.6252
53460.896,25845.319,52093.7294,39527.8484,34583.1066,36862.1796,5076.6617,49232.3935,44167.1759,55165.7081,-2103.5671,-2564.5941,23514.3006
53463.0418,25843.7991,52091.9412,39534.4645,34581.1397,36863.2525,5076.2594,49223.0505,44167.0865,55158.4214,-2097.5769,-2562.9848,23513.4065
53481.9514,25848.1354,52088.5438,39545.5062,34590.3039,36867.9911,5080.0592,49242.0942,44181.7939,55160.4331,-2076.745,-2550.9149,23515.6864
53496.8376,25853.2763,52089.2143,39553.4188,34602.8656,36876.7083,5084.3954,49253.0018,44189.93,55170.536,-2066.7762,-2541.4824,23519.1733
53476.721,25844.9614,52087.0239,39541.617,34587.9346,36868.0358,5079.1204,49232.1253,44177.2342,55165.3504,-2086.1775,-2551.6301,23514.2112
53465.4111,25838.4794,52083.0899,39532.9893,34564.5547,36855.8764,5074.7842,49199.447,44160.5151,55156.0521,-2103.2542,-2569.6903,23509.5173
53456.7386,25828.3317,52077.8149,39524.2274,34551.9036,36853.0154,5072.0572,49189.4335,44154.5248,55150.5536,-2108.1716,-2573.3113,23509.9196
53475.6035,25833.4279,52083.0452,39534.1516,34568.3545,36859.3633,5078.3157,49204.0515,44170.6628,55160.7013,-2092.7489,-2559.9003,23517.2063
53486.5111,25841.3851,52088.4544,39542.0641,34579.3515,36862.4032,5080.5062,49217.4178,44181.3469,55167.4962,-2078.1755,-2546.6233,23521.2296
53472.5636,25832.9362,52084.8334,39532.1399,34563.6606,36852.926,5072.8619,49198.4636,44167.2653,55160.2542,-2091.8101,-2559.5874,23513.3171
53469.8814,25827.7059,52079.6031,39524.6297,34539.2972,36841.0349,5068.3916,49174.1896,44149.965,55152.4311,-2107.6351,-2572.6408,23503.2141
53467.1992,25828.4658,52080.6313,39525.0767,34541.443,36839.8279,5067.3634,49173.7872,44151.8873,55155.0686,-2103.6118,-2567.5893,23505.5834
53474.8882,25826.8118,52078.8431,39535.2691,34567.1475,36848.3663,5069.1068,49185.4995,44161.4091,55157.0803,-2087.4739,-2554.5806,23508.8468
53490.2215,25827.7953,52072.4952,39548.6802,34580.1562,36851.5849,5064.413,49183.6667,44156.4918,55151.2688,-2080.9025,-2549.6185,23504.8681
53488.9251,25823.5484,52069.0531,39537.1467,34562.9901,36843.4042,5059.5403,49159.5268,44145.2712,55142.954,-2092.436,-2562.1355,23499.3249
53481.6831,25820.0169,52073.1658,39525.8814,34541.2195,36835.5364,5060.4343,49144.2382,44141.829,55148.1843,-2105.6235,-2576.6641,23501.4707
53481.1914,25813.3113,52072.227,39520.4723,34535.1398,36831.3789,5059.6744,49136.9963,44141.9631,55145.6362,-2109.6468,-2579.3463,23499.8167
53499.1622,25823.6825,52074.6857,39535.7609,34558.1621,36838.4868,5064.413,49159.1245,44158.2352,55152.1182,-2091.4972,-2565.7564,23505.8069
53508.0135,25825.6048,52079.3796,39532.9893,34569.8744,36837.9503,5062.3566,49174.1896,44160.5598,55158.9131,-2086.1328,-2557.8886,23508.8468
53504.7948,25827.5717,52086.3086,39528.206,34553.6917,36837.5927,5062.8483,49167.8417,44164.3149,55160.3436,-2087.4739,-2558.4698,23511.4396
53486.4217,25814.4289,52085.3251,39514.4373,34529.3283,36831.2448,5058.825,49147.6804,44155.7765,55147.8267,-2101.1084,-2572.2384,23508.9362
53486.6005,25820.0169,52085.1016,39511.7551,34538.1796,36835.6258,5062.0437,49152.106,44162.7055,55151.9394,-2099.5438,-2567.9469,23511.6184
53517.1777,25839.9993,52087.4262,39521.3217,34565.4041,36853.1048,5066.6481,49182.0574,44180.5422,55164.1881,-2081.9306,-2551.049,23517.0722
53522.4974,25844.6038,52091.226,39528.8765,34584.0454,36861.6432,5071.6102,49209.2371,44188.3653,55169.5973,-2075.8957,-2543.7176,23518.8156
53510.5616,25836.7807,52092.7012,39525.5238,34576.8481,36856.6364,5072.8619,49199.8941,44184.8338,55169.7761,-2082.5565,-2546.9363,23518.011
53495.4518,25830.5669,52092.2542,39516.9854,34552.44,36846.891,5071.9678,49177.7211,44176.5189,55167.5856,-2098.3368,-2559.3638,23516.5358
53493.4402,25832.0868,52093.64,39516.6725,34550.1602,36845.9523,5075.4547,49177.3635,44175.9378,55162.6682,-2099.365,-2562.1355,23514.6582
53507.7453,25834.6796,52096.4563,39526.6861,34575.5517,36849.1262,5077.2876,49195.7814,44187.2925,55164.7246,-2080.4554,-2547.1598,23517.3851
53525.4031,25841.2063,52099.8538,39534.9115,34586.4594,36849.8415,5077.7793,49204.4091,44197.1719,55176.124,-2075.3145,-2544.7011,23518.458
53512.0815,25832.7574,52093.8188,39525.2109,34569.1592,36842.5548,5072.5937,49192.2051,44180.4081,55164.2329,-2087.3845,-2558.6486,23510.7243
53489.6404,25820.4639,52093.5059,39508.2235,34543.4994,36834.5976,5067.3187,49169.4957,44166.9077,55154.3981,-2104.5953,-2573.8478,23503.6612
53488.2098,25817.8711,52087.6497,39506.1672,34542.7841,36836.0728,5065.3964,49170.3004,44164.7619,55152.9676,-2110.1832,-2576.9323,23499.2802
53507.3876,25830.7457,52087.7838,39523.1992,34566.0299,36847.651,5066.067,49196.0049,44185.8619,55158.9578,-2090.3349,-2558.6039,23503.84
53510.3828,25834.769,52085.9063,39528.4295,34581.7208,36851.6743,5067.274,49207.3596,44190.1535,55162.0424,-2081.7965,-2552.3901,23504.2423
53502.515,25834.2773,52084.7887,39531.4693,34577.6528,36848.5898,5068.0786,49199.4917,44180.3187,55162.2659,-2086.401,-2555.8323,23502.5436
53478.8668,25831.1927,52081.7488,39520.964,34557.0445,36840.6326,5064.3235,49180.7163,44166.55,55156.4544,-2102.8519,-2568.081,23494.7205
53472.966,25830.9692,52077.6808,39520.517,34554.4964,36843.1807,5062.5354,49182.8173,44168.1147,55152.297,-2107.7693,-2570.9867,23493.0217
53499.1622,25838.9711,52078.5749,39538.4878,34575.1047,36854.3565,5059.7638,49202.1739,44186.4878,55158.2426,-2090.8713,-2557.4416,23499.5484
53505.6442,25838.3453,52077.502,39541.3041,34588.8287,36857.307,5053.9076,49217.5072,44191.1817,55156.4097,-2082.2436,-2554.8488,23499.8167
53500.6821,25835.3949,52077.7255,39540.3653,34586.1018,36863.2525,5055.0252,49209.7735,44184.9679,55149.3913,-2090.6478,-2561.3308,23500.5766
53488.1651,25824.1296,52077.502,39529.4577,34559.0562,36856.0553,5054.757,49197.2119,44177.2342,55138.0813,-2105.8023,-2570.495,23500.0849
53491.7861,25824.8448,52078.3961,39527.4907,34556.374,36858.4245,5054.6229,49198.24,44184.9232,55139.4671,-2105.9364,-2568.6175,23502.3201
53517.58,25829.6281,52085.7722,39541.2147,34582.6596,36871.165,5056.411,49221.7988,44202.3128,55152.8782,-2087.1162,-2553.5971,23507.1927
53526.2972,25826.9906,52084.8334,39541.3935,34599.1105,36868.4828,5054.3994,49240.3507,44202.0893,55154.6663,-2078.8908,-2551.809,23509.8749
53515.6578,25822.3414,52084.0287,39536.6102,34590.3933,36863.2078,5059.4956,49234.0922,44190.2429,55151.3135,-2082.3777,-2556.9499,23507.6845
53495.273,25815.323,52086.7109,39518.5947,34573.2272,36860.168,5059.4509,49205.6161,44184.9679,55149.8383,-2101.6449,-2566.5164,23506.9245
53492.3673,25817.0664,52088.052,39517.8348,34575.1494,36859.6315,5060.0767,49204.275,44192.7016,55156.0074,-2102.2707,-2565.9353,23510.1432
53507.1194,25823.5931,52089.0802,39530.4412,34606.9783,36859.9892,5063.6083,49225.1962,44204.7715,55165.3951,-2088.2338,-2553.1948,23512.0654
53516.0154,25826.0965,52086.6215,39530.1282,34609.3923,36856.4129,5062.4013,49226.8503,44207.5878,55166.8704,-2081.7518,-2546.4892,23513.3171
53495.7647,25820.598,52081.6147,39512.7833,34587.0852,36848.2322,5054.8911,49210.9358,44196.9484,55159.1367,-2096.504,-2558.6486,23505.941
53483.2925,25815.6359,52082.8664,39510.861,34578.0551,36847.3828,5059.0038,49196.0049,44192.791,55154.3981,-2106.8752,-2567.1422,23504.4658
53486.0641,25811.9255,52086.9344,39512.6492,34585.4759,36847.9192,5064.5918,49199.5811,44193.1039,55154.3981,-2101.7343,-2558.6933,23506.9245
53507.2088,25817.9605,52088.8567,39523.2886,34603.9832,36848.5898,5068.4363,49221.3964,44206.2914,55161.3718,-2083.4059,-2542.913,23510.5008
53520.7093,25824.1296,52088.0073,39524.138,34617.6177,36849.4391,5066.6034,49223.1399,44204.4139,55158.5108,-2083.227,-2543.7623,23510.1432
53508.1029,25824.0849,52086.3533,39520.07,34605.2349,36844.6112,5064.3682,49208.8348,44196.2779,55155.3816,-2092.0783,-2554.9829,23507.2821
53491.3391,25825.3813,52088.4097,39513.7668,34585.5653,36840.0514,5066.3352,49206.1526,44187.6948,55158.0191,-2103.0754,-2566.6505,23507.461
53495.4965,25829.4046,52088.1861,39506.6142,34583.3302,36843.583,5069.1515,49214.5568,44194.5791,55162.0871,-2104.1036,-2563.8342,23506.9692
53513.0203,25838.6582,52087.9626,39518.4606,34602.2397,36854.4459,5071.8784,49230.1136,44205.6209,55171.1619,-2089.2173,-2548.3221,23510.6796
53523.5256,25847.0178,52085.7722,39521.3664,34614.9355,36861.2409,5072.4596,49243.8823,44211.5664,55175.6769,-2080.0978,-2545.4611,23515.6417
53511.8133,25840.8934,52085.6827,39516.0466,34604.2067,36852.2555,5072.3255,49237.3109,44201.1952,55171.9218,-2091.7207,-2555.0723,23511.7078
53492.0543,25833.1597,52085.4145,39508.76,34594.8637,36847.1146,5075.0077,49219.4742,44189.3041,55167.0939,-2103.3883,-2562.8954,23509.1597
53495.0495,25832.9362,52085.5486,39511.4422,34590.7062,36854.6247,5073.3089,49212.8581,44191.3605,55168.7479,-2102.3154,-2559.6768,23512.8254
53520.6199,25842.4133,52088.812,39526.1943,34613.7285,36866.5606,5079.3439,49234.0922,44208.3925,55176.571,-2083.8529,-2545.3717,23521.2296
53524.4197,25844.6038,52090.2425,39531.1117,34621.9987,36869.9133,5080.2827,49247.3692,44217.512,55180.8625,-2073.2582,-2536.5651,23524.94
53506.583,25840.8934,52088.9908,39519.9358,34607.1571,36862.8949,5074.9183,49237.4897,44210.8512,55170.7149,-2082.5565,-2545.014,23520.9167
53494.1107,25837.2277,52090.7789,39516.1361,34587.8899,36863.2972,5075.8123,49220.1447,44204.8609,55162.1765,-2096.3699,-2553.5077,23518.5474
53489.1039,25832.0868,52095.6069,39523.1098,34592.8073,36864.9065,5079.5674,49218.1331,44205.755,55160.9248,-2093.8665,-2555.2958,23519.4862
53509.1311,25834.322,52100.4796,39534.8221,34612.9239,36872.4614,5082.9649,49242.4518,44219.7472,55178.225,-2082.6906,-2540.7672,23522.8837
53516.2836,25834.5455,52101.5972,39542.9134,34626.5584,36873.8025,5081.3556,49254.2088,44218.5849,55177.018,-2078.0414,-2534.6428,23522.5707
53502.6491,25833.0256,52098.6915,39532.9893,34622.4904,36867.6782,5075.5888,49240.7084,44206.5597,55169.1502,-2087.5633,-2546.3551,23516.8934
53480.0291,25825.7836,52092.88,39515.3314,34594.7742,36861.0173,5072.2361,49221.1282,44186.0408,55162.2659,-2104.6847,-2564.1471,23511.9313
53480.9679,25823.2355,52094.4893,39518.7289,34596.0259,36866.5606,5073.8901,49217.9096,44194.3109,55164.9034,-2096.1463,-2558.738,23516.8487
53500.3692,25829.8069,52091.4495,39535.7162,34620.5235,36875.8142,5077.0193,49238.9202,44217.0203,55166.6915,-2079.3378,-2546.0422,23519.3521
53506.5383,25829.8069,52089.5272,39539.203,34629.0171,36874.7413,5076.8852,49243.2564,44218.3614,55171.1619,-2075.4486,-2541.4824,23516.4464
53498.1787,25825.5601,52085.9957,39532.7657,34614.5332,36874.786,5074.8289,49238.8308,44202.3128,55162.7129,-2085.5963,-2550.7361,23510.2773
53480.0291,25815.5018,52084.1628,39513.6327,34593.1649,36865.3089,5071.0738,49218.7589,44193.3274,55157.125,-2106.5623,-2567.634,23505.8963
53478.5092,25818.5863,52079.3349,39511.9339,34589.2757,36857.9328,5066.2011,49213.4392,44191.4499,55159.4496,-2108.4398,-2566.3823,23504.6893
53501.5762,25825.3366,52083.984,39525.9708,34614.265,36867.2311,5071.4761,49226.9397,44206.4703,55168.6138,-2090.2008,-2548.0986,23509.7408
53523.4809,25838.5241,52089.4825,39542.4217,34632.1911,36878.0047,5077.4664,49244.687,44213.9804,55176.0793,-2076.745,-2537.8615,23520.3356
53510.7851,25832.9809,52087.9626,39533.928,34610.4652,36872.8638,5073.2642,49238.652,44204.9503,55166.9151,-2092.2571,-2547.3386,23515.1947
53492.0096,25822.6544,52082.0618,39511.4422,34576.4905,36858.514,5067.721,49219.4742,44192.8804,55153.6381,-2116.3523,-2569.9586,23504.1082
53494.1107,25823.9061,52085.7722,39517.9689,34580.8268,36859.2739,5071.6549,49230.8736,44197.9319,55162.8917,-2110.2726,-2562.4484,23509.2491
53518.2059,25831.1033,52088.052,39532.6763,34610.3758,36865.3536,5076.3488,49253.0912,44208.4372,55172.6371,-2094.2241,-2545.5505,23513.7641
53527.4148,25837.0489,52090.6448,39531.827,34616.7237,36866.2924,5078.0922,49262.2107,44220.2836,55181.4884,-2088.1891,-2536.9227,23517.1169
53522.2739,25836.8701,52090.8237,39524.9426,34604.6984,36865.7559,5076.3488,49251.5266,44211.79,55178.1803,-2098.5603,-2548.3668,23514.3006
53508.8629,25828.9576,52089.3037,39515.7337,34585.3865,36859.1845,5072.5043,49225.0174,44200.8823,55170.6254,-2108.9762,-2559.1403,23508.7126
53501.9338,25822.8332,52089.572,39516.896,34587.2194,36857.2176,5070.8503,49222.1117,44200.7035,55163.7858,-2110.3173,-2560.1238,23510.1432
53515.5684,25828.8682,52091.9859,39525.7473,34612.8792,36864.0125,5075.1418,49251.1243,44219.166,55173.9782,-2093.1065,-2546.4892,23516.3122
53523.8385,25832.0421,52089.0802,39532.0952,34623.3845,36866.203,5074.9183,49263.8201,44224.3516,55175.9005,-2086.6692,-2542.1083,23517.6533
53510.9192,25824.3531,52089.4825,39527.7143,34610.5546,36855.787,5072.4149,49249.1573,44219.7472,55171.3407,-2095.9675,-2549.3056,23512.6913
53497.8211,25817.6923,52090.5554,39521.6793,34590.5721,36851.5849,5072.1467,49229.0854,44214.7851,55174.6041,-2106.6964,-2553.9994,23515.15
53514.3614,25820.4639,52090.7789,39527.446,34596.6071,36857.3517,5073.6666,49230.7395,44216.5732,55171.9218,-2104.3718,-2556.9052,23514.9711
53534.3885,25826.2306,52088.0967,39535.895,34616.679,36862.8502,5075.1865,49255.5946,44225.8716,55178.1356,-2096.3252,-2546.3998,23516.1781
53539.9765,25829.2705,52085.638,39529.5918,34627.229,36862.2243,5073.5772,49264.9376,44224.0834,55180.1026,-2093.0618,-2540.5884,23513.183
53523.8832,25824.8448,52082.5088,39516.6278,34609.3476,36852.6578,5065.4858,49245.9387,44219.3449,55174.2464,-2104.9082,-2548.5009,23505.1364
53498.0446,25813.7584,52078.1279,39497.8076,34579.6198,36843.4936,5060.9708,49223.274,44205.0397,55165.261,-2126.3659,-2572.4173,23494.8546
53490.0427,25806.9634,52077.8596,39498.0758,34582.4361,36843.9406,5061.5966,49222.1117,44208.7054,55170.4913,-2125.0695,-2572.5514,23496.5533
53504.7501,25810.8526,52077.9043,39512.1127,34605.6819,36852.3449,5066.2458,49240.7978,44221.5353,55176.8839,-2103.7012,-2554.8935,23503.9741
53509.1758,25806.1141,52070.6624,39508.8941,34605.0113,36849.7968,5061.1496,49250.2749,44226.6762,55177.6886,-2105.087,-2554.6253,23504.5999
53499.8327,25805.98,52072.8976,39509.0729,34597.7694,36847.6063,5060.3896,49246.9668,44224.1728,55175.2299,-2112.9996,-2563.9683,23505.2258
53484.6336,25797.3969,52077.055,39502.4121,34578.0551,36845.9523,5059.585,49223.721,44211.4323,55170.9384,-2124.086,-2575.8147,23502.5883
53484.9465,25790.8702,52074.5069,39497.3606,34566.6558,36850.6461,5055.7852,49221.9329,44212.9076,55168.0326,-2125.1589,-2574.1607,23500.219
53508.7734,25796.2346,52075.7586,39516.9854,34596.5177,36860.3021,5061.0155,49251.3478,44233.1582,55177.018,-2103.1648,-2553.3289,23508.6232
53513.4226,25795.117,52072.7634,39529.8153,34610.8228,36863.476,5060.032,49269.1845,44240.0873,55179.5214,-2086.4904,-2545.9528,23514.6135
53488.4781,25787.3833,52068.2931,39512.4257,34592.2709,36851.719,5054.31,49263.6412,44231.1019,55174.6041,-2097.8898,-2554.2229,23512.423
53470.9096,25776.431,52066.0132,39501.0263,34575.1494,36846.3099,5052.1195,49242.1836,44214.4722,55165.9763,-2110.3173,-2566.5611,23504.6893
53467.9145,25769.5019,52062.7052,39499.7746,34570.8132,36842.8677,5050.2867,49232.0806,44205.755,55158.5555,-2113.089,-2568.3045,23505.6728
53485.8853,25770.6642,52057.8325,39507.0612,34589.7228,36847.6957,5048.6773,49255.1029,44211.8794,55161.1483,-2100.4826,-2560.3473,23508.9809
53485.3935,25771.4242,52052.1104,39511.4869,34605.1455,36847.9192,5048.9902,49255.4158,44212.997,55162.4,-2094.9841,-2554.8935,23508.3997
53467.6015,25757.6108,52045.3155,39501.4733,34584.403,36834.3741,5038.932,49231.6335,44200.7035,55153.9063,-2111.122,-2567.9469,23497.8944
53439.8407,25741.1152,52041.1134,39480.9991,34553.8706,36822.6618,5024.2245,49203.6045,44184.5208,55140.4506,-2135.7536,-2591.6398,23483.2317
53444.2663,25741.1599,52040.4875,39486.8553,34561.8278,36825.9698,5025.6103,49196.9883,44184.8785,55130.7946,-2133.5632,-2589.1811,23486.495
53462.8183,25743.0822,52045.1814,39498.0311,34588.7393,36835.8493,5032.0029,49217.1943,44201.1505,55145.5915,-2114.7877,-2574.7418,23496.9556
53474.9329,25742.9928,52044.2426,39507.5977,34600.9433,36841.169,5033.4334,49228.102,44210.7171,55148.8996,-2106.1599,-2567.1422,23495.7039
53471.9825,25738.3883,52045.8519,39501.965,34591.0192,36835.2681,5032.8076,49220.9047,44209.9571,55147.6926,-2118.364,-2575.6359,23495.4357
53456.828,25733.6944,52049.0706,39489.4481,34569.785,36827.8921,5027.7114,49204.4985,44201.5082,55144.8762,-2135.9771,-2587.7059,23492.3959
53458.6161,25738.4777,52051.4399,39495.3489,34566.0299,36835.7152,5030.036,49211.964,44195.9649,55145.9044,-2133.5632,-2589.494,23492.977
53470.9096,25746.122,52050.1882,39500.8028,34595.4001,36835.9834,5033.7464,49237.7579,44213.444,55154.3087,-2114.8771,-2573.9372,23500.5319
53477.7939,25745.1832,52049.7859,39498.6123,34603.8043,36831.2448,5033.2546,49258.6344,44220.4624,55159.1367,-2105.2659,-2565.1306,23501.2025
53469.1662,25741.1152,52049.5176,39496.6453,34584.2242,36827.8027,5029.723,49248.3079,44212.3264,55153.504,-2117.6487,-2578.1393,23495.2122
53453.8776,25730.3864,52047.1931,39487.6152,34561.8725,36826.2827,5026.2809,49226.8056,44207.5431,55148.0055,-2131.1492,-2596.5571,23489.7137
53452.1341,25732.8004,52048.3106,39482.7425,34558.4303,36822.0806,5025.0292,49221.2176,44207.6325,55146.575,-2135.843,-2599.0158,23486.1374
53466.0816,25749.6536,52053.3621,39495.9301,34580.335,36831.6472,5028.5161,49245.0446,44214.6957,55155.6498,-2121.5826,-2580.1063,23491.9935
53483.0689,25760.9636,52053.4962,39504.8261,34594.8189,36838.755,5030.6171,49261.5849,44218.8531,55156.7227,-2111.3902,-2570.1821,23493.7817
53489.0145,25761.2318,52048.5342,39500.8475,34592.2709,36834.2847,5031.0194,49256.0416,44205.5762,55148.4525,-2121.2697,-2580.9556,23486.8079
53465.724,25755.2862,52046.2543,39486.0506,34567.5945,36824.7628,5024.1798,49231.0077,44201.0611,55150.0171,-2140.0899,-2595.3948,23483.8128
53462.5053,25759.1307,52047.0589,39490.0739,34570.1873,36828.0262,5025.1633,49232.3488,44215.2768,55156.4097,-2130.7468,-2591.9527,23487.2997
53485.5723,25770.3066,52046.6119,39507.1954,34594.506,36839.4256,5029.723,49268.8715,44233.5159,55162.7576,-2110.0938,-2575.9935,23493.9158
53495.4518,25775.8051,52045.8519,39515.242,34606.1289,36840.4537,5030.93,49283.8472,44233.5159,55161.8636,-2101.9131,-2566.2929,23496.3745
53477.8386,25770.3066,52048.3106,39501.2945,34592.092,36834.8211,5028.2031,49266.8599,44224.2175,55156.3203,-2115.8606,-2571.1209,23493.8711
53468.8532,25766.5515,52053.1833,39495.8407,34578.6363,36834.6423,5027.1749,49251.6607,44217.1991,55152.8782,-2126.8129,-2581.045,23492.3959
53472.3848,25765.568,52053.0045,39500.6239,34580.5585,36835.7152,5031.0642,49266.4129,44217.959,55155.6945,-2125.1142,-2578.1393,23495.1228
53496.0777,25776.2969,52057.2513,39512.7386,34602.195,36845.5946,5038.5743,49295.4701,44234.7229,55165.9316,-2110.3173,-2563.2977,23499.2355
53502.202,25781.8848,52058.2795,39518.0583,34613.8179,36850.0203,5042.1953,49300.2981,44231.3254,55166.5127,-2099.7673,-2557.1734,23499.459
53486.1088,25779.5602,52057.6537,39509.7435,34603.0891,36843.0912,5041.1224,49283.4896,44227.3468,55164.8587,-2110.3173,-2565.7117,23497.805
53467.5121,25775.3581,52056.1785,39498.8805,34577.4293,36839.0232,5033.7911,49260.6014,44218.6743,55156.0968,-2128.8693,-2577.3346,23492.2618
53474.1729,25776.0733,52059.3971,39501.7862,34577.921,36846.8016,5036.1156,49264.8482,44219.6131,55153.7275,-2129.1822,-2576.4406,23493.3794
53488.8357,25778.0403,52056.4914,39506.0331,34599.6469,36854.3565,5035.4898,49289.614,44232.5771,55154.3981,-2117.4252,-2569.5562,23498.1179
53496.1224,25784.2541,52063.2863,39512.4704,34614.5332,36858.8716,5042.0165,49303.4273,44251.129,55172.4136,-2106.1599,-2563.1636,23505.8069
53489.6851,25789.7079,52067.7567,39516.9854,34608.7217,36859.408,5044.5199,49291.5362,44254.0348,55171.8324,-2109.468,-2566.427,23505.7175
53477.3916,25787.5621,52063.0628,39501.965,34582.0338,36848.098,5040.4519,49278.2593,44237.1368,55161.3271,-2127.5729,-2581.2238,23498.1179
53479.3139,25790.7361,52063.8227,39498.5229,34575.1941,36852.0319,5040.4519,49279.511,44237.4051,55163.7858,-2128.9587,-2582.5649,23496.7321
53486.7346,25796.771,52068.159,39508.4023,34592.5391,36853.5966,5042.9106,49307.6742,44254.9735,55172.5477,-2107.8587,-2571.2103,23500.666
53494.3789,25807.1423,52072.7634,39514.1691,34603.8491,36857.3964,5047.6491,49323.6333,44259.5333,55177.331,-2100.9296,-2560.392,23503.3035
53492.5014,25805.0859,52072.7187,39514.6608,34602.0609,36857.7093,5049.0797,49326.4496,44248.4468,55174.0676,-2107.7245,-2564.9518,23500.4425
53473.1448,25791.5407,52066.7732,39501.8309,34585.5206,36850.3332,5043.8493,49297.5712,44236.5557,55167.0492,-2127.8411,-2578.9887,23492.3065
53469.0768,25786.6681,52063.5992,39500.1322,34580.6032,36847.7404,5038.7084,49289.5246,44231.1019,55162.8917,-2133.8314,-2582.1626,23489.1325
53495.273,25794.8041,52063.7333,39520.3382,34607.1571,36858.2904,5043.4917,49308.7471,44241.5178,55168.0773,-2110.7197,-2566.5611,23496.3745
53509.5334,25806.8293,52066.6391,39539.0689,34628.436,36869.9133,5050.5549,49332.3505,44248.1339,55172.5477,-2094.8499,-2555.877,23502.8565
53498.6258,25812.3279,52073.6128,39533.3022,34612.5662,36870.0027,5053.3265,49327.0755,44243.7977,55173.6206,-2099.4991,-2561.6884,23503.1247
53481.9514,25804.2812,52069.9471,39521.8134,34584.8054,36861.5985,5047.8727,49310.1329,44229.3137,55161.2824,-2112.329,-2575.2336,23495.1675
53487.2711,25804.5048,52070.8859,39514.7949,34584.8054,36859.4974,5041.793,49310.4458,44227.4362,55162.7129,-2115.5477,-2578.6757,23495.6145
53516.0601,25812.4173,52080.4971,39527.9825,34618.1542,36874.6072,5052.343,49339.9501,44253.3642,55179.2979,-2096.6381,-2561.6884,23506.4775
53536.6237,25815.6359,52087.2027,39544.2992,34642.0258,36882.9221,5062.1778,49368.2474,44266.1047,55190.2056,-2081.9306,-2547.9198,23514.9711
53527.6383,25815.9935,52088.6332,39542.6452,34628.3019,36880.5528,5066.0223,49358.5914,44267.7587,55189.2668,-2087.9209,-2549.6185,23514.0771
53510.0251,25812.2832,52093.1035,39538.2196,34607.6936,36880.6869,5068.7045,49338.4302,44259.2651,55185.467,-2094.1794,-2558.3804,23514.4347
53506.4489,25809.5115,52093.8188,39536.1185,34607.3359,36878.3623,5067.3634,49330.7859,44257.9687,55186.6293,-2091.9442,-2553.5077,23516.3122
53524.6879,25821.0897,52096.1434,39546.445,34633.7557,36886.3195,5073.6666,49356.1774,44277.5935,55198.431,-2073.5711,-2535.3134,23523.0178
53548.2466,25829.941,52101.1502,39561.376,34652.1735,36899.9988,5082.9202,49375.4894,44291.7198,55202.6331,-2061.68,-2524.8528,23527.5775
53533.9415,25826.9012,52103.2512,39554.894,34641.6235,36894.6344,5082.2943,49365.9228,44282.5109,55198.5204,-2075.1357,-2537.1015,23522.4366
53513.4673,25823.8167,52100.5243,39538.8454,34616.2766,36888.2418,5076.6617,49348.2202,44266.4623,55187.7469,-2094.8499,-2552.8818,23513.7194
53515.9707,25822.565,52101.2843,39540.41,34616.6342,36891.5498,5077.4664,49352.9141,44270.7539,55187.5234,-2094.5817,-2553.6865,23512.8701
53528.5324,25820.4192,52101.016,39544.2992,34633.4875,36895.3049,5075.3653,49372.8071,44279.2475,55194.1395,-2083.6741,-2543.1365,23516.3122
53525.6714,25816.2171,52096.3669,39543.2711,34638.3154,36893.9638,5069.9562,49377.6351,44279.7393,55194.8994,-2083.7188,-2541.9295,23512.423
53527.1019,25819.9722,52100.0773,39539.0242,34627.6313,36888.3759,5072.4596,49369.2309,44272.3632,55204.019,-2089.1726,-2546.3551,23513.4512
53508.237,25811.9702,52100.7925,39523.9592,34595.4001,36879.6587,5068.6598,49347.192,44260.4274,55199.9956,-2109.8703,-2557.9333,23509.5173
53501.8444,25811.9255,52097.261,39519.9805,34587.9793,36873.6684,5061.5072,49335.3009,44263.1096,55191.502,-2115.4135,-2564.9965,23503.4823
53522.9445,25815.2783,52095.9198,39529.6365,34615.159,36876.9765,5058.7356,49345.4039,44265.7918,55193.2901,-2104.1483,-2554.6253,23506.8351
53522.9445,25812.462,52093.0141,39530.4412,34622.7586,36871.478,5056.5898,49356.848,44267.8928,55191.0549,-2097.5769,-2552.5242,23505.8516
53512.1709,25806.0247,52086.8003,39520.07,34607.1124,36864.6383,5053.1924,49351.9306,44256.0464,55183.5895,-2102.3601,-2560.4814,23501.9624
53503.9008,25803.9236,52087.5156,39514.9291,34590.3933,36867.4546,5049.6608,49333.5575,44239.8638,55177.5545,-2116.9782,-2568.3939,23500.5766
53515.1213,25810.4056,52090.1531,39523.4227,34595.7577,36879.4352,5053.8629,49341.9617,44243.8871,55181.0414,-2109.6468,-2562.5378,23506.254
53538.1883,25812.9537,52089.0802,39536.5208,34620.747,36886.543,5056.4557,49357.1609,44260.2038,55187.6128,-2091.4972,-2551.496,23510.8584
53545.1174,25814.1607,52090.1084,39543.2711,34633.0851,36887.4371,5055.517,49368.8732,44266.1494,55192.0831,-2087.2504,-2550.1996,23512.5124
53529.337,25816.3065,52087.4709,39535.1797,34616.7237,36887.9735,5054.7123,49362.4806,44263.1543,55184.7965,-2095.3417,-2557.8886,23512.6913
53511.6792,25811.702,52084.744,39528.1613,34597.3223,36883.682,5054.6229,49343.1687,44249.2515,55171.9666,-2107.814,-2568.2598,23508.4891
53511.7686,25809.4221,52088.4097,39530.1729,34594.059,36885.6937,5053.6841,49345.8509,44247.4186,55182.4272,-2110.3173,-2568.1704,23510.6349
53528.0854,25805.1306,52084.8334,39530.2176,34603.8938,36885.5149,5043.8941,49360.2902,44248.6256,55187.3893,-2094.537,-2557.5757,23508.9362
53543.3292,25809.7351,52083.0899,39538.2643,34616.3213,36888.2865,5044.5199,49370.9296,44256.0464,55189.8479,-2086.1328,-2550.0208,23510.6349
53532.5557,25802.8954,52078.9325,39533.7939,34603.3126,36885.336,5044.0282,49354.0764,44246.7034,55180.2814,-2094.2688,-2559.7662,23506.701
53511.1874,25796.9499,52080.2736,39521.277,34577.5634,36874.1602,5042.4188,49330.2941,44227.2574,55172.6371,-2110.8091,-2572.1937,23502.3201
53505.9124,25799.6768,52086.3533,39515.2867,34572.8248,36870.9415,5045.2352,49329.3554,44229.7608,55176.0346,-2112.0608,-2566.9634,23503.84
53524.8667,25807.2764,52087.2474,39529.0107,34601.8374,36872.685,5049.2138,49345.091,44240.6684,55180.1473,-2096.0122,-2557.978,23506.6563
53524.7773,25814.9207,52092.2542,39535.8056,34616.0978,36873.4896,5053.4606,49351.0365,44238.3438,55181.8907,-2089.262,-2551.049,23512.0207
53508.8181,25809.288,52090.4213,39522.0816,34601.7927,36865.1301,5053.2818,49336.4632,44230.6101,55177.6886,-2103.7012,-2562.0013,23507.3715
53485.0806,25810.0927,52086.845,39513.5432,34580.4691,36861.5091,5055.0699,49306.646,44210.6724,55170.9831,-2116.9782,-2570.7632,23501.7836
53475.1564,25812.5514,52084.6546,39506.6142,34573.7189,36853.7307,5052.7453,49290.3739,44201.7317,55164.5458,-2118.5875,-2572.3279,23498.5203
53486.3323,25818.6758,52082.8217,39509.5646,34592.0026,36853.5072,5053.0136,49301.371,44205.9785,55162.2212,-2103.7459,-2560.1685,23500.8448
53494.6024,25827.4823,52080.3183,39517.5666,34608.677,36853.1048,5056.9028,49308.3,44211.9241,55176.3028,-2092.9724,-2553.463,23508.7574
53484.41,25825.8283,52081.9277,39513.5432,34600.4516,36854.6247,5060.032,49289.9269,44201.0611,55176.571,-2100.9296,-2558.9168,23509.9196
53466.6181,25824.3531,52083.1347,39501.2498,34576.0882,36850.5567,5058.5568,49258.8133,44182.8221,55169.1502,-2116.7547,-2575.5465,23505.941
53459.5102,25825.5601,52085.7722,39498.21,34574.4789,36849.5286,5059.3615,49247.1009,44181.6151,55164.1434,-2121.3591,-2578.3181,23502.9906
53469.6132,25834.769,52089.259,39510.9057,34590.0357,36846.9805,5063.1166,49262.0766,44195.2497,55171.8324,-2101.779,-2562.5825,23507.8186
53482.6666,25844.9167,52087.0686,39524.0486,34603.3573,36849.0368,5070.2244,49265.2059,44198.826,55176.2134,-2093.9112,-2550.9596,23512.2442
53473.1448,25840.1334,52080.1395,39516.2702,34595.5342,36842.7336,5070.6267,49249.7832,44183.448,55173.5312,-2103.1201,-2558.6486,23513.0936
53455.9339,25835.1713,52081.6147,39504.7367,34571.439,36838.0845,5070.9844,49222.827,44172.2721,55163.8305,-2118.364,-2572.4173,23508.7126
53459.1526,25838.837,52082.8664,39511.3975,34570.545,36841.2137,5069.688,49215.8979,44164.8513,55159.8966,-2120.7333,-2573.8478,23504.6893
53468.9873,25839.8652,52081.0336,39523.6909,34587.4429,36843.6724,5069.6433,49228.7278,44170.6628,55161.4165,-2106.607,-2561.2414,23506.0751
53476.274,25839.9099,52083.984,39533.6598,34599.0658,36844.9688,5068.3469,49236.1486,44182.1069,55169.2843,-2090.469,-2553.3289,23509.7408
53463.3547,25832.1762,52082.777,39525.6132,34581.0056,36844.2088,5066.8716,49224.7045,44179.1564,55165.1269,-2099.365,-2561.9566,23509.562
53446.5909,25823.2802,52083.2241,39514.9738,34555.9716,36841.4372,5068.2127,49205.482,44166.3712,55161.3271,-2113.7148,-2570.6291,23510.5008
53449.139,25821.1344,52084.2075,39514.035,34549.6684,36845.9076,5071.342,49201.7269,44159.2187,55160.6566,-2112.9549,-2570.7632,23512.0654
53475.067,25831.5057,52087.0686,39528.3848,34567.4604,36855.1165,5075.3653,49223.9445,44170.5287,55166.7362,-2087.1609,-2551.7642,23522.9284
53490.3109,25837.3618,52090.1978,39540.5889,34585.9677,36860.4809,5079.8357,49237.8026,44176.4742,55167.4962,-2072.5429,-2540.0519,23526.8176
53487.3158,25839.5076,52093.5506,39542.824,34579.3515,36861.8667,5086.0941,49218.3119,44170.2157,55163.7858,-2083.227,-2543.0918,23526.5046
53469.345,25833.1597,52092.9247,39524.8979,34554.6305,36853.3283,5084.7083,49186.483,44153.3625,55156.2309,-2100.4826,-2555.9664,23521.9896
53456.7386,25829.8516,52091.226,39519.1312,34550.0261,36849.305,5080.5956,49186.4383,44154.346,55151.2241,-2102.226,-2561.4649,23518.905
53482.0855,25833.2044,52092.4777,39533.481,34576.9376,36853.5072,5082.9202,49207.1807,44166.3265,55156.2309,-2084.2552,-2545.3717,23522.0343
53498.3575,25833.8302,52094.4446,39546.9368,34586.2359,36857.5752,5085.3789,49209.1477,44173.345,55161.8189,-2073.1688,-2539.5602,23523.0625
53487.6287,25829.3152,52091.8965,39532.5869,34566.164,36853.1048,5081.7579,49190.5063,44167.0418,55155.6051,-2085.6857,-2550.6467,23513.9877
53470.7755,25816.7982,52090.466,39522.1263,34547.2544,36847.9639,5078.8522,49171.7309,44151.0826,55149.4807,-2100.2591,-2563.9236,23510.0538
53469.3003,25816.083,52090.3319,39516.3596,34540.7724,36841.8396,5077.824,49166.4559,44148.7134,55149.9277,-2104.9082,-2567.0528,23505.8516
53481.4149,25824.8001,52083.2241,39518.9524,34553.0212,36839.4256,5072.3255,49182.3703,44156.6706,55147.469,-2096.2358,-2557.6204,23506.3881
53495.0048,25831.3268,52084.7887,39527.0884,34558.2515,36839.6044,5072.2361,49192.071,44161.4091,55158.4214,-2088.9491,-2548.9926,23512.423
53482.309,25826.2753,52082.8664,39515.3761,34540.8618,36831.826,5069.3303,49176.1118,44159.2634,55155.3369,-2094.0006,-2558.2016,23510.9031
53470.6414,25817.2899,52086.1745,39499.5958,34519.8065,36827.9815,5066.4246,49142.9418,44149.6521,55147.8267,-2112.4184,-2572.7749,23505.494
53477.7939,25818.0499,52088.1414,39498.6123,34520.4771,36825.7016,5066.2011,49139.7232,44152.2002,55146.4856,-2112.329,-2573.4454,23505.3152
53493.8872,25821.1344,52087.4262,39504.692,34540.3254,36829.0991,5063.2954,49165.6959,44166.9971,55153.1017,-2096.5487,-2565.3094,23504.7787
53492.5461,25819.7039,52086.7556,39501.965,34546.4498,36832.1836,5057.8862,49174.6813,44166.3265,55155.3369,-2093.2853,-2566.0247,23500.9342
53484.0971,25815.2336,52085.5486,39492.4432,34533.1728,36831.3342,5056.2322,49160.6891,44156.3576,55151.5371,-2103.0307,-2576.977,23497.4921
53468.0933,25809.7351,52086.7556,39487.9282,34518.5101,36825.9698,5054.9805,49142.7183,44149.2051,55149.6595,-2113.7148,-2584.8448,23500.2637
53480.0738,25811.9255,52087.0686,39494.2313,34527.8084,36831.1107,5058.4227,49157.0234,44159.174,55150.5536,-2111.3902,-2577.737,23504.287
53500.5033,25821.8944,52090.466,39507.4636,34559.3244,36841.8843,5063.3848,49185.6337,44172.585,55157.2144,-2093.643,-2557.9333,23510.7243
53504.3925,25825.426,52091.0472,39510.861,34570.0085,36847.3828,5066.2458,49198.5083,44183.1797,55161.3718,-2089.3514,-2548.0539,23516.044
53497.2399,25819.7933,52090.8237,39513.0515,34559.9949,36844.3877,5069.2856,49191.4898,44180.6316,55160.9248,-2095.1182,-2549.2609,23515.4629
53486.5111,25809.0198,52089.3931,39512.2468,34540.1466,36839.6938,5072.2361,49170.4792,44165.8348,55154.8451,-2102.226,-2556.8604,23513.4512
53482.2196,25813.6243,52096.3222,39518.4159,34547.1203,36843.2254,5076.8852,49178.4364,44165.9689,55153.504,-2094.4476,-2555.2958,23517.7875
53500.1457,25818.8546,52102.0889,39527.3119,34572.1543,36852.3002,5082.5626,49200.3858,44186.6666,55166.7362,-2074.5993,-2542.2424,23520.5144
53510.0251,25823.2802,52101.776,39526.9543,34581.4973,36855.787,5078.7628,49206.3314,44191.4499,55164.9928,-2069.8607,-2539.9625,23514.4794
53499.5645,25819.1675,52100.7478,39524.4062,34572.5566,36854.5353,5074.4265,49194.172,44181.3469,55162.3106,-2081.4836,-2546.0869,23510.3667
53481.5937,25817.1111,52095.7857,39511.7104,34549.6237,36849.5286,5067.7657,49175.5307,44171.1992,55160.3436,-2102.9413,-2558.8721,23503.9294
53480.9232,25824.9342,52096.6798,39512.0233,34555.3011,36850.6908,5069.375,49182.4597,44167.3547,55160.2542,-2106.8752,-2562.9401,23502.5883
53506.7618,25836.8254,52098.6915,39527.759,34585.4312,36853.5519,5075.0077,49207.4937,44182.8668,55164.4564,-2087.8315,-2547.2492,23507.148
53519.0552,25843.7991,52099.0491,39534.3751,34594.506,36850.1097,5074.6948,49225.5986,44198.1554,55173.9782,-2076.1639,-2541.393,23511.0819
53502.962,25836.8701,52095.2046,39524.8979,34582.9278,36845.9523,5068.3916,49220.7259,44193.9086,55171.8324,-2086.9374,-2554.1335,23506.4328
53482.4878,25825.0237,52091.5836,39502.7697,34555.1223,36843.2254,5063.9212,49198.1506,44178.1729,55162.2659,-2107.4116,-2569.8245,23499.9955
53491.5626,25829.1811,52093.0141,39501.4733,34554.5858,36844.5218,5064.2788,49193.278,44180.0505,55158.1979,-2105.1764,-2568.081,23502.0518
53522.7656,25837.4065,52093.9529,39520.6064,34587.13,36856.9046,5064.8153,49216.792,44189.8853,55160.9248,-2090.3796,-2560.7497,23509.0703
53527.5042,25838.5241,52094.4893,39522.9757,34597.1882,36855.2953,5061.1049,49227.1185,44200.2565,55168.5244,-2090.2902,-2559.9003,23508.7126
53511.5451,25836.6019,52096.054,39522.3051,34586.9958,36858.3798,5060.9708,49225.3304,44209.376,55171.6536,-2094.9841,-2562.5825,23506.8798
53491.6967,25823.6378,52093.3717,39508.8941,34567.818,36859.1845,5060.6579,49210.3547,44195.1603,55163.6964,-2107.7245,-2574.1607,23503.7059
53488.9698,25820.9556,52088.9908,39507.7765,34562.2301,36857.5752,5060.3002,49214.2439,44195.3391,55160.6566,-2106.1599,-2573.4454,23502.4095
53505.6442,25821.0897,52086.5321,39520.6958,34581.5867,36862.6714,5057.5733,49231.9018,44201.7317,55167.3621,-2089.709,-2561.4649,23506.1198
53516.6413,25823.012,52085.5486,39527.8037,34597.0541,36865.1748,5055.7852,49248.6209,44209.5548,55170.849,-2083.4506,-2556.1005,23506.0304
53508.3264,25819.7039,52086.5321,39526.5073,34594.9978,36861.5538,5056.9028,49243.5247,44198.2001,55168.0773,-2089.0832,-2564.9965,23503.3482
53498.8493,25815.1889,52087.7838,39515.9125,34570.5003,36860.7491,5059.3615,49227.3867,44189.2147,55163.6964,-2101.2425,-2570.8526,23503.7059
53493.7978,25814.9654,52088.812,39510.9057,34566.4322,36858.7375,5061.239,49228.7725,44193.5509,55165.1716,-2100.7508,-2567.9916,23506.5669
53511.7686,25824.3531,52089.3931,39517.7454,34597.0541,36865.3089,5067.0058,49249.3361,44215.0533,55176.3028,-2084.2552,-2546.1316,23515.8652
53525.8502,25830.4328,52087.6944,39526.4626,34610.6887,36864.996,5070.4032,49262.4342,44215.2768,55176.0793,-2077.0133,-2542.1977,23517.2063
53515.166,25829.1811,52089.9743,39516.5831,34595.9812,36858.4692,5068.481,49249.8279,44204.1457,55170.536,-2086.3116,-2552.3901,23513.4959
53501.0844,25829.5834,52099.1832,39506.8824,34576.4011,36857.3517,5073.1748,49230.6501,44206.4703,55177.1969,-2099.3203,-2556.5475,23515.3288
53499.2516,25829.2705,52101.5972,39505.586,34580.6032,36860.5256,5077.824,49239.099,44212.8181,55178.538,-2099.0074,-2552.7477,23516.9828
53515.5684,25832.9809,52095.294,39512.1127,34606.3077,36860.5256,5078.1816,49261.5402,44220.1942,55184.26,-2086.4904,-2544.3882,23519.9779
53520.9775,25834.1879,52092.0306,39514.1244,34616.5448,36860.3021,5077.2429,49266.7258,44218.272,55181.4884,-2080.1872,-2539.6496,23518.8156
53510.0251,25827.3482,52094.4893,39507.0612,34598.7082,36855.2953,5074.7842,49252.7336,44212.237,55179.8344,-2090.916,-2547.1598,23512.8254
53491.5179,25824.5766,52093.64,39496.69,34579.7092,36848.4557,5074.5606,49230.1136,44199.0495,55176.9733,-2109.4233,-2561.0179,23505.2705
53494.1554,25824.7107,52093.5059,39496.1983,34584.8501,36850.8697,5075.41,49227.2526,44205.308,55175.3193,-2107.1434,-2563.1636,23505.6728
53501.9785,25824.7107,52089.0802,39493.9184,34599.1552,36847.0252,5069.7774,49244.5529,44216.6626,55176.8839,-2101.6449,-2558.2463,23501.6495
53514.272,25827.9294,52087.7838,39502.5015,34604.4302,36849.3497,5067.9445,49248.2632,44224.7093,55175.9005,-2096.9063,-2554.4912,23502.9906
53493.9766,25817.9605,52083.4923,39488.5987,34589.7675,36842.3313,5061.7754,49230.203,44211.2982,55162.6682,-2106.9199,-2570.3162,23497.4027
53481.7278,25813.0878,52082.8664,39480.5074,34568.9356,36837.101,5061.0155,49207.5384,44194.9368,55158.9131,-2119.5263,-2587.3929,23493.6029
53476.274,25806.7399,52074.3281,39480.5968,34572.5119,36835.7599,5055.1146,49217.6414,44186.6666,55151.7159,-2126.0083,-2587.3929,23489.356
53498.0446,25812.2832,52077.0103,39498.6123,34598.9764,36843.9853,5061.1943,49238.2944,44202.9834,55164.7246,-2104.6847,-2571.8808,23495.8827
53506.583,25819.4357,52082.7323,39504.7367,34608.4982,36847.2487,5062.8036,49252.5548,44221.133,55179.9238,-2094.4476,-2564.0577,23501.0237
53490.8026,25813.2666,52082.1512,39501.3392,34591.198,36847.2934,5062.6695,49244.0164,44208.0796,55172.1454,-2105.3106,-2570.4056,23500.3531
53469.792,25801.912,52082.1512,39490.1186,34568.578,36843.4936,5063.7424,49224.7492,44195.4732,55167.3621,-2117.5593,-2583.012,23498.8779
53470.4626,25800.7944,52083.1794,39488.107,34571.2602,36847.9192,5064.5471,49226.7162,44205.1291,55164.814,-2112.1949,-2580.2404,23500.0849
53500.6821,25813.7584,52091.1366,39511.621,34600.8986,36860.6597,5076.2147,49259.2603,44217.6014,55174.1123,-2087.3845,-2556.9499,23511.529
53513.7802,25816.7535,52096.1881,39519.4888,34613.6391,36860.8832,5079.6121,49274.1019,44229.5372,55184.1259,-2076.298,-2546.981,23515.597
53496.1671,25810.2715,52094.6681,39507.1059,34597.0094,36850.5567,5072.0125,49252.9571,44220.9095,55179.2979,-2090.6031,-2556.4581,23507.8633
53480.9679,25810.9868,52094.9364,39502.5909,34577.2505,36852.926,5069.4644,49230.6948,44204.101,55175.2299,-2108.0822,-2568.2598,23503.7953
53481.7278,25808.4387,52090.9131,39506.793,34578.4128,36854.8483,5068.481,49231.2759,44200.2565,55173.7547,-2108.6186,-2567.8575,23501.6048
53487.0923,25811.5232,52091.9859,39513.9009,34598.3505,36858.0669,5069.688,49258.7686,44212.1029,55173.9782,-2094.8946,-2558.8721,23506.1646
53498.4022,25817.7817,52093.3717,39522.3945,34607.8724,36860.3468,5071.2079,49276.4711,44217.6014,55180.3261,-2086.7586,-2551.9431,23509.562
53487.9416,25806.3376,52086.2639,39512.1574,34594.3272,36853.7754,5065.7988,49249.3361,44205.3527,55171.2513,-2101.6896,-2565.1306,23503.2588
53474.2624,25801.3755,52084.2522,39498.5676,34573.6295,36845.8182,5062.9377,49220.8153,44190.2876,55159.8072,-2118.5428,-2579.4804,23499.8167
53473.2789,25800.2579,52084.8334,39494.3655,34576.4011,36850.4673,5059.7191,49221.2623,44195.6967,55163.4729,-2115.1006,-2576.977,23501.2025
53494.5577,25809.5115,52086.845,39510.9504,34597.6353,36859.6762,5065.307,49252.5548,44217.4673,55172.9053,-2097.8898,-2559.4085,23506.5669
53507.8347,25809.9139,52089.9296,39516.896,34611.5828,36859.0951,5066.7375,49272.9396,44228.6432,55177.6886,-2091.3631,-2552.5242,23510.5902
53503.1855,25812.9537,52092.433,39512.7833,34609.7946,36860.8832,5067.9445,49266.9046,44224.8434,55175.7663,-2094.8946,-2553.7312,23513.2724
53488.8357,25812.3279,52093.4165,39508.3129,34592.3156,36854.8483,5066.3352,49249.0232,44211.5664,55170.7149,-2101.6896,-2567.9469,23507.908
53493.2166,25807.634,52091.8518,39506.2119,34591.4215,36852.8366,5068.2575,49249.7832,44210.5383,55171.8771,-2099.365,-2568.841,23506.1198
53511.2321,25815.3677,52095.4728,39518.7289,34615.919,36865.89,5070.8503,49269.2292,44221.9824,55178.6274,-2083.8082,-2550.6467,23514.837
53514.2273,25811.5679,52094.1317,39520.964,34624.368,36862.4479,5067.4081,49275.7559,44223.5023,55177.7333,-2082.02,-2549.2162,23510.4114
53504.9736,25806.874,52091.6283,39508.9835,34613.9967,36851.719,5061.7307,49264.6247,44212.5499,55173.3971,-2095.9228,-2559.8109,23501.6942
53487.9863,25804.5942,52091.0919,39496.1983,34585.2077,36846.5334,5058.1992,49240.9319,44200.1671,55169.5973,-2114.3407,-2574.9654,23497.9391
53497.8658,25801.8225,52087.9179,39501.8309,34591.4662,36846.6675,5059.3168,49238.7861,44201.6423,55163.9199,-2115.9947,-2575.2336,23495.0781
53513.7802,25808.2598,52086.6662,39510.414,34611.1357,36852.3449,5060.3896,49262.166,44217.1991,55170.3125,-2101.0637,-2562.5378,23500.8448
53521.7375,25813.1772,52091.673,39515.3761,34618.9588,36854.0436,5062.0437,49278.6616,44234.0523,55186.7634,-2094.4476,-2558.9168,23505.4493
53510.6063,25807.4999,52089.9743,39505.1837,34602.6868,36847.0252,5058.4674,49264.4906,44225.8716,55176.9733,-2111.9714,-2569.4221,23499.1908
53494.3342,25807.0529,52091.3154,39493.6055,34580.5585,36840.9455,5059.7638,49255.0582,44216.7073,55173.8888,-2122.6108,-2579.4804,23495.5251
53494.6024,25800.4367,52088.1861,39489.761,34582.1232,36838.5315,5058.6909,49254.03,44219.5237,55177.2416,-2123.0131,-2577.0217,23494.5416
53513.1991,25809.9139,52088.2756,39506.7483,34604.4749,36847.9192,5061.686,49281.4779,44234.3652,55187.8363,-2103.6118,-2561.2414,23502.4542
53519.4129,25816.2171,52086.3086,39506.793,34607.5594,36849.8862,5061.7307,49293.0114,44240.9813,55187.4787,-2102.4495,-2562.0013,23503.1247
53513.3332,25813.1772,52088.3203,39503.6191,34596.6518,36853.3731,5062.0437,49283.0426,44235.4381,55183.7236,-2105.4894,-2569.1539,23502.1859
53495.8094,25809.6904,52088.4991,39496.3771,34580.9609,36851.5402,5062.4907,49267.5304,44223.9493,55178.9403,-2112.6419,-2577.8711,23496.7321
53490.4897,25807.6787,52086.1745,39496.8241,34581.095,36852.7025,5061.5966,49271.2408,44223.9493,55179.5661,-2109.6021,-2575.77,23497.3133
53519.1,25814.876,52088.4544,39510.5481,34612.0745,36861.1962,5069.3303,49300.5216,44239.5955,55187.3893,-2091.6313,-2558.3357,23505.8069
53526.6548,25817.9605,52091.0025,39516.2702,34631.1182,36866.3371,5074.3371,49318.0901,44245.7646,55193.5136,-2084.0764,-2546.4892,23511.6631
53509.1311,25808.394,52089.4825,39510.5481,34618.2436,36859.6315,5073.9348,49303.3826,44239.0591,55185.914,-2089.0385,-2555.877,23508.9362
53497.1505,25799.3639,52087.2027,39503.932,34596.5624,36854.6695,5068.8833,49282.372,44227.3021,55178.3592,-2103.6118,-2566.2929,23504.1976
53498.6258,25804.013,52092.8353,39509.967,34599.6469,36857.9328,5069.5539,49291.4915,44229.5372,55190.4738,-2100.7955,-2560.9285,23510.1432
53517.2671,25813.4007,52093.0588,39522.4839,34623.6974,36868.7958,5072.9513,49319.8335,44248.9833,55198.6992,-2087.1609,-2548.4115,23514.5688
53527.9065,25819.4357,52092.0306,39530.3518,34640.0589,36876.3059,5077.0193,49334.3621,44254.3924,55194.81,-2080.8131,-2541.1248,23513.0042
53522.6315,25817.1111,52089.6167,39518.2371,34626.2455,36872.4614,5073.9795,49324.6615,44246.8822,55192.6643,-2091.1843,-2550.5573,23511.6184
53502.2914,25810.1821,52086.8897,39500.8475,34601.3457,36862.0902,5067.9892,49308.8365,44237.5839,55184.6176,-2106.4281,-2566.0694,23503.3929
53500.8609,25812.0596,52087.2027,39503.1273,34605.9948,36865.0854,5072.9066,49310.3117,44237.0474,55185.8246,-2102.9413,-2559.8109,23503.84
53520.8434,25824.8895,52093.1035,39522.171,34630.3135,36880.1951,5082.652,49340.3524,44253.6324,55196.4194,-2083.2717,-2542.6894,23512.6019
53533.718,25833.3385,52096.2775,39528.7424,34642.3388,36886.543,5081.7132,49353.5846,44262.0367,55198.9675,-2079.9637,-2538.4426,23515.9993
53522.6315,25830.3434,52098.2891,39525.2109,34628.6148,36882.6091,5077.824,49337.849,44254.5265,55196.6429,-2095.3417,-2549.1714,23509.1597
53508.1029,25823.3696,52097.6633,39510.5481,34605.8607,36873.8472,5073.2195,49321.1746,44247.9104,55191.3232,-2108.6186,-2563.6107,23501.9177
53508.8181,25820.6874,52099.7196,39510.861,34605.5925,36875.1436,5075.0971,49318.8053,44250.3244,55196.33,-2104.8188,-2562.8507,23502.6777
53523.4362,25826.2306,52098.2891,39519.4888,34630.09,36875.2331,5074.65,49336.3738,44264.093,55203.8401,-2091.0501,-2546.2657,23506.9245
53533.4945,25820.7768,52096.948,39523.6462,34636.0803,36874.9201,5070.582,49346.3874,44266.7753,55201.7391,-2084.3446,-2544.6117,23505.6728
53527.1466,25809.0198,52096.2775,39522.4839,34623.0268,36866.6947,5061.239,49329.4895,44254.3477,55193.4242,-2091.8995,-2560.0791,23497.4474
53503.6325,25795.2064,52094.3999,39509.8776,34591.4662,36855.9659,5056.5451,49300.8345,44240.7131,55188.3727,-2110.0491,-2576.0829,23492.6194
53497.4635,25788.8138,52086.8003,39503.3956,34587.0405,36852.3449,5054.6676,49302.3545,44234.4993,55188.2833,-2115.7712,-2578.184,23491.0101
53512.6626,25791.496,52082.5088,39508.4023,34613.3262,36854.133,5055.0252,49328.9977,44243.9318,55192.6196,-2100.0355,-2566.3823,23494.4522
53522.1398,25800.1685,52083.0899,39514.4373,34623.2057,36857.4858,5057.2604,49351.6177,44260.2038,55194.8994,-2088.2785,-2558.2016,23499.5037
53507.03,25800.0344,52083.4029,39512.1127,34614.4885,36862.4479,5057.3498,49341.6488,44256.5829,55192.6196,-2098.0686,-2561.6884,23499.2802
53496.1671,25796.2793,52081.8383,39498.4782,34587.7111,36857.3517,5052.8795,49317.8666,44237.3157,55182.5613,-2117.4252,-2577.2899,23493.0664
53503.409,25798.5145,52085.638,39500.9369,34595.9365,36859.6315,5057.3498,49312.8151,44239.9532,55185.1094,-2109.6915,-2574.5183,23498.3414
53518.3847,25800.7944,52089.9743,39515.7784,34625.1279,36868.7063,5059.8532,49331.2776,44257.7004,55193.6924,-2089.9773,-2561.6884,23507.7739
53524.2856,25807.0081,52093.5953,39522.4839,34636.125,36872.7297,5062.4907,49351.2154,44272.2291,55199.5039,-2083.1376,-2552.4795,23511.8419
53515.8366,25801.0626,52090.2425,39518.7289,34623.3398,36873.1767,5062.8036,49349.2037,44271.1115,55194.9441,-2092.9277,-2560.6155,23508.3103
53500.6374,25793.1948,52089.6614,39507.5083,34598.3505,36867.4099,5060.479,49334.2727,44257.2534,55193.9607,-2109.5574,-2573.9819,23505.4493
53506.8959,25794.7147,52091.3601,39505.0496,34594.9978,36862.8949,5061.7754,49332.6634,44259.9803,55191.9937,-2112.3737,-2577.3346,23503.1247
53519.4576,25804.0577,52092.1201,39511.5316,34619.0035,36870.5392,5064.3682,49347.4603,44277.4147,55198.9228,-2092.2124,-2562.1802,23507.8186
53524.1961,25812.462,52096.5904,39515.8678,34626.8713,36874.5178,5064.7259,49361.2289,44283.0026,55205.8071,-2085.2834,-2553.0159,23510.0091
53516.7754,25815.2783,52098.4232,39517.1642,34618.5118,36870.4498,5064.1894,49356.8033,44272.0503,55199.7274,-2097.7557,-2565.6223,23503.6612
53502.7385,25814.8313,52098.2444,39509.654,34597.367,36867.4994,5060.7026,49330.8306,44262.6625,55192.0831,-2112.5078,-2577.2899,23497.5368
53503.4984,25813.8925,52100.7925,39504.6473,34594.6401,36864.8618,5060.1214,49333.4681,44261.0532,55190.4291,-2114.0277,-2576.3512,23496.4192
53517.7141,25818.3181,52102.2677,39514.4373,34611.851,36870.3157,5059.1379,49362.7936,44275.5818,55197.984,-2104.4612,-2562.6272,23500.0402
53515.2107,25813.669,52097.1715,39515.9125,34616.0084,36866.2924,5054.0864,49375.1764,44275.1348,55200.1297,-2102.6731,-2555.3405,23496.1063
53506.8959,25807.7681,52094.6681,39514.1691,34605.2349,36859.6762,5050.4208,49351.5283,44262.7519,55195.8829,-2109.1104,-2567.0081,23490.1607
53491.652,25799.4533,52093.5953,39498.2547,34585.7888,36851.0485,5046.0845,49331.6352,44243.3506,55188.9539,-2125.2483,-2584.3978,23484.7069
53491.9202,25794.7594,52086.2192,39495.483,34581.2291,36854.6247,5039.5578,49335.3009,44238.2544,55183.3659,-2127.9752,-2585.6495,23481.3541
53508.7287,25800.3473,52086.5321,39510.1458,34601.9715,36856.8152,5037.2779,49355.1493,44250.7714,55191.0102,-2112.5972,-2572.5961,23488.149
53513.3332,25799.1403,52085.2804,39510.0117,34613.1921,36857.6199,5036.3392,49355.0599,44261.6791,55193.4242,-2107.0987,-2567.2317,23490.4736
53497.7317,25789.2609,52078.3514,39500.8028,34595.4895,36855.0271,5031.8241,49337.8043,44254.3924,55179.7003,-2122.3873,-2580.4639,23482.6952
53474.0835,25777.7721,52075.2668,39493.1138,34569.1592,36849.2603,5028.4266,49321.3981,44247.1057,55178.985,-2136.8265,-2594.5902,23479.1636
53476.3634,25770.9324,52075.9821,39495.796,34577.027,36847.651,5028.829,49320.2806,44246.0775,55180.8625,-2130.3892,-2590.8798,23484.4387
53504.9736,25778.6214,52079.6925,39509.4305,34604.2514,36856.2341,5038.172,49351.3495,44266.6411,55187.5681,-2108.5739,-2572.8643,23492.3065
53510.204,25781.3483,52080.0948,39513.2303,34607.6936,36858.2904,5041.1224,49369.9908,44270.6645,55185.3329,-2102.8072,-2569.2433,23494.6311
53493.9766,25776.4757,52076.5632,39506.5248,34597.3223,36853.7307,5035.311,49356.5798,44257.0299,55179.2979,-2111.4796,-2577.6923,23490.8313
53479.448,25772.4077,52075.6692,39501.7862,34579.5304,36846.5781,5031.4665,49333.1105,44247.7763,55178.5827,-2122.8343,-2586.4989,23487.1209
53479.5821,25770.1725,52074.3728,39501.8309,34580.9609,36848.2322,5034.9087,49327.299,44250.235,55182.5613,-2123.2814,-2583.0567,23490.876
53496.3906,25777.4144,52073.434,39514.1244,34596.4283,36857.7093,5038.3508,49355.8198,44267.3117,55188.8645,-2108.3951,-2568.7069,23495.4357
53508.3711,25792.5242,52075.3115,39520.4723,34606.8889,36860.8832,5043.6705,49375.8023,44277.817,55191.5467,-2101.3319,-2563.3872,23497.9391
53496.1224,25792.8371,52075.7139,39513.5432,34591.2874,36857.3964,5041.6142,49363.1512,44265.1212,55183.2318,-2114.6983,-2575.0995,23496.0169
53483.7842,25783.7176,52079.8713,39504.8708,34572.8248,36850.4673,5040.7648,49345.2251,44254.5712,55182.5613,-2126.8129,-2586.6777,23490.0266
53486.6452,25782.6895,52082.0171,39504.6026,34571.6178,36852.3896,5040.0943,49345.2698,44255.2865,55184.1259,-2124.8907,-2583.5037,23488.3726
53497.687,25791.2278,52084.6993,39514.7055,34593.8355,36861.5985,5043.9388,49362.0783,44272.0056,55191.6361,-2109.8256,-2570.5844,23493.1558
53512.2156,25794.67,52084.8334,39519.0865,34602.9103,36866.8288,5045.2799,49380.1385,44273.8384,55189.9821,-2105.0423,-2565.7117,23492.53
