FC3,FCz,FC4,C5,C3,C1,Cz,C2,C4,C6,CP3,CPz,CP4
53787.7232,26005.5363,52248.9399,39737.6418,34770.9954,37066.0275,5048.275,49378.1716,44174.239,55154.8004,-1908.2129,-2440.0949,23714.0357
53800.5978,26012.5101,52251.9797,39744.2132,34788.0721,37067.1004,5048.4985,49389.3474,44190.0641,55159.1814,-1896.143,-2427.3545,23716.0474
53813.6512,26020.512,52251.3986,39747.9236,34804.8359,37071.8837,5047.2468,49399.1375,44196.9484,55164.7693,-1879.0662,-2416.6256,23719.2661
53816.5569,26013.8065,52246.9282,39744.2132,34795.5823,37067.5921,5045.3246,49396.1871,44184.8785,55159.4943,-1883.8942,-2422.1241,23715.4663
53804.6211,26008.6209,52247.7776,39739.7876,34785.8369,37070.1849,5047.068,49380.5408,44184.5208,55160.7013,-1892.2091,-2436.3399,23713.1417
53787.8573,26003.167,52245.0507,39730.7128,34768.5367,37069.3356,5043.447,49365.8781,44179.3799,55158.6449,-1904.6813,-2446.0405,23708.8501
53799.8378,26012.8677,52243.7096,39736.8819,34775.421,37066.564,5040.2284,49377.054,44184.9679,55159.5837,-1902.7144,-2438.9774,23710.683
53820.8932,26022.7472,52244.0225,39748.3706,34801.1702,37069.6038,5040.9883,49404.4125,44198.3789,55164.367,-1887.1576,-2424.7169,23711.9794
53811.729,26019.9308,52238.4346,39745.1073,34795.6717,37067.7263,5037.9932,49406.4242,44190.7793,55154.3087,-1891.8067,-2434.06,23707.0173
53791.7465,26012.4207,52233.2489,39732.9479,34774.974,37061.9148,5033.7464,49381.3902,44179.6035,55146.7538,-1905.039,-2446.8005,23702.3234
53784.3257,26003.8823,52230.3432,39722.085,34764.2899,37052.7953,5027.0855,49365.4758,44165.8348,55138.6625,-1921.6686,-2457.5293,23695.752
53795.9933,26003.7482,52230.6561,39722.8003,34775.6892,37052.08,5025.0739,49382.5525,44177.5024,55143.9375,-1912.1021,-2454.2212,23696.0202
53811.7737,26002.4965,52231.9973,39738.2677,34792.6319,37059.6796,5027.5773,49412.0568,44185.5043,55152.297,-1898.8699,-2440.8996,23698.8366
53800.8213,25999.7249,52231.0138,39732.8585,34783.6018,37058.2491,5025.7444,49410.1346,44175.9378,55149.883,-1903.519,-2441.1231,23698.3001
53784.8622,26000.1719,52230.6114,39718.6875,34758.2996,37050.2919,5022.3917,49384.6536,44171.2439,55143.8034,-1920.7746,-2453.059,23693.7851
53775.1615,25997.8473,52230.1644,39714.9324,34750.7,37048.5038,5023.0622,49369.8567,44165.4772,55144.9209,-1927.6589,-2460.8821,23694.8133
53807.9739,26002.1389,52237.1829,39728.7905,34778.5503,37059.0091,5028.1584,49377.4116,44182.0621,55151.7606,-1910.7163,-2448.2757,23701.7423
53823.3072,26009.0232,52242.1002,39732.0986,34798.7115,37067.2345,5031.69,49403.9208,44195.3391,55155.8733,-1893.3713,-2432.7189,23705.3186
53822.4578,26011.9289,52243.5308,39738.4018,34806.2217,37067.458,5035.2216,49409.911,44195.6073,55164.2329,-1888.2304,-2428.5614,23711.3982
53802.0283,26004.374,52242.1449,39732.2774,34785.524,37064.0606,5035.9815,49395.2483,44183.7609,55160.3436,-1901.105,-2440.0949,23710.5042
53793.3111,26000.5295,52246.213,39726.0189,34768.0897,37060.4843,5037.3673,49388.4981,44178.62,55159.5837,-1907.7212,-2444.1183,23710.6383
53806.1857,26006.5645,52248.8505,39734.5126,34785.3899,37064.3735,5040.3625,49404.2337,44191.9863,55166.6915,-1893.9525,-2434.6411,23716.4497
53818.7921,26011.5713,52246.8388,39742.5592,34803.6289,37070.9002,5040.4072,49416.4824,44203.3857,55171.0725,-1881.3461,-2425.8345,23720.4283
53812.5336,26004.2846,52242.1449,39737.7759,34793.4812,37070.3638,5039.7813,49411.431,44201.3741,55167.6303,-1884.5201,-2424.5828,23718.9978
53785.2645,25995.8357,52239.1498,39725.3036,34762.7252,37057.7574,5034.104,49396.3659,44189.3488,55159.9413,-1905.1284,-2438.1727,23710.2807
53778.4696,25995.6568,52237.5405,39718.8216,34754.0081,37058.2938,5031.4218,49397.4388,44176.7871,55155.7839,-1915.4996,-2448.9462,23705.9444
53792.2829,25996.9532,52234.9477,39730.3551,34777.8797,37061.5125,5033.344,49405.2172,44182.0621,55156.8568,-1904.1896,-2443.0901,23705.0056
53809.002,26000.9319,52233.9642,39744.7497,34796.4764,37066.2957,5032.4053,49416.706,44202.4022,55162.2659,-1892.3879,-2431.4225,23708.4478
53803.5035,25996.5956,52228.1975,39740.5475,34788.8768,37057.668,5029.0525,49405.7983,44195.2944,55155.0239,-1901.1945,-2439.1562,23705.0951
53795.0099,25989.8901,52229.2256,39727.5835,34761.8759,37045.5533,5025.8338,49384.3853,44174.4626,55152.4311,-1918.6735,-2448.8121,23701.787
53774.6698,25980.9047,52225.4258,39719.6263,34739.4347,37039.5631,5022.034,49362.4359,44161.588,55141.9705,-1927.3013,-2456.1435,23695.8861
53786.8738,25984.928,52226.1411,39727.1365,34761.6076,37045.598,5024.761,49381.4349,44180.3187,55154.0405,-1918.9417,-2446.5322,23700.1777
53806.8116,25998.3391,52231.9525,39742.6486,34788.0721,37056.1928,5031.5559,49412.5485,44195.4732,55163.0259,-1901.5521,-2430.7966,23702.5917
53801.7154,25993.9134,52231.2373,39735.2725,34783.11,37052.393,5032.6288,49413.2638,44183.5374,55157.4379,-1907.1847,-2435.4905,23700.8482
53784.6833,25986.2244,52228.3316,39724.052,34756.4667,37044.5698,5026.0574,49392.5214,44171.4227,55152.0288,-1920.5958,-2453.2378,23696.8696
53776.1897,25987.2079,52229.0021,39726.4659,34753.2481,37047.2968,5028.1137,49381.6137,44162.482,55151.1347,-1923.5015,-2456.1882,23698.6578
53789.0196,25995.791,52229.7174,39734.1549,34770.5036,37051.7671,5028.2925,49405.1278,44177.1895,55152.6546,-1909.5987,-2443.5371,23702.234
53797.6921,25997.3556,52226.7669,39742.8721,34785.9263,37054.6281,5029.723,49431.0111,44195.2497,55157.0803,-1896.9029,-2431.6907,23706.615
53795.8592,25995.7463,52233.3384,39747.7895,34786.731,37064.15,5031.4665,49442.9022,44199.8094,55162.2659,-1895.0254,-2431.8248,23708.2243
53791.6124,25990.963,52231.4161,39739.43,34764.6922,37059.1879,5032.4947,49435.0791,44190.1088,55162.5341,-1912.4597,-2448.8568,23703.6645
53776.6814,25976.9261,52225.0682,39730.7128,34753.5163,37051.9906,5031.1983,49409.9557,44178.4859,55153.7275,-1921.0428,-2459.3174,23702.5917
53783.9234,25979.6977,52222.5201,39735.7196,34768.0897,37058.6514,5029.4101,49416.9742,44186.5772,55157.885,-1906.2459,-2446.1299,23708.4478
53804.1294,25986.6714,52225.3364,39742.4251,34791.9166,37063.7029,5031.6453,49438.7448,44199.0495,55160.6119,-1893.8184,-2432.7189,23709.1631
53808.1974,25985.4198,52225.3364,39735.9878,34782.6183,37054.1811,5029.9019,49431.1899,44189.3041,55151.2688,-1898.6464,-2440.2291,23705.7209
53797.0215,25983.8998,52223.6824,39727.0471,34757.7184,37048.1461,5028.4266,49407.7653,44177.413,55142.5964,-1910.8951,-2451.1814,23703.9775
53782.8058,25979.2954,52221.3131,39720.5651,34747.4813,37047.6097,5027.9796,49388.7663,44173.3003,55141.4341,-1922.6521,-2459.4069,23701.4294
53794.1158,25986.0456,52222.7436,39733.9314,34762.0547,37055.5222,5031.0642,49401.9091,44181.7045,55146.0832,-1908.9282,-2447.3369,23703.9775
53817.8533,25993.6452,52226.0964,39753.9139,34788.385,37065.8934,5033.7911,49432.2628,44197.9319,55152.6994,-1891.4938,-2435.1776,23709.2972
53812.3995,25991.9912,52225.7388,39744.7944,34782.7077,37059.2326,5029.9913,49437.7166,44190.1982,55147.2455,-1893.729,-2441.6596,23704.7374
53799.0779,25996.1039,52227.6163,39739.3405,34764.6028,37060.8419,5033.2546,49430.4746,44188.6783,55142.2387,-1905.7542,-2449.1251,23704.0222
53789.4666,26001.6024,52225.8282,39733.2162,34743.5921,37063.4794,5029.1866,49419.3435,44179.9164,55141.0317,-1908.2129,-2454.5342,23702.994
53803.1012,26005.2681,52228.5998,39736.2113,34756.7797,37068.3074,5028.7843,49427.256,44190.2876,55150.196,-1894.0419,-2442.0172,23705.855
53822.0555,26011.3478,52232.1761,39752.5281,34785.2558,37077.6951,5032.0923,49447.3279,44205.6209,55160.2095,-1879.7368,-2422.3924,23712.0241
53814.8582,26010.4537,52231.3267,39756.1044,34791.2014,37080.3326,5031.1089,49441.6505,44199.72,55156.9909,-1884.7436,-2425.0746,23715.1086
53792.0594,26005.0893,52230.9244,39738.3571,34768.1344,37070.8108,5027.0408,49417.1977,44183.3586,55149.6595,-1902.4462,-2442.7325,23712.5158
53776.592,25991.9018,52223.4589,39727.2706,34747.4813,37058.2044,5020.38,49406.0218,44172.138,55143.4904,-1912.7727,-2454.8918,23705.7656
53786.7844,25990.3371,52219.8379,39730.981,34764.9157,37063.1665,5018.1001,49422.3833,44177.0107,55144.5633,-1898.6464,-2446.7111,23706.615
53806.7222,25994.271,52228.108,39747.3872,34798.6221,37078.0081,5025.3868,49442.4999,44187.963,55148.1843,-1881.212,-2429.992,23715.1533
53800.7766,25994.4499,52229.315,39741.8439,34796.834,37072.733,5026.5044,49437.9848,44183.3138,55151.3135,-1883.6707,-2432.3165,23716.0921
53780.3024,25983.1846,52223.3248,39725.2589,34765.2286,37058.0256,5022.034,49412.8168,44160.6939,55138.6178,-1900.9709,-2450.9579,23707.1514
53758.8894,25973.7968,52217.2898,39711.4009,34745.2462,37043.497,5015.3732,49376.4728,44141.7843,55125.8773,-1917.9583,-2465.263,23699.4624
53758.1295,25976.1214,52214.697,39713.7254,34757.2267,37038.1325,5012.6463,49367.3533,44146.4335,55128.6936,-1913.1303,-2456.5458,23696.9143
53770.87,25985.375,52214.6076,39723.2473,34784.2276,37036.6126,5019.5754,49380.0491,44153.4966,55136.6955,-1901.865,-2446.264,23698.4789
53768.5901,25989.6219,52216.5298,39721.4144,34782.7077,37032.2764,5025.0292,49372.0919,44147.1487,55132.404,-1898.7805,-2446.2193,23699.3283
53742.6174,25984.7492,52216.1722,39705.4553,34757.8973,37028.9236,5026.0574,49345.3145,44126.6298,55123.4633,-1910.9845,-2459.0045,23695.4391
53732.7379,25980.2788,52215.9487,39689.1385,34737.289,37019.3571,5022.6599,49325.332,44109.866,55118.8141,-1930.6093,-2469.9122,23687.3925
53741.7233,25985.2409,52214.1606,39697.5428,34755.528,37016.6302,5025.3421,49332.7528,44121.9807,55123.5527,-1918.0924,-2461.3291,23692.5334
53752.9439,25996.1486,52215.8593,39708.1375,34776.9856,37020.4747,5029.0525,49345.1804,44131.9495,55132.7616,-1908.7046,-2450.7344,23696.6461
53750.2617,25995.8357,52213.8923,39707.5564,34771.1742,37018.2395,5032.5394,49340.9336,44118.3597,55134.7286,-1909.0176,-2452.3884,23695.9308
53734.079,25992.7958,52215.3676,39699.3309,34751.7729,37014.3056,5033.344,49310.5799,44096.8126,55129.9453,-1917.6006,-2463.7878,23695.5732
53715.2588,25986.0903,52216.3957,39696.3805,34736.5737,37008.7624,5033.3887,49281.3885,44083.7145,55119.44,-1927.9271,-2471.4768,23694.9474
53721.2044,25988.996,52214.0265,39698.8839,34745.7379,37011.7575,5031.8688,49284.9648,44085.0109,55116.2213,-1918.3159,-2468.7052,23690.5217
53737.2082,25994.7628,52211.7466,39705.3659,34764.111,37012.2939,5033.1652,49296.9453,44093.1022,55126.369,-1909.3305,-2458.6022,23687.7054
53731.0839,25996.1933,52212.5959,39702.9966,34762.8146,37006.6166,5032.8523,49283.2661,44089.3918,55124.3573,-1915.2761,-2462.9831,23684.3079
53708.151,25990.8736,52211.3442,39693.743,34738.3618,37001.7886,5029.0972,49257.6063,44071.3316,55111.7063,-1928.3742,-2478.4058,23677.1554
53689.152,25981.62,52209.3773,39687.6633,34716.7253,36999.5534,5026.5938,49244.4634,44060.3346,55104.1514,-1936.5102,-2486.0948,23676.753
53710.8332,25992.7958,52217.6027,39702.1025,34738.5854,37007.913,5030.6171,49258.6792,44070.6164,55104.3749,-1925.8261,-2478.227,23681.9386
53727.6417,25999.9484,52220.419,39713.1443,34758.9254,37014.9761,5033.4781,49269.4527,44086.6202,55112.3768,-1917.5112,-2470.0016,23686.0514
53722.0538,25994.8075,52215.2781,39712.5185,34750.8341,37013.8586,5030.3489,49258.0086,44084.5191,55108.1747,-1920.9087,-2470.4486,23684.9338
53704.3512,25988.5043,52210.4949,39697.4087,34723.2521,37006.4378,5027.3538,49224.7492,44070.3481,55097.6247,-1930.3411,-2480.8198,23679.927
53693.5776,25988.5043,52211.4784,39688.3786,34706.9353,37006.8401,5030.1701,49218.9825,44067.9342,55099.6363,-1935.7055,-2483.4573,23681.5363
53708.151,25994.8075,52213.49,39701.1191,34731.8351,37013.7244,5032.6735,49237.7579,44072.6727,55105.6266,-1920.9087,-2468.5711,23686.7219
53728.1334,26003.0329,52215.7252,39720.9227,34761.1606,37019.1336,5036.6074,49256.3546,44079.1547,55110.0522,-1905.8883,-2457.3952,23691.237
53731.8885,25999.6802,52218.318,39719.4475,34752.0858,37018.1054,5039.0661,49250.3196,44074.9079,55111.8404,-1907.0059,-2458.2893,23695.305
53714.8565,25992.7511,52216.2169,39705.5,34722.0004,37015.2444,5040.1837,49225.5986,44061.8098,55108.9346,-1918.003,-2463.4302,23693.9639
53706.0052,25985.8221,52212.4618,39697.6322,34706.1306,37011.3999,5035.4898,49204.5879,44052.9138,55099.8598,-1929.8941,-2470.5827,23686.5878
53721.4279,25993.3323,52210.0031,39707.3776,34726.2025,37016.4067,5033.1205,49216.9708,44056.6242,55097.0882,-1918.0924,-2460.6586,23689.1359
53734.7049,25997.1768,52210.182,39719.7157,34745.7826,37020.7876,5035.2663,49233.1982,44064.8049,55101.1562,-1900.4792,-2448.7227,23695.6626
53740.7845,25994.7628,52213.49,39717.6594,34745.425,37017.8819,5034.1487,49226.9397,44065.7437,55111.2592,-1904.9048,-2451.5837,23695.4391
53728.357,25986.7609,52211.836,39705.4553,34722.9391,37007.153,5027.9349,49198.4636,44051.6174,55102.0056,-1922.965,-2467.7217,23687.3478
53709.1345,25981.7094,52212.1489,39698.7945,34711.2268,37002.1015,5027.9349,49179.2411,44043.0343,55097.3564,-1929.2235,-2477.1988,23685.202
53716.3317,25976.3002,52207.6786,39705.7682,34725.0402,37005.052,5026.1915,49185.9019,44055.9983,55102.6762,-1912.0574,-2470.6721,23691.1029
53735.4201,25977.8649,52203.2082,39708.4504,34738.2277,37009.7011,5019.8436,49201.8163,44062.2121,55108.3535,-1906.5589,-2466.47,23693.2039
53743.3773,25975.9873,52205.354,39704.6953,34733.9809,37006.3931,5017.8766,49197.7036,44066.7272,55109.9181,-1910.2246,-2469.2416,23689.5382
53728.8487,25973.1263,52206.1586,39693.9218,34713.8643,36999.0617,5017.4743,49181.6103,44057.0265,55102.8997,-1925.5579,-2477.1094,23684.3079
53713.5601,25967.4937,52206.1139,39679.9743,34697.9052,36996.2901,5014.8815,49170.6133,44053.0926,55098.2505,-1936.9125,-2486.8995,23684.7103
53738.4599,25971.204,52213.043,39694.3688,34724.0567,37010.5505,5022.7046,49187.0642,44060.0216,55106.6101,-1921.9816,-2477.0647,23692.131
53757.1013,25980.8153,52211.3889,39705.7682,34745.7379,37019.0889,5022.8834,49214.9144,44068.5153,55112.645,-1907.3635,-2461.0162,23694.0086
53759.5153,25990.0242,52211.5678,39703.3542,34745.3803,37019.4018,5020.5588,49225.4198,44071.7787,55117.6518,-1905.4413,-2459.541,23694.9921
53746.4619,25984.1681,52213.2665,39701.2085,34727.9459,37014.6632,5024.8504,49218.2225,44067.1742,55115.059,-1914.4714,-2468.5711,23694.2321
53733.9896,25979.4295,52213.3559,39694.95,34710.5116,37007.6448,5023.9563,49202.8445,44065.8331,55110.0522,-1925.0214,-2477.5565,23686.9901
53748.5182,25980.9941,52213.2665,39703.2201,34731.3881,37012.741,5026.2362,49214.4674,44075.0867,55118.4118,-1914.2479,-2466.023,23690.1641
53761.6611,25981.1729,52216.7534,39706.5729,34749.4036,37015.9596,5028.8737,49235.2545,44082.2393,55118.6353,-1904.9048,-2457.0823,23696.2885
53758.0401,25982.2458,52215.0546,39704.9189,34741.6699,37012.8751,5029.2313,49229.756,44086.799,55115.2378,-1907.9,-2460.0774,23695.9755
53738.5494,25971.964,52211.0313,39691.1949,34711.7633,36999.7323,5024.6269,49205.035,44075.3102,55107.1018,-1926.1837,-2476.3048,23688.8677
53732.2015,25967.7172,52212.6853,39681.3601,34696.1617,36998.3912,5021.8999,49191.8921,44061.7651,55103.2573,-1935.3479,-2481.6692,23684.8444
53751.0216,25977.3284,52217.9604,39691.1502,34710.3775,37006.3037,5020.5141,49201.2799,44073.6562,55108.3982,-1920.864,-2469.2863,23688.5548
53765.595,25989.8454,52220.5085,39697.4981,34731.4328,37017.0772,5025.9233,49229.309,44092.3423,55125.8326,-1905.7542,-2454.4001,23695.6626
53765.6397,25996.6403,52221.8943,39705.8129,34743.458,37024.945,5032.5394,49249.0679,44097.2149,55124.1785,-1902.1779,-2451.4049,23697.1378
53767.8301,26001.0213,52225.1129,39709.3892,34737.736,37026.912,5038.172,49236.9086,44091.627,55120.647,-1914.0244,-2460.5244,23695.1709
53752.1839,26006.6539,52224.8,39705.8576,34726.0237,37029.4601,5039.6919,49230.4265,44090.5094,55117.5624,-1921.0875,-2469.0181,23693.338
53757.146,26016.2652,52222.4307,39716.2735,34744.1733,37031.5164,5036.9203,49253.4041,44097.5726,55117.6965,-1913.1303,-2460.1221,23695.4391
53766.802,26014.2982,52222.5648,39721.325,34763.1276,37031.6505,5035.1322,49271.5091,44103.9652,55122.2116,-1905.486,-2453.3719,23692.5781
53766.8914,26011.0795,52219.3462,39719.8498,34762.8146,37032.5446,5029.6336,49267.6646,44098.4666,55117.1154,-1909.6434,-2461.2397,23688.4654
53753.8826,26010.856,52216.3957,39708.4951,34737.1548,37037.4173,5025.4762,49250.7219,44088.9448,55113.4497,-1916.8407,-2469.1969,23687.2137
53751.3793,26010.8113,52222.2072,39707.6011,34722.0004,37043.5864,5027.7561,49247.3245,44088.4084,55119.2164,-1921.4898,-2471.0298,23686.409
53760.8117,26011.5266,52221.2684,39714.3513,34730.1364,37047.5203,5029.0078,49266.9493,44105.6192,55121.7645,-1909.8222,-2458.1105,23690.4323
53778.8272,26014.7899,52220.0167,39724.9907,34756.6456,37054.8964,5029.0078,49280.2709,44117.6444,55126.6372,-1894.2654,-2449.5721,23695.0368
53771.4064,26020.1544,52221.5813,39713.189,34762.2335,37049.0849,5023.3752,49282.2826,44117.3762,55123.0609,-1906.2907,-2455.5624,23689.0912
53756.6096,26007.5033,52225.8729,39699.8674,34740.9099,37045.2851,5023.4646,49267.3963,44109.3296,55123.9103,-1919.7464,-2464.0113,23688.4207
53755.6708,26003.167,52226.3199,39708.6293,34741.1335,37048.5038,5031.243,49267.4857,44107.1838,55127.1737,-1915.9466,-2461.2397,23698.1213
53765.1479,26006.9221,52222.4307,39713.949,34749.7612,37049.0402,5031.1983,49280.4945,44117.5103,55131.7781,-1906.1118,-2450.7344,23701.0717
53775.9662,26008.9338,52218.765,39714.2619,34764.6028,37047.7438,5026.862,49287.7364,44123.9923,55130.6605,-1896.1877,-2444.0736,23698.0319
53776.7708,26004.9999,52222.2072,39716.1841,34767.9555,37040.2336,5028.4266,49282.0144,44123.0536,55134.0133,-1897.1711,-2445.817,23697.8084
53765.3714,26004.8211,52224.4424,39705.8576,34750.6553,37032.0976,5031.7794,49270.0785,44108.972,55134.1474,-1914.9184,-2459.1833,23694.0533
53756.1178,26000.5742,52220.7767,39698.8839,34735.0091,37026.8673,5030.036,49262.0319,44099.6736,55126.1902,-1921.4004,-2469.3757,23689.7618
53764.5668,26004.2846,52221.6707,39706.0364,34747.4366,37028.8342,5035.4898,49274.236,44118.5385,55134.6838,-1910.2693,-2460.3009,23693.2039
53788.2149,26011.3478,52225.6494,39718.0617,34767.0168,37033.6622,5039.8707,49287.2,44131.3684,55141.3447,-1897.3053,-2446.264,23699.1048
53779.5871,26011.3478,52221.7602,39711.0879,34763.3511,37025.1685,5038.2614,49282.372,44130.2955,55142.5517,-1902.8932,-2450.3767,23698.3895
53763.8068,26004.9552,52217.0216,39699.7333,34745.0227,37014.1715,5035.8474,49267.8434,44118.5832,55139.9589,-1915.6337,-2458.6916,23693.1145
53751.5134,25998.4732,52216.0828,39687.7527,34729.7341,37013.7244,5032.8076,49253.6277,44108.0779,55135.9355,-1927.793,-2466.023,23691.7287
53761.4375,26001.3789,52219.3909,39695.7099,34741.1782,37019.5359,5034.104,49264.4012,44121.8466,55143.6245,-1911.1186,-2454.4001,23698.7025
53776.6367,26006.788,52218.4074,39699.2862,34760.8477,37019.8041,5037.5909,49284.1601,44134.8553,55151.0006,-1897.7076,-2442.8219,23704.5139
53782.4929,26007.7715,52217.9604,39711.7138,34772.2024,37026.152,5043.5364,49301.2816,44137.0457,55151.3135,-1898.4228,-2445.1464,23705.0056
53763.4045,26004.9552,52213.7135,39697.2299,34754.6339,37020.4747,5038.6637,49282.2379,44119.9243,55146.4409,-1914.6055,-2457.6634,23697.719
53744.182,25995.0757,52213.7135,39684.1764,34733.5339,37016.9431,5037.2779,49269.4527,44115.5434,55137.7684,-1925.6473,-2462.7596,23695.6626
53754.0168,25992.9746,52212.1489,39693.8324,34747.526,37023.3357,5039.2449,49288.407,44124.9758,55140.0483,-1915.0078,-2452.7013,23698.7025
53772.6134,25999.7249,52213.1771,39707.2434,34767.8661,37031.2929,5043.2682,49309.1047,44134.2294,55149.3466,-1898.0652,-2439.5585,23706.3468
53776.1897,25999.2778,52215.5911,39711.3115,34772.6494,37028.8342,5045.861,49304.992,44138.1633,55148.2737,-1898.4228,-2438.4409,23708.1796
53759.1577,25995.2545,52216.7087,39702.3708,34758.389,37029.6389,5046.4869,49283.9366,44128.9544,55139.2883,-1909.554,-2448.9909,23706.7044
53742.9303,25990.7395,52215.5017,39696.0676,34739.9265,37026.599,5042.24,49275.5771,44119.8349,55138.5283,-1918.0924,-2457.4846,23702.5917
53754.285,25998.2497,52214.4735,39703.6672,34755.7068,37029.1919,5041.793,49297.9288,44130.519,55145.5915,-1912.9515,-2448.7227,23704.9162
53775.5638,26007.0115,52216.0828,39712.6973,34783.9594,37037.5514,5046.5763,49313.7985,44141.6502,55149.3913,-1900.8815,-2434.6411,23708.3137
53767.249,26012.1971,52218.5415,39715.5136,34785.1664,37040.323,5049.1691,49317.643,44147.5064,55145.1445,-1898.7358,-2429.2767,23708.6266
53753.0333,26010.2302,52216.1722,39710.1492,34764.3793,37037.1938,5049.4373,49296.2748,44137.1351,55137.0531,-1908.1682,-2442.7772,23702.3681
53743.5561,25996.5509,52212.0595,39698.1686,34743.1898,37032.7681,5044.3858,49279.6451,44118.9408,55126.7266,-1919.8358,-2459.4516,23695.1709
53766.802,26001.2895,52220.8661,39710.4621,34756.5562,37045.151,5048.5432,49299.3593,44128.9097,55133.7004,-1901.7309,-2445.2806,23699.6859
53783.6999,26012.4654,52227.9292,39726.4659,34784.5852,37058.115,5054.9358,49327.1202,44151.3509,55150.643,-1881.8378,-2426.1028,23708.8501
53774.6251,26012.2865,52224.8,39729.3717,34787.8486,37055.5669,5054.4441,49318.7606,44145.7182,55151.7606,-1883.4919,-2428.5614,23708.4478
53759.1577,25999.1437,52222.5201,39720.2969,34762.1441,37048.1461,5048.0962,49304.2767,44132.5754,55141.2553,-1899.5851,-2446.6664,23705.4974
53752.7651,25998.8755,52225.1129,39713.7254,34743.5921,37044.0334,5047.6044,49296.2748,44129.312,55137.0531,-1906.1565,-2450.6897,23706.7938
53754.7767,26006.2516,52224.8,39715.0218,34758.2102,37047.6991,5049.6161,49311.6528,44140.0856,55141.7023,-1896.8582,-2441.1678,23708.6713
53773.4181,26008.0397,52225.5599,39725.4378,34780.9196,37050.6495,5049.929,49330.2494,44152.6473,55144.608,-1886.5317,-2429.2767,23712.337
53776.9049,26003.5247,52222.5201,39727.5388,34777.2092,37050.6942,5049.2585,49330.3388,44145.1818,55142.9987,-1889.2139,-2429.8131,23709.5207
53758.7553,26002.5859,52221.5366,39719.1346,34758.6125,37047.7438,5048.4985,49312.4574,44134.8106,55137.5449,-1902.7144,-2439.5138,23702.4128
53747.6242,25998.9202,52223.4589,39717.9723,34749.3142,37047.0285,5046.5316,49304.0979,44129.8485,55143.4904,-1910.0457,-2445.4594,23703.9328
53762.0634,26000.5742,52226.1411,39724.3202,34759.3278,37048.2802,5047.515,49316.4361,44137.4928,55147.6479,-1900.4345,-2435.8034,23707.509
53774.3568,25998.3838,52223.0119,39727.8517,34775.0634,37049.3531,5047.3809,49322.0687,44145.4053,55146.3962,-1893.6396,-2432.7636,23708.1349
53780.7047,25996.685,52223.7718,39735.049,34784.8535,37054.8517,5048.1409,49320.2806,44158.5034,55151.4477,-1887.1576,-2430.7966,23710.5936
53765.2373,25992.8852,52224.0847,39724.4096,34754.6339,37045.9557,5049.6608,49296.2301,44144.8241,55147.4243,-1901.3733,-2440.0949,23708.7607
53759.8729,25993.1982,52224.8894,39713.0549,34736.4843,37043.8546,5049.8843,49285.4118,44138.4763,55148.3631,-1909.8222,-2448.231,23710.4148
53769.5289,25998.1155,52225.6941,39719.0899,34754.321,37045.8663,5051.7619,49305.2155,44151.7979,55154.4428,-1898.4675,-2437.0551,23713.4993
53798.7649,26009.2914,52229.8515,39734.1996,34778.3267,37052.6165,5058.2439,49327.299,44165.9689,55166.7362,-1882.1061,-2419.3972,23722.2612
53792.73,26010.6772,52227.8398,39730.6681,34779.1314,37054.0917,5058.378,49319.2524,44167.8017,55162.8023,-1884.5648,-2424.4487,23716.4944
53772.6581,26000.9319,52229.3597,39721.6827,34761.9653,37049.5319,5058.9591,49301.9074,44159.8892,55157.5273,-1897.6182,-2438.8433,23714.4381
53758.2636,25993.7793,52229.8515,39714.4407,34746.5426,37042.8264,5055.3828,49289.9716,44147.7299,55150.3301,-1905.7542,-2450.8238,23710.1912
53777.8884,25996.998,52227.661,39720.1627,34762.2335,37046.8497,5055.517,49314.782,44153.8095,55156.4544,-1894.7124,-2439.9161,23713.1417
53797.6027,26005.6704,52229.0468,39735.496,34785.077,37052.393,5059.0485,49332.4846,44174.1496,55169.2843,-1883.1789,-2419.8443,23720.026
53794.2052,26007.0562,52228.9127,39731.9198,34779.2655,37052.4824,5057.1263,49334.0045,44175.0437,55163.5623,-1889.7951,-2422.9288,23716.9862
53776.3685,25998.6967,52229.0468,39716.7206,34756.6456,37048.6379,5054.0417,49325.5556,44164.1808,55160.7907,-1904.6366,-2440.2291,23714.1699
53762.5998,25995.8804,52229.3597,39710.0598,34741.5358,37046.5368,5048.4538,49322.1581,44163.4208,55160.9248,-1912.2362,-2447.5604,23714.2593
53769.9312,25994.8522,52222.6542,39707.7352,34744.9332,37041.7088,5042.3741,49328.3272,44175.1331,55159.2261,-1909.6881,-2441.8831,23711.4429
53790.0478,25998.4732,52218.9885,39712.2949,34767.7767,37043.6758,5043.4917,49342.3641,44181.7492,55160.4778,-1898.1993,-2434.4176,23710.5936
53796.3063,25998.8755,52216.3957,39714.3513,34776.4045,37040.8148,5044.0729,49346.4768,44175.8484,55157.572,-1899.9428,-2438.888,23708.6266
53782.4929,25991.3653,52212.5959,39700.4485,34748.8672,37030.9353,5041.9271,49324.438,44156.3576,55148.0055,-1916.6172,-2456.7693,23701.5188
53774.5804,25991.1865,52213.1324,39696.604,34725.3531,37029.773,5039.7366,49316.3913,44153.5413,55145.6809,-1929.7153,-2465.5759,23698.6578
53782.8058,25994.584,52212.9089,39710.5068,34747.3025,37038.9819,5038.0379,49335.7033,44161.588,55145.4574,-1915.8125,-2457.2164,23702.9046
53792.9535,25997.9367,52215.457,39718.9558,34768.9837,37043.0499,5036.2051,49348.712,44168.6511,55153.2805,-1900.5239,-2448.9909,23705.0056
53794.7863,26005.8939,52220.0614,39726.9577,34774.1246,37049.5766,5041.9271,49348.2649,44170.1263,55155.6051,-1894.8019,-2446.7111,23705.4974
53784.9069,26003.3011,52222.0284,39718.5534,34754.6339,37048.9508,5045.414,49330.4729,44164.4043,55148.7207,-1908.9282,-2456.7693,23698.5683
53774.5357,25999.9037,52222.6542,39715.4242,34742.3851,37045.6874,5044.9222,49318.9394,44160.7386,55143.0434,-1918.7629,-2460.7033,23697.0037
53783.1634,26003.48,52226.007,39721.638,34760.6689,37051.5436,5047.068,49333.4234,44170.931,55147.5137,-1907.6765,-2449.1698,23701.1611
53799.0332,26005.134,52222.5648,39726.5553,34778.9079,37053.8682,5043.7599,49360.6031,44176.5636,55146.9326,-1896.7241,-2445.7723,23702.2787
53800.1508,26003.3906,52222.3413,39730.8916,34778.4609,37051.9459,5044.0282,49360.6478,44178.1282,55154.6663,-1894.8913,-2446.4875,23704.3798
53787.4997,25994.8969,52225.8282,39727.0471,34767.9555,37053.8682,5044.0729,49339.1454,44172.3168,55153.2805,-1906.8271,-2457.4846,23702.7705
53777.4861,25990.8736,52223.4142,39717.0782,34749.8506,37050.5154,5040.2284,49326.4496,44162.7949,55149.0337,-1921.8475,-2467.3641,23699.0601
53799.3908,25996.8191,52222.0731,39723.9178,34761.6076,37048.9061,5040.6307,49341.6041,44167.5335,55150.7771,-1914.9631,-2455.6518,23699.0601
53806.4986,26002.9435,52221.4472,39726.3765,34777.2539,37052.84,5036.5627,49367.6215,44180.0952,55152.9229,-1900.8815,-2443.5818,23699.0601
53803.2353,25999.4566,52223.9506,39728.12,34781.1431,37051.1413,5036.965,49373.6565,44186.6666,55150.8218,-1900.3451,-2443.85,23697.4061
53790.1819,25993.5558,52223.0119,39722.3532,34768.4026,37048.0567,5037.1438,49351.126,44180.9446,55147.782,-1909.9116,-2458.4234,23696.6014
53784.4598,25991.5441,52225.0682,39718.8216,34754.4104,37049.3531,5040.9883,49337.9384,44171.4227,55146.0385,-1913.5773,-2466.6935,23695.1262
53794.5628,25993.3323,52223.8612,39723.6496,34767.732,37049.0849,5039.4237,49349.7849,44180.6316,55143.8034,-1911.3868,-2455.2047,23695.305
53806.6775,25992.3041,52223.1013,39729.9081,34785.6134,37049.0402,5037.1885,49373.7459,44192.8357,55146.6644,-1904.7707,-2444.7441,23700.58
53805.2917,25994.6734,52222.5648,39731.0257,34786.1499,37051.186,5037.3226,49369.7226,44191.0475,55152.297,-1902.1332,-2441.8384,23702.5023
53792.7747,25988.0573,52220.2849,39717.8829,34761.3841,37044.9275,5036.0262,49343.8393,44176.7871,55145.4574,-1913.3091,-2454.5789,23695.2603
53779.9001,25981.9776,52217.9157,39709.121,34747.3025,37040.1442,5031.6006,49336.0162,44170.7969,55141.3894,-1922.7415,-2464.6819,23691.4605
53783.2528,25979.2954,52220.1955,39715.2901,34767.1509,37042.2006,5030.3042,49354.6128,44181.6151,55143.401,-1913.1303,-2456.6352,23697.0931
53799.5249,25987.7443,52224.9341,39726.2424,34787.4016,37053.4211,5033.8805,49378.1269,44188.9465,55152.2076,-1897.7076,-2441.749,23701.4741
53808.1974,25989.3537,52225.247,39733.6632,34787.1333,37057.2656,5037.1438,49376.2493,44188.8124,55160.6119,-1894.176,-2444.2524,23705.0503
53783.2528,25982.514,52221.8943,39723.8731,34761.1159,37049.5319,5033.6123,49359.3067,44174.1496,55151.7606,-1910.4034,-2459.4069,23699.2389
53770.6465,25977.2837,52224.04,39723.6943,34750.6553,37050.426,5032.3159,49353.9423,44169.2322,55150.2854,-1912.5044,-2461.1503,23698.8366
53782.4035,25983.7657,52224.0847,39729.3717,34765.4969,37055.2987,5032.8523,49370.7061,44184.7444,55153.2358,-1902.9379,-2448.1416,23704.0669
53804.7105,25985.375,52221.7602,39735.0043,34780.9196,37059.4561,5034.8639,49385.1006,44191.3158,55155.7839,-1894.2654,-2438.4409,23705.3186
53798.7649,25979.9659,52216.3957,39732.5903,34774.6611,37054.4046,5031.69,49376.8305,44188.5442,55151.3135,-1899.7192,-2441.8831,23698.3448
53776.1003,25975.3168,52211.2548,39723.5602,34754.0528,37047.1627,5024.9398,49352.8247,44166.0136,55142.8646,-1917.3771,-2458.1999,23691.8628
53763.6727,25973.7968,52212.0148,39716.0947,34744.1733,37045.7321,5022.7046,49336.2844,44167.8911,55141.6129,-1919.8805,-2461.0609,23690.7899
53777.3073,25972.0981,52212.5959,39721.5486,34758.7913,37050.6942,5025.0739,49347.5497,44175.4013,55145.5021,-1906.4248,-2452.8354,23696.4673
53798.7649,25975.9873,52216.5298,39735.5407,34781.009,37057.7574,5027.622,49371.019,44185.7725,55156.7674,-1896.2771,-2440.4079,23702.6811
53803.1459,25979.9659,52216.1722,39737.1501,34776.3598,37053.4658,5024.7163,49370.4379,44183.6715,55154.2193,-1900.4792,-2440.0949,23699.7306
53785.3986,25976.9708,52214.9652,39725.706,34748.6436,37045.6874,5023.2857,49363.33,44170.2157,55140.3165,-1916.9748,-2453.2378,23696.5567
53770.3782,25969.0136,52215.2334,39716.0947,34737.4231,37045.3745,5025.2527,49352.8247,44162.0797,55142.0152,-1927.7483,-2465.4865,23694.5897
53778.6931,25966.9572,52214.8311,39717.6594,34752.8905,37047.0732,5022.8834,49368.6944,44173.792,55149.3913,-1916.3042,-2457.0823,23695.9308
53791.0759,25969.7735,52215.3229,39726.4212,34770.1013,37047.9673,5021.9893,49389.3027,44186.6219,55150.9112,-1904.8154,-2443.5818,23697.9425
53786.5609,25966.0631,52212.6853,39721.0568,34772.8282,37047.4309,5021.8552,49389.0345,44184.6102,55147.2455,-1909.8222,-2450.0191,23692.8016
53755.8943,25952.6074,52203.7446,39702.4602,34743.1451,37039.4737,5013.7639,49371.3319,44163.3761,55134.2815,-1935.5267,-2470.8956,23684.9785
53731.7544,25939.1516,52200.079,39689.9432,34716.7701,37026.912,5004.4656,49349.2037,44156.8047,55128.6936,-1947.552,-2481.1774,23678.8094
53755.4473,25941.4762,52197.7991,39708.4951,34737.1995,37037.1938,5009.3383,49357.0268,44168.1147,55136.6508,-1930.1623,-2467.8111,23683.4586
53765.3714,25943.7114,52192.9264,39712.9655,34756.1091,37040.8148,5008.0866,49375.4894,44172.585,55138.7966,-1916.6172,-2458.0657,23685.2914
53759.7388,25943.3985,52195.1616,39714.7536,34758.6572,37038.9819,5007.9525,49380.4514,44176.8765,55139.3777,-1913.4432,-2457.2164,23686.1408
53746.0595,25942.1021,52197.8438,39709.4786,34734.4726,37036.6126,5009.8747,49365.6993,44167.2653,55143.0881,-1925.8261,-2468.4817,23683.3692
53735.5095,25936.693,52196.5474,39701.1191,34716.8148,37034.5116,5010.2323,49351.7071,44156.4471,55134.4156,-1936.2867,-2479.9258,23679.2564
53748.2947,25935.5754,52202.3141,39708.361,34732.3269,37038.3114,5015.6862,49367.3086,44165.7901,55138.6625,-1924.1273,-2470.8062,23684.7103
53761.7952,25941.7444,52206.3375,39728.3435,34762.0547,37046.5815,5023.4646,49396.3659,44176.7871,55148.7207,-1903.5637,-2451.8073,23695.2603
53759.0683,25942.7279,52202.6718,39729.2376,34764.2452,37048.6379,5022.5705,49397.3941,44180.3634,55147.2008,-1904.1896,-2450.6003,23694.2321
53737.5659,25936.38,52201.286,39714.8877,34733.8468,37036.7467,5017.072,49372.8518,44171.3333,55137.9919,-1920.9981,-2467.9452,23685.649
53724.9148,25922.5219,52194.1334,39702.7731,34714.9819,37023.6933,5011.2158,49363.1512,44162.6161,55130.0794,-1931.861,-2482.295,23678.8094
53734.079,25917.7387,52185.1927,39700.1356,34727.8565,37025.9285,5006.3878,49373.88,44166.7736,55126.5478,-1929.2235,-2482.6527,23675.4566
53742.7515,25932.1332,52185.6397,39709.6127,34743.8157,37030.4883,5008.3995,49391.0015,44180.3187,55137.0084,-1913.2644,-2469.7781,23680.9552
53743.6008,25936.6482,52184.2092,39707.6905,34740.8205,37026.4202,5005.1808,49394.8907,44173.4791,55134.505,-1916.3936,-2467.0511,23677.2448
53733.0508,25926.7688,52178.5319,39694.9053,34723.3415,37020.5641,5001.0234,49376.0258,44159.174,55126.1455,-1933.7386,-2481.9821,23669.5558
53716.7788,25924.0419,52177.0567,39685.1152,34711.0927,37020.3406,5001.9175,49361.0948,44157.7435,55123.8209,-1943.8416,-2490.5652,23667.4994
53726.1218,25934.1002,52187.2491,39700.8061,34730.6281,37034.1986,5007.863,49371.5107,44175.0437,55135.5332,-1926.3178,-2476.6177,23680.1505
53748.7417,25945.7231,52194.0887,39714.843,34750.2977,37037.2385,5010.7688,49397.707,44187.7395,55146.1279,-1912.2362,-2463.3855,23689.1806
53750.9769,25946.1701,52191.8088,39712.0267,34745.2462,37029.9518,5011.0817,49396.5447,44184.1185,55145.9938,-1914.6949,-2460.2562,23688.7336
53728.9381,25935.4413,52188.3667,39698.8839,34713.3279,37022.6651,5005.7173,49371.6896,44175.4013,55140.4506,-1928.6871,-2474.4272,23682.9221
53707.4357,25928.7357,52186.3997,39688.2445,34699.8721,37012.6069,5000.9787,49358.0103,44157.654,55133.8792,-1943.7969,-2490.2523,23674.2049
53718.2093,25934.3237,52182.9575,39690.2561,34720.5698,37012.2939,4998.3859,49377.501,44163.2867,55134.5497,-1934.1856,-2482.8762,23675.5908
53737.9682,25940.3586,52185.0586,39704.4271,34749.0907,37021.5476,5002.9904,49405.2172,44180.5869,55137.0084,-1918.8523,-2467.23,23682.0728
53737.6553,25941.3868,52183.8516,39706.9752,34740.9099,37021.9052,5005.2702,49406.9159,44181.0787,55133.8792,-1924.1273,-2471.0745,23679.7929
53724.8254,25938.794,52183.494,39698.3027,34718.6476,37019.5359,5003.348,49383.0889,44163.9125,55127.9783,-1941.7405,-2489.2688,23669.9134
53718.9692,25936.1565,52182.5105,39692.4019,34707.5164,37022.6651,5002.9457,49376.5622,44162.7055,55130.1241,-1949.1166,-2498.9694,23666.1583
53731.4862,25937.8999,52179.2024,39701.7449,34724.1461,37031.74,5005.9855,49404.5019,44175.759,55134.4156,-1937.8066,-2488.777,23667.8123
53747.5795,25951.6239,52184.8798,39721.7721,34754.0975,37047.0732,5018.4578,49433.1121,44187.3819,55145.0104,-1918.0477,-2464.7266,23682.0728
53741.4104,25949.0758,52185.2821,39718.9558,34751.7729,37042.7817,5014.5686,49418.4941,44183.448,55141.7917,-1914.1138,-2462.8043,23681.0893
53724.5572,25932.3567,52182.0188,39705.2765,34728.393,37031.7847,5006.2984,49396.2765,44174.9543,55131.5993,-1930.207,-2477.7353,23674.6073
53718.4328,25928.3781,52185.1033,39710.775,34720.8828,37030.1306,5009.6959,49385.4582,44169.9475,55131.5546,-1931.8163,-2482.0268,23676.7977
53732.6485,25925.8747,52185.8186,39711.3562,34736.7078,37035.9421,5007.0137,49385.19,44177.6812,55127.7548,-1923.0545,-2474.3378,23676.8872
53745.5678,25925.6065,52185.2821,39714.843,34751.4153,37031.6505,5005.2702,49401.4174,44188.4547,55131.3758,-1915.8572,-2467.9452,23679.8376
53739.3987,25922.9243,52179.0683,39710.8644,34746.1402,37025.3474,5000.6211,49394.086,44178.7094,55130.0794,-1922.6074,-2471.8791,23680.7764
53717.0917,25917.6493,52172.9439,39698.3474,34724.8167,37018.9995,4995.8825,49372.8518,44158.5928,55119.2164,-1939.7289,-2484.709,23674.6073
53699.2103,25907.5463,52169.6806,39684.1764,34696.2065,37012.2045,4990.384,49352.2435,44148.1769,55113.5391,-1954.7045,-2494.4544,23670.0028
53708.7768,25907.5016,52165.1655,39685.8305,34707.2929,37016.1831,4988.0147,49363.1959,44159.0399,55116.3107,-1944.3333,-2488.5982,23669.7346
53726.1665,25913.0001,52162.2151,39697.5428,34735.4561,37020.2065,4989.2217,49389.571,44175.4907,55121.7198,-1928.6871,-2477.1988,23669.4217
53717.1811,25915.3247,52157.253,39696.7381,34731.1646,37022.8887,4986.316,49390.018,44167.4888,55115.9978,-1935.3479,-2480.4622,23669.0193
53696.3493,25911.212,52152.8721,39690.3455,34701.9285,37019.4912,4981.4433,49369.5438,44142.1419,55104.1067,-1951.5753,-2493.2921,23663.0738
53696.9751,25911.0779,52156.9401,39682.88,34693.6136,37018.7312,4978.8952,49355.3728,44136.3752,55101.2456,-1954.2128,-2497.6283,23661.6433
53717.5834,25923.4607,52163.7797,39695.7099,34715.6078,37033.4387,4985.0643,49376.3834,44156.9388,55110.4546,-1938.2983,-2480.4175,23664.549
53732.9614,25931.4179,52166.3725,39705.7682,34739.1665,37041.083,4991.9933,49404.636,44167.4441,55111.8404,-1922.4286,-2465.1736,23672.9085
53727.7758,25923.5501,52162.2151,39699.1074,34732.2822,37035.0927,4989.5793,49393.9966,44158.2352,55105.1795,-1926.586,-2468.4817,23672.9532
53720.3103,25919.2139,52169.1442,39692.0443,34722.1345,37035.1821,4991.9933,49366.6828,44148.5345,55110.2757,-1935.0797,-2473.6226,23676.3507
53704.4406,25914.2071,52167.8925,39685.5623,34716.0548,37031.8741,4991.7251,49356.9374,44137.1351,55101.2009,-1940.4441,-2482.2056,23675.099
53709.8944,25913.313,52165.1655,39690.7479,34727.7224,37033.7069,4994.7649,49370.572,44146.4782,55103.1232,-1927.6589,-2473.9802,23676.4848
53724.2442,25912.4637,52165.6573,39700.8955,34743.011,37034.7351,5000.4423,49388.2298,44152.2449,55107.1912,-1914.2479,-2461.3291,23679.5694
53707.391,25899.902,52159.4435,39686.5904,34732.1928,37018.1054,4991.7698,49378.261,44132.933,55100.4857,-1925.4684,-2471.0745,23673.3556
53682.1783,25891.5871,52153.0062,39675.9957,34711.3609,37008.4941,4987.97,49352.6012,44112.9953,55090.8744,-1940.8911,-2490.3864,23668.2147
53671.1365,25886.7145,52152.2462,39667.5467,34694.3736,37000.1346,4989.5346,49325.332,44098.109,55085.3312,-1952.6035,-2502.3222,23664.8172
53676.0092,25893.9564,52153.8109,39666.4739,34705.5942,37004.8285,4992.6639,49318.85,44098.6902,55089.7121,-1944.3333,-2497.8966,23665.8454
53684.0111,25902.1372,52155.3755,39675.504,34719.6758,37000.984,4993.5579,49323.5886,44110.3131,55100.7986,-1926.0943,-2481.7586,23670.1816
53675.8751,25906.6522,52156.9401,39678.6332,34728.2141,36998.6594,4997.6259,49309.8646,44107.4073,55103.5702,-1928.4636,-2478.7635,23674.0261
53658.0831,25901.4666,52156.6272,39666.2503,34716.6359,36992.7138,4997.1342,49284.0707,44093.0575,55097.0435,-1945.3615,-2490.1628,23669.5558
53647.6672,25908.1721,52159.3988,39662.0929,34708.8128,36989.1375,5000.3529,49259.5285,44082.8204,55096.6859,-1955.7774,-2496.6896,23668.2147
53665.6827,25922.8349,52163.7797,39673.7158,34728.3036,37000.4028,5014.345,49282.2826,44096.8126,55103.3914,-1931.9057,-2479.3893,23682.1622
53677.7526,25940.0904,52171.9158,39684.4894,34754.321,37009.4329,5021.0953,49307.6742,44102.0429,55112.4662,-1913.8008,-2465.2183,23691.3264
53677.2162,25952.1157,52174.7768,39687.4398,34750.6106,37010.5058,5026.6385,49297.4818,44093.1022,55111.8404,-1915.9466,-2465.7547,23688.7336
53667.292,25946.1254,52172.9439,39682.1648,34732.3269,37006.6613,5026.8173,49273.029,44086.4861,55107.4594,-1927.3907,-2474.9637,23684.9785
53651.3329,25940.5375,52168.2501,39668.4408,34712.9256,36997.4524,5019.0836,49247.5927,44070.3481,55101.1562,-1943.0816,-2484.0385,23675.0096
53658.6195,25943.4879,52168.4289,39678.0968,34720.5698,37002.4592,5019.1283,49252.0183,44070.8399,55100.0834,-1932.621,-2476.7071,23674.5626
53675.9645,25953.1885,52175.2685,39694.7265,34737.6466,37010.5952,5025.5656,49277.0523,44084.3403,55106.5654,-1910.3587,-2463.2066,23684.9785
53673.1482,25951.5792,52171.5581,39696.5146,34735.322,37007.4213,5023.3752,49274.3701,44079.6912,55098.3846,-1910.1799,-2469.2416,23681.4022
53654.8644,25945.5889,52171.1558,39683.4612,34709.3046,36998.4806,5017.2061,49248.6656,44060.5581,55085.9571,-1928.6871,-2484.2173,23673.6685
53639.1735,25944.829,52170.0829,39680.9131,34693.3454,36994.949,5017.2508,49236.6403,44051.8409,55091.6791,-1937.7172,-2488.33,23675.2331
53651.6905,25955.2002,52174.598,39699.7333,34716.1889,37007.7342,5022.6599,49251.7948,44063.732,55099.3681,-1922.4733,-2473.6673,23686.7219
53669.0354,25963.3809,52180.4541,39708.674,34737.4678,37012.428,5023.3752,49266.4129,44074.8185,55103.9279,-1906.7824,-2460.3456,23694.098
53677.3056,25965.1244,52186.3103,39722.3085,34740.7311,37017.3901,5027.1749,49264.0883,44077.0984,55109.9628,-1900.3004,-2453.953,23698.613
53663.4922,25968.9689,52186.1315,39711.8032,34718.2453,37017.4348,5025.208,49236.7297,44069.4988,55102.2291,-1914.5608,-2465.6206,23692.891
53653.9704,25969.9523,52183.8963,39704.1142,34707.2482,37012.6069,5025.4315,49227.4314,44060.5581,55093.0649,-1926.8543,-2474.3825,23684.9785
53669.2142,25976.2555,52184.8798,39711.8032,34724.3696,37018.9101,5030.6171,49241.6918,44066.0119,55096.06,-1915.0972,-2464.7713,23689.1359
53702.9654,25987.789,52188.9925,39727.8517,34742.6981,37033.8857,5036.5627,49264.2224,44081.524,55105.7607,-1898.4228,-2449.6168,23693.338
53700.909,25981.8435,52190.3336,39726.0636,34735.5455,37028.7895,5034.7298,49257.338,44070.3034,55099.9045,-1909.3752,-2456.9482,23686.4984
53680.6583,25967.0913,52185.3268,39709.8362,34706.4435,37015.4232,5027.622,49227.5655,44059.3064,55089.9357,-1926.3625,-2473.6226,23677.1554
53669.259,25966.1525,52187.4726,39700.672,34695.67,37012.6963,5029.0525,49212.9028,44059.9322,55090.6956,-1929.2235,-2475.4107,23675.7249
53689.6884,25972.0087,52192.3006,39711.5797,34711.4503,37019.5806,5034.6851,49229.309,44071.7787,55099.8598,-1912.9962,-2461.6867,23684.3526
53707.8381,25981.0388,52196.2792,39722.532,34735.9031,37022.5757,5039.3343,49249.8726,44086.0838,55106.4759,-1900.4345,-2449.4827,23692.6228
53705.8264,25983.4528,52199.0508,39721.4144,34734.115,37023.3357,5044.2964,49259.305,44092.1634,55107.5935,-1895.4277,-2446.4428,23697.4955
53695.3211,25977.4625,52198.7826,39707.8246,34715.7419,37018.9548,5042.3741,49238.9202,44088.1848,55113.2262,-1905.5307,-2456.0541,23699.4624
53695.2764,25975.4509,52205.2199,39711.1326,34710.9586,37025.3026,5045.1905,49224.8386,44086.6202,55121.8539,-1909.7775,-2458.5575,23706.5256
53715.7059,25978.0437,52204.9069,39721.9956,34720.6593,37025.705,5046.5316,49236.8191,44092.074,55125.609,-1899.7192,-2448.9462,23711.1747
53738.5941,25984.3916,52201.6436,39723.5602,34737.3337,37021.5923,5042.0612,49250.1408,44102.9817,55128.5148,-1892.7902,-2444.0289,23709.8783
53742.2597,25982.1564,52200.7495,39717.0782,34730.8069,37015.602,5038.1273,49249.649,44103.6075,55128.6489,-1898.5122,-2446.2193,23708.4031
53730.0557,25981.8882,52203.2976,39707.3328,34706.1306,37013.5456,5036.0262,49228.0573,44091.7611,55126.0561,-1916.036,-2459.8539,23704.0669
53722.769,25979.9212,52203.0741,39697.4087,34689.8586,37014.6185,5035.758,49215.6744,44085.8603,55122.2563,-1924.2167,-2467.3194,23696.7355
53736.1801,25993.4664,52204.5046,39702.1025,34706.0412,37021.1452,5039.3343,49237.3109,44101.4171,55125.2067,-1918.45,-2459.3621,23696.6908
53749.8593,26002.6306,52202.5824,39709.1657,34730.5387,37021.5476,5043.0447,49257.0251,44113.0847,55130.2582,-1903.1167,-2449.1251,23696.5567
53743.2432,25995.7463,52203.4317,39709.4339,34728.4824,37019.0442,5044.5199,49254.2088,44102.937,55128.7383,-1904.0108,-2453.5954,23693.7404
53724.3783,25981.8435,52203.3423,39704.6506,34708.9022,37015.9596,5042.6871,49234.0028,44084.6086,55121.1387,-1917.6006,-2466.6935,23688.2865
53718.7904,25975.8979,52203.5211,39700.1803,34696.7876,37013.1433,5043.1788,49216.1214,44082.1052,55118.5459,-1924.2167,-2471.7003,23685.4255
53736.2695,25986.0456,52208.0362,39710.8197,34716.0101,37015.4679,5048.9008,49232.8852,44091.9846,55121.6304,-1908.8835,-2456.6799,23691.9075
53750.0829,25990.8289,52207.7233,39716.4971,34732.3269,37018.1948,5047.8727,49242.6306,44102.0876,55122.2116,-1899.3169,-2443.1795,23696.1544
53748.3841,25992.5723,52212.0148,39713.2337,34727.9012,37017.8819,5049.9737,49242.7647,44111.3859,55132.2699,-1904.9048,-2444.9229,23698.3001
53738.9964,25990.5159,52215.2781,39711.4903,34715.2501,37018.1054,5052.1642,49238.6073,44100.9253,55126.0114,-1918.0924,-2460.4797,23693.6063
53730.7262,25986.582,52212.283,39705.6341,34705.8624,37018.7312,5048.9008,49225.6433,44083.4016,55117.2942,-1924.0826,-2471.745,23691.8181
53739.7116,25994.0922,52216.4851,39715.2007,34723.1627,37030.7118,5052.9689,49245.1787,44100.7018,55127.4419,-1911.3421,-2463.1619,23697.5402
53759.3365,26004.687,52219.4803,39730.3104,34746.9449,37044.2122,5059.2721,49281.8356,44118.8514,55140.7188,-1893.0584,-2445.5488,23705.8997
53772.3452,26015.237,52225.3811,39738.4465,34756.0197,37052.4824,5068.2127,49299.8511,44123.4112,55145.9044,-1890.1527,-2438.3515,23710.7277
53755.3579,26017.8298,52226.007,39732.0539,34738.4512,37048.2355,5071.0738,49281.7461,44119.7008,55145.6809,-1901.6415,-2440.6314,23706.1232
53736.6718,26011.9736,52226.007,39724.0072,34723.9673,37043.2287,5071.6549,49266.6364,44110.0448,55138.126,-1914.382,-2447.3369,23704.5139
53751.3345,26020.0649,52228.7786,39732.0092,34741.2676,37050.9624,5074.203,49284.2495,44118.4938,55141.2553,-1900.8815,-2440.1844,23709.5207
53772.077,26032.2243,52228.1528,39749.98,34769.9672,37061.0654,5074.65,49318.0901,44133.3354,55146.1279,-1880.8544,-2432.3612,23710.5042
53769.7077,26031.509,52220.6426,39749.1753,34764.6475,37056.6845,5068.4363,49309.5517,44134.0059,55145.7256,-1883.6707,-2432.9871,23706.3915
53758.8894,26024.9376,52217.871,39740.4134,34743.6816,37058.115,5065.5305,49292.5644,44124.7076,55141.5682,-1896.2324,-2443.4477,23701.7423
53746.9536,26015.5946,52214.3841,39725.9295,34730.9411,37055.8798,5057.0369,49276.5605,44112.9953,55128.2912,-1904.5025,-2456.6799,23696.3779
53768.6348,26015.0135,52216.7087,39732.8585,34755.8856,37060.5737,5057.5733,49293.3691,44131.5472,55139.0201,-1889.9292,-2443.3583,23700.7141
53793.0876,26025.0717,52221.3131,39752.9751,34783.0653,37071.6155,5062.4907,49316.7937,44142.3208,55148.4078,-1875.2664,-2431.5119,23705.8103
53788.5278,26024.3118,52226.6328,39755.702,34776.0022,37068.7097,5063.9659,49319.5206,44142.4102,55149.9724,-1876.0711,-2437.0551,23705.4527
53767.4278,26015.1476,52224.7106,39737.9547,34749.9847,37054.494,5057.4392,49300.2981,44132.3072,55143.714,-1895.2042,-2451.0026,23700.7588
53755.8943,26012.0183,52221.6707,39723.2473,34737.8254,37049.3978,5051.6725,49286.887,44125.5569,55138.3495,-1908.5258,-2460.8821,23696.6908
53769.0371,26010.5431,52223.0119,39731.3833,34755.0362,37051.9906,5055.204,49304.992,44135.347,55145.0551,-1903.832,-2451.5837,23700.4459
53773.8651,26014.3429,52221.0002,39740.1899,34771.1742,37055.4328,5053.2371,49314.6032,44154.6589,55151.1347,-1894.3548,-2439.6926,23701.787
53771.5405,26016.3993,52220.0167,39735.496,34763.7981,37047.565,5052.5218,49314.335,44154.6142,55147.1561,-1900.1663,-2445.5488,23696.3779
53758.1742,26008.2632,52225.5599,39724.1861,34742.4299,37042.5582,5052.4324,49297.6606,44139.3703,55145.9491,-1911.6104,-2458.5575,23694.2768
53738.5941,26003.5247,52226.0517,39713.3678,34727.4989,37037.9984,5054.1312,49284.1601,44130.072,55145.9938,-1918.7182,-2462.1338,23694.8133
53753.0333,26011.2137,52226.6775,39722.3085,34743.771,37043.6758,5057.618,49295.9619,44131.5919,55153.9063,-1909.3752,-2452.299,23695.6626
53780.4812,26012.6889,52227.4822,39736.3007,34772.2024,37050.2025,5062.6248,49313.7091,44148.1769,55158.6449,-1891.8961,-2439.2009,23701.2953
53780.213,26009.7384,52226.6328,39735.9878,34774.0799,37049.3978,5064.6812,49317.5089,44146.2547,55153.9063,-1890.7338,-2437.0104,23703.2622
53757.4142,26011.3925,52229.0915,39729.7293,34758.4784,37045.911,5067.0952,49304.232,44145.5394,55157.125,-1900.4792,-2446.6664,23702.234
53746.0595,26005.3575,52232.9807,39715.5583,34747.8837,37042.5582,5066.6928,49290.6868,44142.7678,55160.1201,-1914.2479,-2452.9696,23700.9823
53759.2471,26002.72,52233.0254,39722.5767,34759.596,37043.4523,5066.9163,49308.8812,44158.0117,55165.3504,-1905.5754,-2442.4642,23705.408
53780.5259,26005.7151,52232.042,39735.9878,34785.0323,37052.3483,5067.3634,49335.3456,44171.6909,55172.4136,-1888.141,-2431.9589,23711.5324
53775.4297,26006.2963,52230.4773,39734.2443,34786.8204,37053.0188,5069.6433,49331.4564,44173.345,55175.7663,-1884.5201,-2430.6178,23715.0192
53757.4589,26002.7647,52229.3597,39725.8401,34764.4687,37046.9838,5067.4081,49316.1231,44164.0913,55172.9947,-1897.8417,-2438.9774,23713.2311
53744.4502,25998.2497,52224.6659,39716.5865,34744.4415,37040.5465,5059.5403,49299.8064,44152.4684,55160.8801,-1913.7114,-2453.1931,23703.7987
53762.1528,26005.9386,52228.3763,39731.5174,34761.1606,37051.8565,5065.3964,49319.2971,44160.2468,55166.1551,-1894.4889,-2440.542,23709.923
53770.2888,25996.8191,52224.8,39734.7361,34775.9128,37052.5271,5060.5685,49335.0774,44164.1361,55164.4564,-1887.2023,-2433.7471,23709.8783
53764.7903,25998.4732,52220.732,39729.327,34772.4706,37051.5436,5059.1826,49328.4613,44157.8329,55160.1648,-1892.7902,-2436.0716,23703.8434
53748.1606,25989.8454,52216.9769,39721.6827,34756.1985,37045.598,5056.2322,49310.2223,44141.8737,55153.3252,-1907.0953,-2447.3816,23697.4955
53730.9498,25987.2079,52216.6193,39709.5233,34742.6981,37035.9868,5052.5665,49290.8657,44131.1002,55145.0998,-1917.4665,-2464.4136,23691.6393
53745.3443,25994.0922,52223.2354,39716.2735,34759.9536,37044.9722,5060.2555,49309.7305,44149.7415,55150.5983,-1905.3519,-2452.2543,23695.9755
53765.2373,26000.9766,52221.4472,39729.5952,34783.8253,37054.4493,5065.0835,49331.8141,44157.3858,55152.3417,-1887.3811,-2434.2835,23700.7141
53768.6348,26001.2895,52223.5483,39733.3056,34784.8535,37050.6495,5067.6316,49326.0026,44156.5812,55151.0453,-1884.8777,-2431.6907,23700.1777
53756.1178,26000.7977,52231.9525,39731.1598,34764.9157,37054.3152,5074.2477,49310.1776,44154.5248,55159.3602,-1895.6512,-2436.5187,23700.58
53743.6008,25996.2827,52230.9691,39725.1248,34749.8953,37052.6612,5073.756,49300.164,44149.4286,55154.1299,-1906.7824,-2444.0289,23700.8929
53752.2733,25997.4897,52239.9545,39731.5174,34765.2733,37060.7078,5074.2924,49322.6498,44164.6278,55160.9695,-1893.5949,-2435.8481,23711.2194
53770.8253,26001.4683,52239.3733,39737.7759,34786.5075,37067.2792,5073.1301,49336.955,44174.6861,55162.7129,-1880.4073,-2422.3924,23718.8637
53770.1547,26006.0728,52237.0487,39737.8653,34785.2111,37066.8322,5076.1253,49333.0657,44174.5967,55163.7411,-1882.419,-2422.75,23719.9366
53752.9439,25998.5179,52235.5288,39732.0986,34758.6125,37058.3385,5070.0903,49312.5468,44157.0282,55155.6945,-1897.5288,-2436.7422,23712.0688
53740.114,25991.2759,52234.5901,39719.0005,34740.3735,37047.7885,5065.0835,49293.682,44149.8756,55150.1513,-1908.9729,-2452.3884,23705.5421
53751.424,25990.963,52234.0536,39726.1083,34761.2053,37045.4639,5065.4858,49307.6742,44160.8727,55153.1464,-1898.2887,-2442.2407,23707.6432
53773.3287,25994.7628,52234.4112,39736.6136,34783.1547,37052.84,5066.1564,49333.9151,44170.7522,55161.3718,-1887.3811,-2431.6013,23707.9561
53771.5405,25998.6073,52233.6066,39735.496,34778.9973,37050.426,5063.9212,49334.541,44171.1098,55161.5953,-1888.5881,-2433.0765,23704.1563
53756.6543,25994.584,52232.936,39720.8333,34751.2811,37045.0616,5063.206,49311.8763,44154.1225,55148.9443,-1908.0341,-2447.7839,23693.6957
53741.9915,25988.6384,52230.522,39710.9538,34735.2326,37040.6806,5060.8367,49298.1076,44148.2216,55141.4788,-1919.1653,-2457.8869,23688.9571
53751.871,25991.2759,52232.1314,39724.4543,34751.8176,37047.6097,5062.4013,49321.3981,44153.8543,55146.3515,-1902.7144,-2448.4992,23694.2768
53765.282,25994.9416,52231.0138,39737.463,34772.4259,37054.6281,5062.0437,49335.5691,44165.6113,55151.7159,-1887.9175,-2438.4856,23698.2554
53773.9545,26000.7083,52229.6727,39733.5738,34778.3267,37056.8633,5061.8201,49338.3855,44166.55,55158.4661,-1885.3247,-2436.5187,23701.4294
53766.9808,25998.3838,52231.0585,39727.4941,34764.2452,37050.426,5062.4013,49321.9346,44158.9504,55155.0239,-1895.4724,-2444.5206,23700.6247
53753.078,25991.7676,52229.1362,39722.9791,34749.4036,37042.0665,5061.8201,49307.4507,44154.793,55150.3748,-1907.5423,-2450.7791,23697.3166
53763.0916,25996.0592,52228.4657,39724.0072,34760.4454,37046.5368,5056.8581,49327.4778,44164.1808,55157.4826,-1900.4345,-2442.4195,23701.9658
53781.6882,26005.9386,52227.4375,39734.3785,34779.5784,37055.3434,5059.3168,49347.7732,44181.9727,55163.607,-1888.3198,-2433.7471,23708.7607
53790.0478,26014.2088,52230.3879,39739.117,34782.3501,37057.668,5065.7094,49352.3777,44186.8454,55170.089,-1884.2965,-2431.3331,23714.3934
53775.3403,26007.995,52230.3879,39727.6729,34763.8875,37052.08,5065.7541,49333.2446,44178.1282,55166.0657,-1900.5239,-2444.7888,23711.13
53760.8117,26006.8774,52230.9244,39716.5865,34749.4036,37049.979,5066.3799,49320.7276,44172.0039,55159.3155,-1913.3538,-2456.2329,23707.1961
53777.7543,26011.616,52232.936,39722.5767,34765.0051,37052.2141,5070.0903,49337.3126,44180.274,55162.9364,-1900.3898,-2446.1299,23708.0008
53798.2732,26015.684,52231.1479,39734.1102,34787.5357,37057.4892,5068.7045,49367.7557,44199.4965,55166.1551,-1889.5715,-2432.6295,23707.2855
53799.212,26017.7851,52230.1644,39732.7691,34781.6795,37057.7574,5067.721,49374.4612,44196.5908,55170.4913,-1891.0021,-2431.9142,23705.7656
53781.9117,26009.7831,52227.5716,39719.671,34759.0595,37049.0849,5066.6034,49351.6624,44176.3848,55160.8801,-1907.2294,-2448.0522,23697.6743
53764.3433,26000.9319,52219.8379,39702.0131,34740.6864,37041.0383,5058.2439,49327.7907,44165.2983,55147.6479,-1923.9485,-2464.056,23691.237
53774.2227,26000.8425,52222.7883,39712.742,34759.4619,37048.8614,5062.1778,49343.7499,44179.0223,55157.3485,-1910.3587,-2454.4895,23698.926
53791.2101,26003.6141,52226.9905,39733.9314,34781.8136,37055.1646,5066.067,49369.5438,44196.1437,55175.6769,-1890.3315,-2436.921,23707.1961
53789.3772,26002.6753,52227.3034,39735.2725,34785.7475,37052.5271,5067.6316,49366.191,44189.0806,55169.4185,-1891.6726,-2437.0551,23704.0222
53774.8486,25996.5509,52225.4705,39725.0801,34769.699,37057.8021,5065.5752,49345.3592,44181.034,55163.6964,-1899.004,-2446.1299,23704.7374
53764.2539,25992.6617,52230.2538,39723.6496,34765.3627,37058.4279,5064.9494,49346.745,44178.4412,55163.2494,-1903.4296,-2448.4992,23708.716
53775.2956,25997.2215,52232.1314,39727.807,34779.3102,37059.3667,5067.9892,49379.8256,44189.0359,55169.7314,-1891.2703,-2436.6975,23712.1582
53790.5395,26010.6772,52237.2723,39736.3901,34804.3442,37069.1568,5073.8901,49402.4009,44202.2681,55177.778,-1878.8874,-2422.75,23718.5955
53789.869,26013.3594,52242.1896,39743.9003,34805.3277,37070.5426,5073.4431,49395.0248,44205.3974,55178.985,-1878.351,-2423.4653,23717.3885
53775.9662,26009.962,52241.6532,39732.1433,34777.1198,37065.3123,5071.8337,49373.2989,44197.306,55174.6935,-1892.4326,-2436.6081,23712.9629
53764.835,26002.4518,52237.4064,39726.2424,34763.1723,37062.8089,5072.9066,49366.0122,44187.0689,55168.3009,-1902.0885,-2444.7888,23706.7044
53779.3189,26004.2846,52236.8699,39735.8537,34787.8486,37068.5756,5076.0359,49380.2726,44193.5062,55173.7994,-1887.2023,-2437.3233,23711.13
53791.523,26013.5829,52235.7076,39743.4533,34806.2217,37077.561,5073.2195,49403.429,44200.48,55177.5545,-1881.2567,-2430.5731,23710.8171
53788.9302,26013.0912,52232.4443,39744.7944,34801.8408,37075.4153,5067.5422,49402.4456,44195.6967,55169.5079,-1888.7669,-2438.3068,23704.4692
53766.5784,26001.1107,52230.0303,39736.7924,34774.7952,37061.0207,5065.7094,49373.9247,44181.481,55161.5506,-1899.3169,-2447.5604,23697.2719
53750.9322,25995.4333,52232.8466,39730.1316,34758.3443,37060.529,5067.8551,49364.6264,44181.6151,55162.1765,-1909.7775,-2452.6119,23698.5236
53757.8166,25994.584,52228.0186,39731.0704,34774.3928,37063.7029,5061.6413,49387.0229,44189.7511,55162.0424,-1903.4743,-2450.2426,23701.787
53783.1187,26001.6918,52226.5434,39743.1403,34801.9749,37072.5989,5064.0553,49414.2026,44199.9882,55164.5011,-1886.5317,-2434.7752,23704.8715
53786.248,26004.2846,52229.5833,39742.6486,34793.5706,37073.1801,5063.4295,49410.8498,44201.9552,55174.6488,-1886.8893,-2433.5682,23705.6315
53764.1197,25991.2759,52223.7718,39731.8304,34767.732,37058.6514,5057.7074,49380.9879,44191.8522,55163.3835,-1907.8553,-2453.1037,23696.4226
53758.0401,25990.7395,52227.2587,39725.5719,34753.5163,37056.908,5059.8979,49367.6662,44189.1253,55159.9413,-1920.104,-2461.4185,23697.4955
53776.5026,25990.963,52230.522,39736.0772,34769.8778,37071.4813,5063.0718,49380.8091,44205.9785,55164.1434,-1904.8601,-2442.196,23703.9328
53783.4764,25988.102,52225.8729,39737.1501,34784.8535,37066.6534,5054.9805,49396.7235,44207.9008,55167.6303,-1901.3286,-2436.8763,23703.2175
53781.42,25978.0884,52222.0731,39731.5174,34781.2772,37059.2773,5050.9572,49396.8576,44209.6442,55163.8305,-1901.5074,-2440.4526,23701.7423
53764.835,25970.2206,52219.7932,39723.6496,34763.5746,37058.6962,5049.9737,49382.1055,44195.2497,55152.6994,-1914.0244,-2453.506,23696.3332
53754.732,25965.1244,52217.3792,39712.742,34745.8273,37052.1694,5046.9786,49362.2124,44176.6083,55145.5021,-1926.4519,-2465.4418,23691.9969
53767.8748,25968.4324,52217.3792,39722.8897,34762.9488,37057.3103,5048.722,49374.7294,44182.5539,55149.5254,-1909.9116,-2449.7509,23695.6626
53779.0954,25970.9805,52211.8807,39735.1831,34781.8136,37057.5339,5047.2021,49394.9354,44186.3537,55150.5089,-1896.9029,-2440.7208,23696.8249
53782.4482,25975.0932,52210.5843,39734.9149,34776.8068,37054.3152,5046.4869,49389.258,44189.7511,55152.7888,-1896.59,-2443.3136,23694.098
53775.4297,25973.6627,52216.9322,39728.7011,34762.904,37054.1811,5048.4538,49383.2231,44187.516,55154.8898,-1908.2576,-2456.2776,23694.098
53765.595,25971.7405,52219.8826,39726.3765,34753.7845,37053.7341,5054.5782,49380.0938,44188.3206,55151.403,-1915.1419,-2460.7927,23694.1427
53780.1236,25976.2555,52224.04,39737.0607,34765.1392,37058.562,5055.4723,49397.6623,44201.687,55156.2309,-1904.1002,-2448.5886,23696.959
53793.624,25981.307,52223.8612,39745.6437,34787.178,37060.3502,5053.1924,49413.8449,44205.9338,55158.9578,-1896.2771,-2440.3632,23700.1777
53782.2247,25980.3683,52220.9555,39739.3405,34780.0255,37061.3784,5051.3595,49411.7886,44200.1671,55155.5604,-1902.4014,-2444.4759,23696.2885
53763.9856,25974.4227,52222.4307,39730.2657,34758.7019,37060.0373,5049.6608,49402.982,44189.7959,55157.0356,-1912.3703,-2454.7577,23693.2486
53761.5269,25970.4441,52228.1528,39722.3085,34749.8059,37057.1315,5050.3761,49391.0015,44182.3304,55159.1814,-1926.7201,-2462.4467,23695.3497
53777.0838,25977.3731,52231.5949,39732.8585,34768.8049,37058.2938,5053.6394,49408.2123,44193.8192,55166.021,-1914.6055,-2448.678,23705.855
53794.2946,25985.0621,52226.1411,39744.2579,34789.5473,37063.39,5052.7006,49428.3736,44207.9455,55169.1949,-1893.9078,-2439.6032,23708.8948
53792.2829,25984.0339,52223.4589,39740.9499,34785.8369,37063.7029,5047.1127,49419.0753,44203.6092,55161.6848,-1898.9146,-2444.8335,23704.0669
53772.3899,25980.1447,52220.5979,39727.2259,34759.0148,37057.3997,5043.8046,49395.4271,44189.3935,55150.4195,-1918.897,-2457.3058,23693.338
53758.9788,25970.4441,52216.351,39711.1773,34739.6582,37042.2006,5039.5131,49373.7012,44178.4859,55141.747,-1937.896,-2470.2698,23682.3857
53767.9195,25966.9572,52212.1489,39712.4738,34749.493,37041.2171,5036.1603,49386.3523,44184.4314,55148.4078,-1927.9271,-2462.4467,23683.7715
53782.8952,25975.585,52209.1091,39719.5816,34770.5483,37045.6874,5033.344,49412.2803,44203.9222,55153.4593,-1912.0127,-2451.4943,23687.8395
53780.8836,25973.7521,52207.0527,39727.7176,34773.767,37043.7205,5032.1817,49416.8848,44204.4586,55151.6265,-1911.1186,-2454.4001,23685.1573
53764.6562,25964.3644,52207.008,39720.7439,34757.8973,37043.0499,5030.5277,49399.4057,44193.1486,55150.5089,-1925.1108,-2466.3359,23682.788
53749.0547,25961.5481,52210.0478,39711.0432,34743.1898,37042.7817,5030.036,49385.5476,44185.8619,55145.9491,-1936.0632,-2476.3942,23681.3575
53764.6115,25963.068,52212.7748,39721.4144,34759.2384,37047.3862,5031.2877,49396.8576,44195.0262,55148.6313,-1924.0826,-2465.3524,23686.7666
53779.4977,25972.0981,52212.9089,39733.9314,34776.2704,37055.2093,5037.5909,49422.3386,44214.0698,55154.7557,-1897.8864,-2445.1017,23691.7734
53784.6833,25977.4625,52214.2947,39741.6651,34779.802,37058.0703,5042.5977,49430.4746,44218.3614,55162.8917,-1894.936,-2443.2242,23697.4508
53767.1596,25967.0913,52214.0265,39725.9295,34757.7631,37048.1908,5037.8144,49408.3464,44204.9503,55163.4282,-1912.3703,-2459.4963,23691.0135
53754.6873,25960.2517,52218.9885,39721.325,34747.4813,37044.8828,5034.4169,49394.1754,44200.0329,55166.3339,-1918.3159,-2462.6702,23688.5995
53759.6941,25970.0865,52220.6426,39734.1549,34766.9721,37049.666,5037.725,49406.9159,44211.6559,55174.4252,-1902.7144,-2450.1979,23696.0649
53773.731,25979.3401,52219.525,39740.1899,34780.7407,37055.254,5041.4354,49429.0441,44220.2836,55175.9452,-1893.2372,-2443.6712,23699.1495
53776.5473,25984.1233,52223.2354,39743.2297,34779.3996,37055.8798,5043.4023,49434.498,44216.6179,55177.0627,-1894.3548,-2446.577,23698.1213
53762.6892,25981.7988,52222.8777,39736.3007,34758.2549,37054.0023,5041.033,49410.4922,44205.0844,55169.7314,-1908.794,-2459.0939,23695.2156
53752.7204,25984.7492,52230.5667,39725.3931,34739.7476,37057.7574,5041.1671,49407.6312,44203.2963,55171.1619,-1919.2547,-2462.402,23696.1544
53765.6844,25990.5607,52232.8019,39736.4348,34765.4521,37062.8089,5047.828,49429.9829,44216.0368,55175.9005,-1904.6813,-2449.3039,23699.1495
53790.9865,25998.3391,52235.6182,39747.3872,34790.2626,37067.771,5052.7453,49444.8692,44235.2593,55182.1142,-1886.5764,-2433.2106,23704.3351
53793.7582,26004.6422,52236.5123,39743.2297,34784.9429,37070.3191,5051.5383,49452.3346,44239.0591,55180.5496,-1888.9457,-2437.2339,23701.1611
53771.9876,25993.377,52228.421,39723.0238,34759.0595,37060.0373,5043.4023,49428.5971,44215.5004,55172.0113,-1912.2362,-2458.2893,23694.4556
53760.9905,25984.1681,52225.4705,39719.7157,34742.9216,37054.2705,5042.3741,49411.3415,44204.0116,55164.054,-1921.6686,-2463.4749,23694.098
53773.4628,25988.0573,52223.9506,39730.8022,34762.5464,37056.908,5043.1341,49428.7759,44208.3925,55169.9996,-1913.4432,-2457.9763,23696.1544
53785.1304,25985.7327,52222.3413,39737.7312,34780.6513,37054.6281,5039.379,49444.8245,44220.9095,55185.5117,-1903.1167,-2448.0522,23699.9094
53777.0391,25975.585,52222.6989,39735.5407,34773.8564,37053.9576,5036.8756,49439.9518,44220.2389,55180.9072,-1905.1284,-2450.4215,23697.6296
53752.4968,25965.5714,52220.1061,39719.2687,34752.0411,37047.4309,5034.6404,49423.188,44205.5315,55168.6138,-1918.8076,-2464.816,23694.098
53742.7068,25960.7434,52216.3063,39710.5515,34745.6932,37044.4804,5033.5228,49413.085,44192.0757,55162.4447,-1925.2449,-2471.298,23689.5382
53755.0449,25960.3858,52213.1771,39718.7322,34763.664,37042.6476,5035.2216,49418.9411,44203.9669,55164.0093,-1911.6551,-2461.3738,23688.8677
53770.8253,25972.0087,52218.4074,39736.1666,34788.2956,37055.5222,5046.621,49445.6738,44224.6199,55176.3922,-1891.2703,-2442.643,23694.6791
53781.7329,25977.8202,52221.8496,39743.945,34781.5454,37067.6368,5049.8396,49458.7272,44228.9114,55179.2532,-1889.7504,-2439.0668,23698.0766
53764.9244,25973.6627,52217.0663,39734.5126,34757.8973,37058.6962,5043.6258,49446.0315,44214.5169,55169.329,-1908.2576,-2458.8704,23691.684
53752.9886,25968.9689,52219.2121,39727.4494,34746.2744,37057.8021,5043.3576,49433.9168,44208.8395,55167.8538,-1920.0593,-2469.9569,23690.3429
53771.1829,25979.9212,52226.454,39735.3172,34763.0382,37067.2792,5046.1292,49453.4969,44219.1213,55176.6604,-1908.6599,-2458.781,23691.9969
53782.2247,25982.3799,52226.3199,39736.1219,34780.4725,37068.5309,5044.7434,49477.2792,44232.5324,55184.0365,-1899.0934,-2447.8287,23697.2719
53786.5162,25984.1681,52226.8116,39739.43,34780.5619,37063.0771,5048.8114,49478.9779,44230.9231,55184.9306,-1893.5055,-2443.3136,23698.926
53771.9876,25981.2623,52227.0352,39727.0471,34756.1091,37053.287,5047.068,49447.9984,44214.3381,55179.0297,-1911.3421,-2459.0939,23692.7569
53758.4871,25977.4625,52225.3364,39721.1015,34738.0489,37051.5883,5044.5199,49423.4562,44206.4703,55173.9782,-1920.7299,-2466.7829,23691.5499
53765.1032,25981.4858,52223.0119,39727.0471,34752.3093,37051.633,5040.4519,49433.2016,44211.1194,55174.0676,-1914.6055,-2455.8753,23695.4838
53777.5308,25989.6219,52225.6941,39734.1549,34771.6659,37052.8847,5041.033,49458.2802,44226.2292,55178.538,-1901.4627,-2446.8005,23700.7588
53782.9399,25988.5043,52228.7786,39731.5621,34773.9458,37054.2705,5042.3741,49459.5766,44230.9678,55181.3096,-1902.9379,-2449.0356,23702.8599
53775.9662,25987.6996,52228.0633,39728.2541,34758.7019,37052.1694,5044.2517,49437.9401,44219.166,55175.0511,-1911.4763,-2454.5789,23697.6296
53769.0371,25984.5257,52226.7222,39717.5699,34738.1383,37052.6612,5045.0563,49425.602,44207.4537,55167.3621,-1921.311,-2460.7927,23693.6063
53782.0011,25987.9678,52229.3597,39727.2706,34756.0197,37064.0159,5046.8445,49443.1704,44219.9707,55172.1901,-1910.5822,-2450.6003,23696.959
53808.9573,25997.8026,52233.6066,39746.0461,34786.5522,37079.1256,5052.9689,49469.7243,44233.6947,55182.3825,-1893.5949,-2433.5235,23707.1961
53810.7008,25993.4664,52229.9409,39750.3823,34793.3024,37082.7019,5050.1525,49461.5436,44232.3983,55185.2882,-1890.6444,-2433.3,23708.9843
53790.1372,25985.8221,52227.8845,39739.8323,34774.6611,37078.9021,5046.5316,49443.9751,44215.5004,55182.5166,-1901.7309,-2446.8005,23702.2787
53777.5755,25985.375,52227.3928,39732.7691,34752.0411,37078.2316,5045.3693,49438.8342,44206.1126,55179.0297,-1910.1351,-2452.5225,23700.3118
53791.7465,25994.3604,52231.3267,39744.4367,34757.8973,37086.904,5047.8727,49460.3366,44209.9124,55183.2765,-1898.7358,-2441.4361,23704.648
53807.795,26006.1622,52235.8865,39755.6573,34786.5522,37094.0119,5055.3381,49483.2247,44219.8813,55190.742,-1882.8213,-2427.4439,23712.2029
53802.7883,26000.4401,52233.6066,39757.0878,34787.5357,37088.7816,5055.1593,49481.8836,44219.2554,55187.5681,-1885.0565,-2423.6441,23711.8006
53775.0274,25975.6744,52225.247,39739.1617,34761.6971,37073.8059,5044.9222,49452.9605,44202.4022,55173.4418,-1903.4743,-2444.1183,23700.0883
53763.0469,25967.6725,52221.4472,39722.7556,34741.2676,37066.9216,5040.7648,49429.8041,44192.031,55163.9199,-1916.0807,-2455.0259,23694.6791
53774.5804,25973.7968,52223.4589,39726.8236,34756.3326,37065.044,5042.6871,49436.0626,44197.3507,55164.7246,-1912.2362,-2450.0638,23698.926
53785.7562,25986.8503,52223.2354,39732.7244,34776.628,37067.5027,5046.9339,49451.8876,44210.5383,55177.8674,-1901.3733,-2443.85,23701.9211
53776.2791,25988.549,52223.6377,39728.3435,34776.181,37056.461,5045.5034,49448.5795,44195.5626,55172.0113,-1909.8669,-2451.9861,23696.5567
53749.4123,25984.3469,52221.3578,39716.5418,34749.7165,37046.805,5043.4917,49416.0801,44174.4626,55166.6021,-1926.139,-2467.0511,23689.4041
53725.943,25975.9426,52215.904,39703.8907,34734.0703,37039.6525,5042.3741,49391.9402,44161.1409,55158.8237,-1933.1574,-2474.3825,23684.7997
53735.5095,25979.3401,52216.5298,39713.3231,34750.7,37040.8148,5046.3974,49403.6525,44167.5335,55161.3718,-1920.3275,-2464.3689,23689.6276
53744.182,25982.2458,52214.8311,39718.5087,34769.6096,37042.737,5049.0797,49416.393,44175.8037,55168.5691,-1902.6697,-2453.059,23695.2156
53729.6981,25981.5753,52213.8029,39719.4922,34767.2403,37038.8925,5049.1691,49408.5699,44170.5287,55170.7596,-1908.4811,-2456.3223,23695.0368
53709.2686,25980.0106,52212.4618,39709.9257,34749.6271,37032.0529,5046.1739,49372.673,44147.0593,55160.1201,-1929.4471,-2473.3096,23691.1476
53695.9916,25982.9611,52215.4123,39701.9237,34737.0207,37029.3707,5050.1078,49347.3709,44136.1964,55155.2474,-1931.8163,-2476.3942,23690.3429
53716.1976,25995.2545,52223.5483,39716.4077,34759.2384,37037.3726,5061.686,49368.5603,44138.9233,55161.5059,-1918.897,-2458.2446,23697.2719
53735.4201,26003.9717,52222.0731,39725.5272,34779.6679,37042.8264,5066.3352,49384.9218,44142.6337,55165.7528,-1903.7426,-2446.1299,23699.1942
53737.4765,26004.5081,52221.626,39726.6001,34789.5473,37042.6476,5064.2341,49371.779,44143.9301,55162.0871,-1900.3451,-2451.2708,23695.3497
53714.2754,25996.9085,52216.0828,39715.4689,34764.5581,37030.2647,5057.9756,49336.642,44124.9758,55149.0784,-1922.518,-2471.4768,23685.962
53697.1092,25993.7346,52212.4618,39708.8975,34743.3686,37028.7448,5056.5898,49313.3515,44110.5366,55141.3447,-1936.0632,-2481.8033,23682.6539
53716.5552,26003.7482,52208.7961,39718.0617,34756.735,37036.4338,5057.0369,49316.3913,44116.348,55144.7421,-1920.1487,-2469.7781,23682.6986
53733.632,26007.7268,52201.5989,39725.4825,34773.6329,37039.5631,5056.2769,49326.2261,44118.7173,55136.8296,-1907.9894,-2461.0162,23680.3293
53727.9546,26001.513,52203.5658,39728.7011,34769.8778,37036.8809,5053.0583,49316.5702,44111.6095,55140.4506,-1907.7659,-2462.0444,23682.4751
53704.2618,25988.1467,52203.4317,39722.4873,34743.0557,37032.187,5046.9786,49292.1174,44093.0128,55137.9472,-1923.9038,-2474.3378,23682.6986
53692.013,25983.8998,52205.5775,39718.2852,34726.9624,37025.6603,5044.1176,49266.7258,44081.971,55129.8559,-1929.1788,-2482.7421,23679.5694
53702.0713,25990.0689,52208.662,39721.8168,34736.3055,37029.9965,5044.3858,49277.0523,44086.8884,55132.6722,-1916.5277,-2475.6789,23683.1456
53714.0965,25997.3556,52209.422,39731.7857,34749.6718,37040.0548,5049.2138,49306.7354,44110.7154,55140.0036,-1902.1779,-2461.7314,23688.1077
53705.6923,25992.9299,52205.4881,39724.7672,34743.771,37033.7963,5045.5928,49294.1737,44112.7717,55139.1989,-1910.6716,-2462.5361,23686.0514
53698.0927,25989.9795,52204.2364,39712.8314,34727.3648,37027.806,5046.7551,49266.8599,44094.6668,55136.025,-1925.6026,-2477.2435,23683.9056
53685.7098,25980.7259,52204.6834,39706.1706,34704.5213,37019.8041,5044.3858,49247.995,44086.6202,55131.644,-1934.3644,-2484.4408,23681.3128
53695.4105,25983.9445,52208.9303,39710.2833,34719.944,37016.1831,5044.5199,49265.7423,44098.5113,55141.5682,-1926.0943,-2474.159,23686.409
53717.4046,25990.5607,52215.2781,39715.5136,34735.5455,37021.0558,5049.8843,49287.7811,44107.4967,55151.3135,-1912.3703,-2460.1668,23694.4556
53720.3103,25979.5636,52211.7019,39707.0646,34729.0635,37018.4183,5047.2468,49280.9862,44102.4005,55145.3233,-1914.4714,-2462.5361,23693.2039
53709.7156,25967.9407,52208.215,39691.9101,34705.1471,37006.6613,5041.1671,49245.0893,44089.1683,55135.5332,-1930.207,-2477.02,23687.2584
53705.737,25968.0301,52211.0313,39691.4631,34703.0014,37008.2706,5041.4354,49228.0573,44084.0721,55129.0512,-1934.8562,-2482.4739,23684.7103
53722.0985,25975.1379,52211.7913,39705.9023,34724.4591,37019.8041,5045.0563,49241.9153,44095.6056,55136.7402,-1915.8125,-2467.4982,23686.6325
53729.5192,25976.792,52207.5891,39709.7915,34740.9546,37019.3124,5042.6424,49248.9785,44105.9768,55138.0366,-1909.9116,-2464.7713,23685.3361
53729.8322,25968.2983,52205.5328,39707.6905,34737.4231,37015.7808,5042.4635,49240.8872,44104.9486,55141.0764,-1912.9515,-2469.0628,23682.3857
53711.3249,25951.758,52197.1732,39694.5477,34708.5893,37000.984,5034.7745,49207.8513,44084.6086,55123.3292,-1930.5646,-2486.676,23672.5956
53689.7331,25934.5472,52185.5503,39674.4311,34674.7488,36989.674,5022.2576,49183.9796,44068.5153,55111.0804,-1949.8318,-2504.8256,23662.1797
53696.7516,25936.5588,52185.595,39681.6283,34690.9761,36994.8596,5018.9048,49198.1506,44071.1081,55115.2825,-1937.2702,-2492.4874,23670.0922
53722.0091,25944.5608,52185.2821,39701.2085,34719.6758,37001.7886,5022.034,49225.6433,44092.2081,55125.6537,-1919.8805,-2474.2037,23677.066
53719.7292,25944.9184,52180.7671,39695.2629,34716.8595,36999.2852,5020.9612,49222.2905,44091.0012,55132.7169,-1925.379,-2476.1707,23674.5626
53697.601,25943.3091,52176.9226,39683.8635,34694.2395,36994.189,5021.4082,49205.6608,44085.145,55130.9288,-1941.2935,-2486.4525,23672.685
53681.9547,25938.794,52177.0567,39678.1862,34680.6943,36992.7138,5021.0506,49210.8464,44081.7922,55123.0162,-1947.552,-2498.433,23669.7793
53693.9353,25934.1002,52180.1412,39682.433,34700.8556,36993.9208,5025.4762,49230.7395,44088.8554,55126.369,-1934.2303,-2490.9675,23677.1554
53713.8283,25933.4743,52185.4162,39693.5195,34725.2637,36999.6876,5028.6055,49253.0912,44103.2946,55140.0483,-1916.3489,-2473.9355,23686.6325
53709.9391,25926.1876,52184.5222,39693.8324,34725.9343,36991.0598,5030.483,49252.1971,44101.0147,55134.9968,-1922.518,-2474.3825,23683.3692
53683.43,25914.3412,52183.0916,39686.501,34707.1588,36985.0695,5030.6618,49217.2837,44088.4084,55126.9054,-1934.4091,-2487.5253,23678.0494
53669.3931,25905.4005,52182.1529,39677.0686,34686.5952,36979.6604,5027.4432,49196.2731,44082.2393,55124.0444,-1941.6064,-2496.8237,23674.8308
53689.8226,25910.4073,52178.6213,39688.3339,34693.9713,36988.8246,5025.208,49216.5685,44088.766,55119.887,-1933.2916,-2490.5205,23670.1369
53712.9343,25923.416,52179.1577,39704.4271,34719.944,36998.1229,5028.5161,49241.7365,44098.8243,55123.5974,-1917.6006,-2473.2649,23676.306
53711.1908,25930.4345,52181.2141,39702.5049,34720.9275,37001.0734,5031.1089,49241.8259,44102.8476,55131.197,-1921.4898,-2471.8791,23681.0446
53695.9916,25929.1828,52180.7671,39687.8868,34695.67,37001.5651,5028.2031,49229.6666,44092.3423,55126.9501,-1935.3926,-2485.9607,23678.1389
53689.9567,25924.9359,52183.7175,39689.5409,34691.1997,37001.7886,5032.0029,49229.3984,44094.7115,55130.2582,-1939.0136,-2491.8616,23678.1389
53701.669,25924.2654,52179.5154,39695.7099,34699.5592,36997.9441,5030.6618,49239.7249,44104.3228,55128.6936,-1934.588,-2484.8431,23674.9202
53714.5436,25933.7425,52179.0236,39698.6604,34720.9275,37005.0073,5030.1254,49265.7423,44110.4919,55131.5099,-1924.5744,-2472.3262,23678.72
53713.4707,25935.1283,52177.1908,39702.3708,34721.8215,37006.3037,5025.4762,49275.7112,44114.7834,55134.1921,-1921.6686,-2466.2465,23680.0164
53701.7584,25933.6531,52173.9721,39692.7148,34696.2065,37006.3484,5017.6978,49254.9241,44093.5493,55123.9997,-1942.9475,-2486.8101,23671.0757
53684.7264,25927.1711,52167.0878,39681.8966,34678.7721,37004.6943,5009.6065,49238.4285,44081.9263,55115.9531,-1953.8105,-2502.4116,23666.203
53700.6408,25929.451,52165.7914,39690.8373,34702.0179,37019.3124,5011.797,49265.9211,44093.7281,55120.4234,-1936.6443,-2488.8217,23667.8571
53721.6067,25935.7095,52168.2948,39701.7449,34723.565,37028.9236,5015.1944,49290.4633,44115.9904,55127.9783,-1924.2167,-2475.5895,23670.6734
53722.3667,25935.933,52168.4736,39701.6555,34723.0732,37028.3425,5012.5569,49291.9385,44109.1955,55122.1222,-1928.0165,-2486.7207,23669.4217
53705.3347,25926.8582,52169.9935,39697.051,34701.1685,37021.3687,5012.2887,49269.408,44105.6639,55119.5741,-1938.6113,-2491.3251,23667.5888
53698.5844,25923.7289,52166.1043,39687.6633,34688.1151,37018.9101,5010.4111,49256.1311,44096.455,55113.5391,-1948.9378,-2494.4097,23661.5986
53712.1296,25931.4626,52169.3677,39691.6866,34706.2647,37019.7147,5013.0039,49287.0659,44113.1741,55130.4817,-1936.5549,-2483.3232,23667.9912
53731.3968,25942.8173,52172.5863,39699.8674,34724.3696,37025.6603,5015.5967,49312.0551,44127.3004,55138.2154,-1922.0263,-2471.6109,23672.1039
53726.7029,25947.4218,52178.0401,39703.5331,34734.2044,37028.2978,5018.1001,49313.888,44123.0536,55131.5099,-1922.7862,-2474.6507,23668.8405
53710.3862,25943.5326,52179.426,39697.9451,34720.1228,37020.7876,5017.9213,49290.7315,44116.661,55126.369,-1939.9524,-2486.7654,23663.7443
53706.2734,25944.2031,52180.6329,39688.7362,34703.5825,37019.223,5020.5141,49282.8637,44108.7931,55129.7218,-1950.1448,-2488.9112,23669.2876
53720.2209,25951.758,52186.4444,39696.157,34720.6593,37022.1287,5025.2527,49309.9988,44120.8184,55140.093,-1937.8066,-2478.6741,23673.892
53737.1188,25966.2867,52191.3618,39710.1045,34754.9021,37028.2978,5033.2099,49332.0823,44143.9301,55156.9015,-1914.4714,-2465.4865,23679.9717
53738.6835,25974.0651,52193.4628,39709.3445,34757.942,37029.1919,5037.5909,49330.3388,44147.2381,55163.0706,-1911.968,-2461.3291,23682.8327
53727.2394,25971.6064,52193.8205,39699.5991,34735.2773,37024.9003,5038.1273,49308.3447,44136.107,55155.7392,-1926.139,-2469.9569,23682.7433
53715.2588,25966.8231,52188.8137,39689.3173,34717.977,37018.5524,5034.9087,49290.9104,44132.1284,55144.2951,-1934.5433,-2480.7751,23678.9882
53728.357,25965.5267,52188.4561,39692.6254,34731.8351,37024.4533,5035.0428,49300.2534,44136.3305,55147.2008,-1930.2517,-2477.3329,23677.2448
53739.9799,25961.7716,52188.0984,39693.8324,34744.1286,37022.531,5030.3042,49315.5867,44138.1186,55148.5419,-1926.3178,-2475.0978,23677.2895
53737.5212,25961.5034,52187.6514,39689.6303,34738.3618,37019.5359,5027.5773,49311.8316,44136.0623,55140.3165,-1932.8445,-2477.78,23675.9931
53723.2161,25962.4869,52188.9925,39683.6847,34720.1675,37015.6467,5031.7347,49305.6625,44129.625,55145.9491,-1940.5335,-2484.709,23673.6238
53708.0169,25960.7881,52187.9196,39677.6497,34710.9586,37012.6516,5031.5112,49293.4138,44122.8747,55145.6809,-1947.8202,-2491.0569,23668.4382
53719.148,25965.929,52185.4609,39683.8635,34732.3716,37014.7973,5030.5277,49306.1095,44125.1099,55146.0832,-1941.964,-2484.3514,23667.3206
53744.0479,25976.6579,52188.8137,39699.5991,34762.0547,37023.7827,5033.2993,49327.299,44139.8621,55152.1629,-1920.7299,-2465.6653,23672.7297
53740.6504,25978.8036,52196.5027,39704.2036,34762.0547,37034.288,5039.9601,49325.4215,44150.2333,55154.8451,-1916.9748,-2457.8422,23679.2564
53722.3667,25973.9757,52196.1898,39691.6866,34741.1335,37031.1141,5039.8707,49306.9589,44139.1915,55149.7489,-1928.3742,-2472.6838,23677.4683
53721.6067,25974.1098,52196.6368,39696.0229,34732.5504,37036.0762,5040.9436,49298.0629,44127.211,55149.6148,-1928.1954,-2477.78,23679.6141
53736.3142,25980.8153,52197.665,39707.154,34747.7943,37042.3794,5045.414,49315.0055,44141.7396,55151.0006,-1916.6172,-2468.7946,23686.9901
53756.3413,25990.6501,52207.0527,39721.0568,34770.2354,37048.8614,5051.0466,49340.263,44161.0515,55159.8519,-1904.5919,-2453.2825,23695.3497
53754.4191,25991.1418,52206.4269,39720.7886,34770.5036,37046.9391,5050.1525,49341.4253,44156.8047,55159.539,-1909.8222,-2462.3126,23692.0416
53734.7496,25988.9513,52202.4482,39709.2551,34752.8905,37040.5912,5048.3644,49331.3223,44140.3091,55150.0618,-1923.5015,-2476.9753,23685.7384
53721.9197,25983.6316,52204.6387,39705.8576,34740.0159,37043.3629,5050.4655,49317.1066,44129.8932,55145.9938,-1931.8163,-2480.5516,23684.2632
53727.3735,25986.1797,52203.2082,39714.3513,34750.9682,37046.0451,5052.1195,49328.9083,44141.3373,55154.6216,-1919.2994,-2467.3194,23687.3478
53734.1684,25988.6384,52199.766,39717.5252,34768.5367,37043.9887,5049.2585,49342.5429,44148.2216,55154.711,-1911.1186,-2459.228,23684.755
53739.4881,25981.62,52199.9896,39726.8236,34766.1674,37043.0499,5048.2303,49336.0162,44148.5792,55149.5701,-1908.4811,-2459.8986,23683.4139
53724.6913,25973.7521,52198.2461,39717.7488,34747.0343,37039.3395,5047.8727,49315.7655,44137.4481,55138.9754,-1924.3509,-2476.3048,23677.8259
53715.08,25970.8017,52197.2179,39707.154,34735.4114,37035.4503,5041.8824,49301.9074,44128.105,55138.3942,-1937.5384,-2484.4855,23672.3274
53735.4648,25976.3002,52198.9614,39714.3066,34749.7165,37036.9256,5042.7765,49319.2077,44130.6084,55145.7703,-1925.5579,-2474.2931,23675.5461
53751.6028,25980.86,52202.6718,39724.6331,34769.6096,37044.5251,5046.4422,49341.8276,44147.104,55148.676,-1910.4481,-2460.5244,23678.5412
53755.0002,25980.1894,52208.3491,39727.8965,34768.2685,37049.2637,5048.4985,49341.4253,44149.2498,55151.2688,-1908.794,-2455.0706,23680.687
53739.2199,25978.1331,52210.8972,39713.5913,34747.4813,37042.4688,5047.068,49335.1668,44140.175,55148.8101,-1923.0545,-2467.677,23680.1952
53735.5095,25981.4411,52216.2169,39710.1492,34734.9644,37042.1112,5053.4159,49334.1386,44139.1468,55152.2523,-1930.9223,-2473.399,23684.0844
53755.3579,25992.3041,52219.6144,39728.7011,34753.5163,37056.461,5058.9591,49347.1026,44157.8329,55160.6566,-1916.7066,-2458.1999,23691.684
53773.4181,26004.0164,52223.1013,39742.4698,34787.7145,37067.4133,5060.2555,49368.0686,44169.0087,55162.5788,-1893.9525,-2440.8996,23698.7919
53777.0838,26005.9834,52223.9059,39741.1734,34785.524,37062.0489,5059.1379,49362.6595,44169.9922,55166.9598,-1896.0536,-2441.749,23699.5965
53763.9409,26003.0329,52224.8894,39729.014,34757.5396,37051.7671,5059.2273,49350.2319,44166.103,55170.6702,-1915.1419,-2456.0988,23698.4789
53754.6873,26005.7151,52222.5648,39722.3532,34747.2578,37051.0966,5059.7191,49334.988,44156.6259,55164.9034,-1920.2828,-2461.9997,23696.6908
53771.317,26015.237,52224.5318,39736.5242,34772.9623,37054.8964,5061.1496,49347.2815,44165.2983,55170.1784,-1904.9942,-2450.2426,23696.6014
53787.9914,26019.2156,52222.7436,39745.7778,34797.7281,37057.8021,5061.3284,49372.5836,44179.6482,55175.6322,-1897.3947,-2437.9492,23698.166
53784.6833,26014.5664,52221.6707,39743.0062,34783.4677,37048.8167,5057.2604,49369.9908,44174.9096,55172.2795,-1901.105,-2443.1348,23698.166
53771.7193,26004.7317,52220.6873,39727.8965,34753.7398,37042.1559,5053.7735,49350.1872,44164.0466,55160.8801,-1914.6949,-2462.2232,23693.5169
53764.7456,25998.6967,52216.6193,39715.9606,34740.2394,37036.7914,5050.0631,49336.5526,44155.0612,55155.5604,-1927.5695,-2473.0861,23687.7054
53769.3948,26000.1272,52214.6523,39718.8216,34754.6339,37040.6806,5049.929,49345.3592,44155.553,55156.3203,-1921.4451,-2467.0064,23688.7783
53778.8719,26001.9153,52214.9652,39723.5155,34774.1246,37044.5251,5051.2254,49364.8499,44164.7172,55159.7625,-1910.5822,-2455.2941,23689.8512
53781.5541,26007.0562,52218.1392,39727.3153,34779.9361,37044.4804,5054.4441,49372.5836,44176.4742,55168.2115,-1906.9165,-2453.7295,23694.2321
53769.2159,25999.0543,52221.4919,39717.4805,34765.6757,37037.8643,5051.6278,49353.3611,44174.2837,55169.2843,-1918.8523,-2459.7198,23693.7851
53757.4589,25987.6102,52220.5085,39705.8129,34750.3871,37033.8857,5051.9407,49331.4117,44173.2556,55165.5293,-1933.7833,-2467.8558,23691.0135
53759.9176,25989.4878,52218.3627,39714.843,34760.803,37035.1821,5052.0301,49343.3475,44178.1282,55171.5195,-1922.7415,-2455.2047,23694.7685
53774.3121,26001.0213,52221.5813,39731.4727,34786.3287,37048.7273,5054.9805,49369.5885,44193.238,55187.0316,-1902.4462,-2439.4244,23701.027
53777.0838,26004.9552,52221.6707,39736.9713,34783.2888,37054.2258,5058.5568,49379.155,44192.9251,55184.3494,-1894.3548,-2436.2952,23703.3069
53762.9575,25997.7579,52221.2237,39726.7342,34758.7466,37045.7768,5058.1992,49357.295,44181.3022,55176.2581,-1906.9612,-2452.1202,23698.613
53755.179,25997.1768,52223.146,39727.807,34745.425,37048.1908,5060.032,49344.4651,44176.0719,55173.0841,-1912.2809,-2458.5128,23696.9143
53771.0935,25996.9085,52225.0235,39728.0306,34761.0265,37051.7224,5061.8201,49364.4476,44185.9514,55178.3592,-1903.5637,-2449.6615,23700.2671
53784.9516,25996.3274,52227.3481,39734.1549,34786.8651,37054.4046,5061.0155,49382.2396,44198.2448,55183.813,-1890.5997,-2439.9608,23706.5256
53780.0342,25996.5509,52227.9292,39735.3619,34789.0556,37055.2987,5060.032,49388.051,44194.4897,55181.2202,-1891.0468,-2440.4973,23704.5139
53761.3928,25991.1865,52225.4705,39720.878,34762.7699,37047.7438,5054.1759,49370.259,44175.446,55171.6983,-1903.4296,-2456.6799,23696.2438
53751.2451,25987.9678,52225.3364,39709.7915,34745.0674,37041.8876,5053.6841,49355.4622,44171.1992,55174.5147,-1911.0292,-2462.2232,23696.7802
53760.9011,25990.963,52224.8894,39716.4971,34758.9254,37045.2404,5053.9523,49359.0385,44177.7706,55176.6157,-1912.4597,-2457.0823,23697.5849
53773.0604,25992.6617,52225.5599,39726.0636,34771.7553,37047.1627,5050.7784,49380.3173,44193.3721,55181.2202,-1900.5239,-2447.9181,23697.8978
53779.2742,25994.0922,52228.5104,39733.3503,34776.1363,37045.4639,5052.7453,49387.2911,44194.8026,55183.2765,-1901.2392,-2450.2873,23695.9308
53761.5716,25978.2225,52223.0119,39719.8945,34755.3939,37036.0315,5045.5928,49367.9345,44176.966,55170.849,-1923.3227,-2467.7217,23687.0348
53744.2714,25974.5121,52219.8379,39708.0034,34739.7923,37034.601,5038.7084,49348.9355,44166.103,55164.4564,-1932.1293,-2473.8461,23683.8162
53758.8,25985.8221,52219.525,39726.6001,34757.8973,37045.598,5047.5597,49372.9413,44175.5801,55170.089,-1909.7328,-2455.4729,23693.1145
53767.8748,25986.0903,52215.7699,39731.0257,34775.5998,37043.2287,5047.068,49388.4534,44187.6501,55172.5477,-1900.0769,-2446.5322,23693.9192
53759.5153,25980.3683,52218.1839,39723.2026,34772.9623,37039.6525,5042.1059,49381.7031,44188.0971,55180.2367,-1907.4529,-2446.8005,23696.1097
53745.2549,25973.618,52217.6027,39718.5087,34758.7466,37041.0383,5044.9222,49367.7557,44175.8931,55177.1075,-1915.6337,-2457.8422,23692.8016
53734.7496,25965.1244,52212.2383,39711.4903,34740.0159,37039.116,5041.4354,49357.8762,44166.2818,55168.7479,-1929.2682,-2467.8558,23685.6043
53757.7271,25970.2206,52212.5959,39725.3484,34760.9818,37045.6874,5043.4917,49378.8868,44187.5607,55174.7829,-1916.4383,-2453.2825,23690.8793
53773.0604,25971.8299,52215.6358,39737.5524,34785.3899,37048.5038,5045.861,49395.3377,44201.0611,55184.8412,-1904.5472,-2441.4361,23695.9755
53767.9195,25970.8911,52213.6241,39737.0607,34778.9973,37047.0732,5042.0165,49392.432,44188.4547,55179.2979,-1906.4248,-2447.9628,23692.5334
53758.353,25967.5384,52213.2218,39721.638,34753.0246,37041.6194,5038.9767,49375.2211,44175.8931,55170.4913,-1919.8805,-2462.0444,23687.3925
53752.7651,25965.482,52215.8593,39715.4242,34739.3453,37046.1792,5041.3013,49356.2669,44173.7026,55169.1949,-1924.1273,-2464.2348,23686.2749
53766.489,25970.6229,52217.6921,39721.9956,34762.904,37051.7671,5043.1788,49375.1317,44186.6219,55172.7265,-1914.7396,-2453.3719,23691.5499
53770.2888,25970.3547,52217.2004,39729.1481,34775.5104,37052.5718,5041.9271,49399.0928,44199.2283,55177.6886,-1902.625,-2443.3136,23694.6344
53776.9943,25974.6462,52224.6659,39729.5058,34778.3715,37052.2141,5046.7551,49403.6525,44205.755,55184.4388,-1899.8981,-2443.8053,23696.6014
53770.557,25975.3168,52226.9011,39726.0189,34770.6378,37054.8517,5048.0515,49389.1686,44197.1272,55180.3261,-1909.7328,-2449.7956,23694.545
53756.6543,25972.411,52223.2801,39714.7983,34749.2248,37052.2141,5045.5928,49378.261,44184.0738,55180.3708,-1922.2945,-2461.4185,23693.6957
53768.5007,25975.2274,52221.3131,39717.7041,34765.5863,37055.1646,5046.3974,49394.4883,44192.6569,55180.1473,-1911.2527,-2455.6965,23693.5169
53794.5628,25987.0291,52227.1693,39729.9528,34793.4812,37057.4445,5051.4042,49416.0801,44208.3925,55190.742,-1890.6444,-2442.6877,23699.373
53800.5531,25988.1467,52228.8233,39726.7789,34784.9429,37051.8565,5047.2915,49415.2755,44205.2633,55195.5253,-1897.5735,-2445.8617,23697.4508
53783.5658,25985.7327,52226.2305,39716.9888,34762.3229,37047.7438,5042.1059,49395.4271,44199.7647,55186.6293,-1916.036,-2456.0094,23690.7899
53771.0488,25983.9892,52224.1294,39706.4388,34749.3142,37040.8595,5039.6025,49389.3921,44191.8969,55182.0695,-1927.7036,-2465.4418,23682.4304
53782.8952,25988.8619,52224.3977,39712.6526,34761.9206,37042.1112,5039.1108,49403.2949,44198.7365,55184.707,-1919.7911,-2462.2679,23684.755
53794.0264,25992.7511,52222.7436,39720.2969,34779.6232,37046.9391,5039.6919,49421.7128,44205.0844,55186.3164,-1909.4646,-2453.2825,23686.2749
53799.212,25994.7628,52226.3646,39723.0685,34786.0157,37052.393,5045.861,49422.9198,44201.9552,55186.5846,-1903.8767,-2448.0969,23690.2535
53783.3869,25989.2195,52223.8612,39713.4572,34761.8312,37042.3794,5041.793,49402.3114,44195.5626,55183.5001,-1920.1934,-2461.8208,23688.6889
53771.9876,25985.6433,52220.3296,39710.6856,34743.9051,37035.4056,5035.1322,49386.0841,44181.0787,55177.4651,-1930.5199,-2472.7285,23684.2632
53780.6153,25984.5257,52219.3909,39720.6992,34756.3773,37040.5912,5036.1156,49395.6953,44194.7132,55181.9354,-1916.1254,-2464.816,23685.0232
53792.4618,25986.7162,52221.626,39730.1316,34776.3598,37052.08,5039.6472,49417.1977,44206.0232,55194.6312,-1905.7542,-2446.8452,23691.0582
53787.5891,25985.8668,52218.3627,39721.5039,34767.732,37047.5203,5035.1322,49414.3814,44190.4664,55188.2833,-1912.5938,-2454.0871,23687.616
53768.5454,25973.0369,52214.1159,39705.1871,34739.4794,37034.8245,5028.3372,49401.7303,44177.5918,55177.331,-1929.3576,-2471.745,23681.9386
53762.1975,25967.4042,52213.0877,39706.2153,34732.4163,37029.9965,5028.1137,49390.9121,44179.8717,55170.9831,-1935.0797,-2479.7916,23676.7977
53766.2208,25967.9854,52210.0031,39707.0199,34744.5756,37032.0529,5028.3372,49398.0646,44192.1651,55167.1386,-1922.8756,-2472.7732,23674.8755
53780.7047,25973.618,52215.6358,39718.7322,34763.1723,37043.0052,5034.551,49419.8799,44211.2088,55184.3494,-1907.5871,-2455.0259,23681.9386
53784.8175,25973.7968,52214.0265,39722.7108,34757.942,37046.2686,5031.3771,49416.4824,44207.2302,55185.02,-1913.7114,-2463.0725,23679.7929
53761.214,25962.2633,52206.7845,39713.8149,34732.0139,37033.0811,5023.6881,49387.2464,44191.2264,55175.6769,-1929.4471,-2475.6789,23671.2992
53742.1256,25956.6754,52203.8788,39702.639,34709.6175,37030.3988,5020.1565,49369.2756,44178.0835,55167.1386,-1940.0418,-2484.3514,23666.1136
53752.0498,25956.139,52205.1752,39703.4436,34720.7487,37034.3328,5020.2012,49386.9334,44184.9679,55169.0161,-1929.8494,-2479.1211,23667.9018
53780.8836,25964.6326,52206.2033,39722.532,34751.907,37035.0927,5025.1633,49411.4757,44202.9834,55178.0909,-1913.3985,-2466.917,23672.6403
53779.0507,25963.6045,52203.5658,39715.7371,34748.733,37036.702,5023.1069,49413.2638,44196.0543,55174.6488,-1921.5345,-2473.1308,23670.3157
53756.2072,25958.3741,52200.3919,39705.1424,34730.5834,37034.1539,5021.587,49391.5826,44182.5092,55167.675,-1935.482,-2485.3349,23667.2759
53744.4502,25962.3975,52203.6999,39705.5447,34721.0169,37031.2929,5024.7163,49381.4796,44186.6219,55167.9432,-1937.8513,-2486.1842,23673.2215
53761.0352,25975.0038,52211.6572,39719.671,34742.4746,37041.0383,5033.344,49396.947,44201.6423,55178.3592,-1919.657,-2462.6255,23683.8609
53784.6833,25986.9844,52216.9322,39736.7477,34763.4852,37057.5786,5039.379,49421.0869,44212.7734,55182.0248,-1905.0837,-2452.2543,23687.6607
53775.1168,25983.5869,52215.8593,39736.0772,34753.9634,37050.6495,5035.6686,49414.6943,44202.0893,55174.6041,-1908.2576,-2460.6138,23681.5363
53765.1479,25974.825,52216.3957,39721.6827,34728.1694,37042.8711,5028.5161,49402.9373,44188.3206,55169.4185,-1925.2449,-2476.0813,23677.0213
53762.2422,25966.5996,52212.1489,39712.5632,34712.8361,37040.4571,5022.794,49384.7877,44178.7988,55169.2396,-1938.1642,-2487.3018,23674.9202
53776.6814,25969.2818,52209.6008,39718.1958,34728.84,37047.7438,5023.1963,49402.222,44184.6997,55167.8985,-1930.3411,-2481.9821,23677.4683
53787.5891,25974.7803,52212.5959,39726.913,34751.5494,37052.7059,5025.6103,49424.1714,44198.7813,55174.4699,-1918.0924,-2469.0181,23680.3293
53784.2363,25973.7968,52217.1557,39729.9528,34750.1636,37045.151,5026.0127,49424.1267,44200.7035,55174.8723,-1916.8407,-2463.6537,23680.9105
53760.5435,25959.3576,52214.8311,39714.9324,34724.6826,37033.5281,5022.347,49398.154,44187.8736,55167.9879,-1932.174,-2476.1707,23675.2778
53752.4074,25954.9767,52214.697,39709.9257,34717.5747,37034.1986,5024.2245,49379.5574,44184.6997,55166.021,-1938.8795,-2479.3446,23677.1107
53768.1878,25961.2799,52211.4336,39720.4757,34742.0275,37039.2501,5029.9913,49399.0928,44191.584,55169.642,-1922.7862,-2467.5876,23683.5927
53776.5473,25968.2089,52212.6853,39732.5009,34772.0683,37042.0218,5033.2099,49421.5339,44199.1836,55180.1473,-1902.8932,-2454.7577,23692.0863
53777.6202,25976.8814,52218.4521,39742.3357,34782.1265,37048.9061,5039.0214,49435.1685,44207.409,55188.5962,-1899.1828,-2451.9414,23693.338
53770.9594,25976.6579,52223.1013,39736.4348,34759.4619,37051.4095,5044.8775,49421.8469,44202.0893,55178.8509,-1917.9136,-2461.5079,23689.8512
53757.5036,25975.5403,52226.2752,39728.4776,34744.4415,37049.8449,5046.308,49420.9975,44203.6539,55176.7498,-1927.7483,-2470.9404,23688.1971
53774.0886,25980.413,52225.247,39734.1549,34758.5678,37055.701,5049.8396,49430.3405,44213.0417,55184.6623,-1915.7678,-2457.3952,23689.5382
53796.0827,25984.0339,52222.3413,39740.6369,34782.3501,37056.1928,5048.6326,49451.3512,44226.4527,55183.4106,-1907.0953,-2447.471,23692.9357
53784.8175,25982.7822,52219.7038,39737.3289,34777.5668,37053.7788,5044.8328,49449.3395,44223.1894,55175.8558,-1907.2741,-2452.8354,23689.5382
53771.0488,25974.6015,52218.0498,39724.5437,34754.2763,37046.805,5038.4849,49423.6797,44209.0183,55171.4301,-1920.3275,-2467.8558,23684.442
53758.5318,25967.9854,52217.2004,39711.982,34735.1432,37040.1442,5034.7298,49402.4903,44202.134,55175.9005,-1930.3858,-2478.3611,23679.7482
53768.6795,25970.31,52212.5065,39712.2055,34744.7097,37033.8857,5029.1866,49411.1627,44204.0116,55175.9005,-1930.0282,-2475.5001,23679.8376
53780.5706,25974.7803,52212.8642,39723.8731,34763.217,37038.1325,5024.448,49426.6748,44211.5217,55179.1638,-1917.1536,-2467.4088,23683.1903
53781.6882,25977.7755,52211.5231,39725.8848,34764.9604,37038.7137,5025.5209,49424.1267,44206.1126,55179.0744,-1920.3722,-2468.884,23680.687
53764.9244,25973.3051,52209.3773,39718.5087,34743.8157,37034.8692,5025.1186,49410.0004,44194.3556,55172.503,-1933.4257,-2476.8412,23677.2001
53750.1723,25965.8396,52209.1985,39711.8032,34727.186,37031.8294,5023.4646,49393.9519,44178.2176,55162.4447,-1937.7619,-2480.9092,23676.753
53769.6183,25968.9689,52211.4784,39722.8003,34738.183,37043.0499,5026.415,49404.9937,44188.0971,55161.9083,-1922.8756,-2471.7003,23680.5975
53788.4384,25979.9212,52217.2004,39738.8041,34769.2072,37057.5339,5033.2993,49425.9149,44204.1904,55170.4019,-1904.1896,-2456.1435,23689.5382
53787.7232,25980.1894,52218.4074,39738.7594,34770.1907,37053.8235,5030.6171,49427.1666,44207.409,55169.8655,-1901.5521,-2456.5011,23688.5101
53771.1382,25972.9475,52213.2665,39727.1812,34748.5095,37046.7156,5027.3538,49414.739,44194.4897,55160.746,-1916.7066,-2468.124,23681.3128
53761.6611,25965.8396,52211.2548,39719.7157,34732.908,37046.8497,5021.0506,49401.9538,44185.7278,55152.3864,-1929.0894,-2474.7401,23674.652
53773.0604,25968.4324,52212.9089,39722.8897,34738.943,37050.5601,5017.7872,49413.1744,44188.3653,55156.9015,-1925.5131,-2472.5497,23673.9367
53782.6717,25977.8649,52210.8972,39732.5903,34756.3326,37057.9362,5020.2459,49441.1141,44197.1719,55162.7129,-1914.8737,-2461.8655,23677.1554
53777.7543,25975.0932,52210.0031,39724.946,34749.7165,37057.355,5020.8718,49439.2812,44196.7249,55160.746,-1915.6784,-2466.6935,23676.9766
53760.3647,25970.757,52213.1771,39712.8314,34735.8137,37053.6447,5023.5093,49414.8284,44182.6433,55153.4146,-1929.1341,-2476.7071,23675.5908
53752.5862,25967.3148,52216.0828,39705.0083,34725.7107,37051.0519,5027.5326,49407.6759,44183.2244,55157.3485,-1936.1079,-2475.3213,23679.9717
53764.6562,25969.6394,52212.9089,39708.4951,34736.8866,37052.9741,5028.3819,49422.5621,44191.0028,55158.5555,-1925.9602,-2467.0511,23682.6092
53777.2626,25976.2108,52215.2781,39719.7604,34754.9021,37059.6349,5029.7678,49436.152,44197.7978,55164.7693,-1911.3868,-2455.3835,23685.962
53776.3238,25978.893,52219.972,39732.5903,34763.3511,37058.875,5036.6521,49432.8439,44189.3488,55164.5458,-1906.0224,-2450.6003,23687.4819
53762.6445,25979.3848,52224.7106,39728.9246,34748.0178,37054.4493,5046.0398,49415.0519,44176.4742,55160.9248,-1914.1138,-2459.228,23689.5382
53748.1606,25975.0038,52225.8729,39716.3182,34735.8137,37054.0917,5047.6491,49398.1987,44166.3265,55159.4496,-1923.4121,-2465.0842,23689.0912
53759.0235,25981.1282,52227.4822,39721.9062,34758.2102,37059.6796,5050.1078,49413.5767,44175.3119,55162.4,-1912.9515,-2457.3952,23690.924
53769.5289,25988.996,52228.3763,39730.8022,34784.1829,37057.8021,5054.0417,49425.0655,44182.688,55171.5195,-1901.0156,-2449.2145,23695.4391
53761.1246,25991.3206,52226.8116,39724.5437,34777.0303,37049.3084,5055.3381,49410.2687,44171.4227,55173.1735,-1904.7707,-2453.6401,23694.545
53737.1188,25986.2691,52224.3083,39709.0316,34750.8788,37035.2268,5052.8795,49378.9762,44148.0875,55161.0589,-1920.1934,-2467.3641,23687.5266
53720.355,25980.6365,52223.3248,39698.4816,34735.3667,37031.3823,5050.2867,49352.7353,44134.9,55158.2426,-1932.3081,-2473.2649,23683.9056
53735.0625,25992.7958,52222.7883,39704.2483,34749.4036,37033.5281,5050.6443,49357.8315,44144.1536,55164.0093,-1923.9038,-2464.6819,23685.0679
53743.6903,25993.2429,52222.9671,39709.4339,34765.9439,37028.4766,5047.6491,49375.3999,44144.5559,55159.0919,-1912.8621,-2458.6916,23685.9173
53734.2131,25989.8454,52223.9506,39712.0267,34768.0002,37027.2696,5050.7784,49366.1016,44135.5705,55155.8733,-1916.8854,-2461.2844,23685.5149
53714.2754,25990.0689,52219.6591,39698.3027,34747.839,37023.0675,5049.5267,49330.1153,44115.0963,55142.8199,-1935.9291,-2476.8412,23681.2681
53709.6709,25998.7861,52224.5318,39695.397,34733.7127,37030.3094,5056.8581,49316.2572,44113.2188,55150.7324,-1941.3382,-2476.2154,23685.202
53722.9478,26009.202,52229.3597,39714.6195,34753.1587,37042.5135,5063.8318,49320.6382,44125.6911,55161.953,-1916.483,-2459.6304,23695.0815
53735.6436,26017.8745,52227.661,39730.7575,34775.1975,37049.4425,5065.9776,49326.9861,44132.5754,55161.64,-1899.0934,-2448.1416,23699.1495
53732.7379,26012.4654,52225.4705,39732.7244,34765.9439,37045.8663,5066.1117,49318.6265,44134.4529,55157.8403,-1896.9029,-2451.2708,23697.6743
53721.3385,26006.5198,52224.7553,39729.2376,34753.3375,37041.4853,5065.2176,49294.4419,44120.8631,55153.9958,-1906.8271,-2461.4185,23694.9027
53711.459,26002.72,52225.6047,39721.3697,34739.6582,37038.8925,5063.9212,49277.3652,44106.7368,55146.262,-1916.6172,-2469.5992,23688.6442
53717.1364,26004.8211,52224.1741,39723.0238,34745.0227,37036.7467,5060.1214,49282.6402,44115.2751,55145.5915,-1906.1118,-2462.3573,23690.9688
53728.4911,26011.0348,52222.9671,39735.049,34755.2598,37037.7749,5059.4509,49296.1854,44122.9194,55148.1396,-1890.555,-2447.2475,23694.2768
53731.3521,26008.6209,52226.007,39738.7147,34754.0975,37039.9654,5061.239,49294.3525,44122.383,55156.3203,-1891.762,-2444.7888,23698.3448
53709.1345,25996.8191,52225.8729,39721.6827,34731.0305,37032.5893,5057.2157,49271.062,44113.4423,55146.3962,-1907.9894,-2459.8986,23695.752
53686.3357,25982.3799,52219.4803,39702.2367,34705.5048,37017.6584,5047.7386,49245.134,44099.9418,55138.3942,-1923.278,-2476.5283,23688.5101
53702.876,25984.481,52216.3957,39709.9704,34712.2997,37020.6088,5047.6491,49256.8016,44099.1372,55141.6576,-1915.4102,-2472.1473,23688.8677
53720.5786,25988.5937,52211.9254,39715.5583,34729.1082,37020.877,5044.9222,49273.1184,44106.6921,55142.7752,-1910.001,-2463.1619,23690.8793
53724.7807,25986.1797,52216.351,39714.7089,34728.84,37021.1899,5048.4091,49272.6713,44107.9885,55143.6245,-1912.5044,-2462.4467,23691.7734
53703.5912,25975.7191,52211.4784,39702.1472,34709.5281,37006.706,5043.1788,49250.0514,44096.8126,55126.3243,-1931.5928,-2477.1541,23683.1903
53692.8624,25967.6278,52209.1538,39689.2726,34692.4067,36993.1161,5034.551,49220.6812,44083.8486,55119.3058,-1948.5354,-2491.0122,23676.6189
53709.358,25971.7405,52210.0478,39697.9898,34703.8954,36998.57,5033.344,49227.1632,44096.6785,55127.6207,-1934.9903,-2480.4622,23679.927
53723.2161,25976.9261,52208.9303,39712.3843,34720.6146,37005.0073,5038.4849,49251.7054,44107.6308,55132.2699,-1916.9301,-2467.3641,23683.4139
53719.2822,25971.2487,52205.354,39706.7517,34716.5912,37002.5486,5032.6735,49245.6704,44102.6241,55128.6489,-1922.7415,-2470.3145,23679.5247
53704.4406,25974.5568,52206.8739,39696.2017,34695.6253,36995.2172,5028.9631,49223.4975,44088.8107,55125.162,-1938.4772,-2484.8878,23674.3838
53696.2152,25971.8299,52208.1256,39692.1784,34683.7789,36995.6195,5027.622,49209.3265,44082.284,55123.4186,-1943.2604,-2489.3582,23672.8191
53715.5271,25972.7687,52208.8856,39700.0015,34704.119,37004.6049,5033.4334,49227.7443,44093.7728,55130.7499,-1929.6706,-2478.3164,23680.687
53733.9449,25976.3002,52206.9633,39702.1919,34721.9557,37010.4164,5034.4616,49246.8327,44103.0711,55139.6906,-1915.4996,-2466.5594,23684.6209
53745.7466,25980.7259,52208.0809,39705.5447,34727.0966,37013.9927,5036.8756,49243.7929,44113.3082,55143.3116,-1910.4481,-2467.9452,23690.8793
53734.6154,25986.3585,52209.8243,39703.1754,34714.4008,37018.5971,5037.5462,49235.1204,44108.7484,55138.3495,-1919.21,-2479.434,23688.1524
53724.1101,25980.5918,52208.9303,39695.397,34702.152,37012.9645,5034.0146,49223.4528,44095.9632,55132.0463,-1934.9456,-2487.1677,23682.6092
53737.8341,25982.067,52210.8972,39703.9354,34716.9936,37016.3172,5037.0097,49236.998,44105.6192,55133.0298,-1928.6871,-2476.4389,23683.1009
53751.7816,25985.7774,52212.9983,39714.2172,34735.4114,37022.4416,5041.0777,49266.7705,44126.8086,55144.161,-1911.3421,-2463.9666,23689.3147
53749.7252,25982.9164,52218.0051,39718.9558,34738.6301,37020.3406,5044.6987,49276.5605,44134.2741,55152.6099,-1907.9,-2461.8655,23693.5616
53727.2841,25977.239,52215.2781,39709.2998,34720.0334,37012.6069,5044.3858,49255.7734,44119.9243,55139.2883,-1918.8523,-2474.0696,23686.9454
53721.2938,25979.4742,52216.351,39704.8742,34709.7516,37007.1977,5040.8095,49233.4217,44104.6804,55132.8957,-1924.8873,-2483.0997,23682.9668
53729.251,25975.2274,52213.8029,39702.5049,34720.4804,37011.2658,5037.2779,49239.5014,44108.972,55133.5216,-1916.036,-2477.0647,23684.3079
53746.2384,25975.1379,52216.0828,39717.3017,34744.0392,37015.4232,5039.7366,49265.0717,44118.3597,55139.5565,-1901.5521,-2464.5478,23687.4819
53754.8661,25982.8269,52217.111,39722.7556,34743.4133,37021.1452,5041.346,49267.4857,44123.9923,55145.2786,-1901.105,-2462.3573,23688.8677
53734.4366,25971.7405,52207.4997,39704.293,34716.9936,37008.5388,5032.1817,49243.6141,44100.0313,55134.2815,-1923.5015,-2483.4126,23677.4683
53725.5853,25967.7172,52207.6339,39705.5447,34703.5825,37011.3552,5035.4004,49237.6238,44098.8243,55132.2699,-1928.5977,-2482.1162,23679.1223
53733.5426,25968.0748,52210.4502,39713.1443,34710.5116,37015.5126,5036.6521,49249.4255,44116.3927,55138.2601,-1918.7629,-2471.4768,23687.7501
53743.0644,25973.8415,52214.0712,39721.9956,34735.0985,37015.3338,5036.8756,49270.4362,44134.0059,55146.9326,-1909.6881,-2460.8821,23692.444
53739.1305,25980.1447,52216.7981,39724.5884,34736.8866,37016.7196,5041.7483,49273.0737,44131.0108,55148.3631,-1906.6036,-2459.541,23694.6791
53728.2228,25976.9261,52216.6193,39713.949,34713.5067,37015.6467,5039.2449,49260.6014,44119.7902,55141.6576,-1918.0477,-2471.0745,23687.2137
53724.9148,25976.6579,52211.5678,39700.672,34702.0179,37013.948,5034.0593,49248.7103,44105.5298,55133.2533,-1935.4373,-2481.5798,23678.3624
53743.6008,25985.8668,52213.49,39705.7235,34724.5932,37025.2579,5036.9203,49266.2787,44112.7717,55134.818,-1929.5812,-2471.1639,23679.7035
53761.4375,25994.0922,52215.5017,39713.8149,34747.6155,37036.4338,5037.7697,49293.6373,44128.6862,55140.8976,-1911.0292,-2457.8869,23681.7151
53750.4852,25993.4664,52214.1606,39702.4602,34741.2676,37033.0811,5031.5559,49301.5945,44130.6531,55136.1591,-1912.5938,-2462.4914,23677.2448
53743.7797,25986.3138,52215.4123,39707.0199,34726.3366,37032.9916,5035.8027,49286.44,44125.1546,55126.1902,-1926.4966,-2468.9287,23673.5344
53738.6388,25978.4013,52216.0381,39704.6059,34721.0169,37037.462,5034.8639,49269.408,44121.5783,55129.4982,-1933.381,-2480.2387,23671.478
53740.2481,25977.7755,52213.1771,39707.467,34733.2209,37039.6525,5033.1205,49288.7646,44136.554,55133.9239,-1920.1487,-2473.8461,23672.1933
53759.56,25983.1846,52215.0546,39724.0967,34763.1723,37042.4241,5035.6686,49313.3068,44153.7201,55141.2106,-1907.0953,-2461.5526,23676.3507
53761.1246,25982.514,52218.0051,39726.3318,34769.1178,37045.3298,5039.3343,49310.8481,44151.7532,55143.8928,-1906.2907,-2465.9336,23679.9717
53747.1771,25975.3615,52216.8428,39714.2172,34743.9498,37040.7701,5035.6239,49290.821,44144.0642,55141.7917,-1918.5841,-2476.6624,23680.5081
53741.008,25973.9757,52216.3957,39709.9257,34726.873,37036.4785,5033.3887,49276.6052,44134.3188,55142.5517,-1927.4801,-2479.881,23678.72
53749.5911,25979.9212,52221.1343,39716.6312,34743.0557,37040.6806,5038.172,49290.1057,44151.0826,55152.5652,-1918.4947,-2464.9054,23686.5878
53769.6183,25983.6763,52219.7038,39724.499,34763.664,37038.8925,5039.9154,49307.6742,44161.7221,55159.2261,-1908.8835,-2451.852,23689.8512
53763.0469,25980.413,52219.1674,39722.0403,34756.9138,37033.6175,5038.7532,49319.163,44159.1293,55155.2922,-1907.2294,-2454.3107,23688.9571
53736.1354,25968.6112,52216.5745,39705.9023,34736.7972,37022.3522,5033.2099,49300.4322,44139.1468,55144.3398,-1927.8377,-2475.0531,23678.8541
53731.5756,25967.6278,52216.6193,39694.2794,34732.5504,37019.1783,5038.5743,49290.8657,44137.4481,55143.8034,-1935.0797,-2480.194,23678.4071
53743.5561,25975.3168,52215.8146,39696.604,34737.3784,37017.2113,5037.9932,49307.9871,44143.7066,55146.3515,-1924.2167,-2475.0978,23677.513
53753.2121,25983.1846,52212.8642,39700.6273,34753.2481,37018.8206,5041.5695,49318.2689,44162.482,55153.5487,-1912.8174,-2462.6702,23679.4353
53747.7136,25985.0174,52214.0712,39699.3756,34752.0858,37017.9713,5044.3858,49318.8053,44163.5996,55155.7392,-1916.5277,-2464.5478,23679.7035
53736.046,25978.8483,52214.0265,39689.4962,34723.2521,37016.7196,5041.7036,49301.1475,44139.9068,55151.5818,-1932.3528,-2476.6624,23678.1836
53728.804,25977.1049,52213.8476,39683.7741,34713.5067,37014.842,5040.6307,49289.1222,44132.1284,55147.9608,-1944.3333,-2485.6031,23675.7696
53741.7233,25983.1846,52208.9303,39685.8752,34729.6894,37018.1501,5039.1555,49311.1163,44144.8689,55150.0171,-1931.6375,-2474.2037,23677.8706
53756.7884,25986.7162,52206.1139,39693.296,34751.0576,37024.498,5037.9485,49332.127,44154.2119,55148.7207,-1914.6949,-2463.7878,23680.1952
53755.2685,25987.0738,52210.5843,39690.9714,34754.768,37019.9829,5040.7201,49333.0657,44161.7221,55160.2095,-1918.4053,-2463.0278,23684.442
53736.5824,25983.4081,52210.5843,39681.1366,34727.3201,37017.1219,5042.1506,49312.0551,44156.0447,55154.9792,-1933.2916,-2476.7518,23680.0164
53731.7097,25982.1117,52215.0099,39680.7343,34714.5349,37016.1831,5039.1108,49287.4682,44141.2926,55148.5866,-1941.3382,-2481.3563,23677.2895
53741.4551,25977.9096,52213.1771,39685.6517,34728.2588,37020.117,5037.0097,49307.4059,44152.692,55150.7324,-1932.7104,-2471.9238,23680.3293
53753.7932,25980.5471,52214.5629,39694.8606,34747.9284,37028.2978,5038.2614,49339.1901,44162.2138,55156.6333,-1922.4286,-2460.9715,23681.7151
53742.9303,25988.102,52214.3394,39699.0627,34751.8623,37028.9683,5038.2167,49338.9666,44154.6589,55156.0968,-1923.278,-2462.8043,23678.72
53719.9527,25979.3848,52210.4949,39688.5574,34729.7788,37020.6982,5034.6404,49307.8977,44140.5773,55147.2455,-1934.5433,-2475.0084,23671.4333
53717.4046,25979.2507,52212.1489,39684.6682,34722.0451,37019.223,5040.9436,49295.1572,44136.4646,55145.0551,-1943.171,-2478.8976,23669.9134
53730.5474,25977.999,52208.215,39687.4398,34737.0207,37023.3804,5039.4684,49299.4487,44150.725,55148.4972,-1935.3479,-2468.6158,23673.3556
53746.3278,25977.5519,52209.3326,39700.4932,34751.7729,37026.2414,5038.4402,49313.4409,44158.1011,55156.365,-1919.2994,-2462.0444,23679.5694
53737.9682,25974.6909,52210.2714,39698.7945,34751.2364,37021.5923,5038.1273,49317.7325,44155.9106,55155.0686,-1920.0146,-2465.3971,23679.1223
53714.3648,25963.1127,52210.0478,39684.3106,34729.0635,37013.5903,5032.7629,49292.2962,44142.0525,55148.8549,-1936.6443,-2483.0997,23672.4615
53700.462,25955.7366,52212.1489,39677.0239,34710.7798,37013.8586,5029.1419,49277.4993,44140.2197,55146.9326,-1943.8863,-2487.7936,23671.8804
53721.4279,25961.1905,52212.8195,39695.5311,34734.6514,37023.2463,5035.311,49294.9337,44154.4801,55152.3864,-1929.0,-2471.6109,23680.1952
53746.0148,25972.9475,52215.7699,39706.9305,34753.2928,37031.9635,5037.6356,49321.5322,44155.7318,55164.367,-1916.036,-2458.0657,23689.8512
53748.0265,25968.3877,52212.9536,39703.8907,34748.4648,37030.3541,5034.9087,49322.4263,44155.5977,55160.8354,-1918.5394,-2461.6867,23687.4372
53733.8555,25967.2701,52207.6786,39691.5972,34727.4095,37018.8653,5031.243,49298.6888,44144.8241,55154.0852,-1935.7949,-2481.0433,23677.9153
53720.1315,25964.8114,52205.4434,39683.4612,34715.3395,37009.12,5027.8455,49280.3603,44133.8271,55146.1279,-1945.3168,-2489.7158,23669.1087
53731.4862,25964.1856,52209.1538,39688.8256,34730.6281,37016.3172,5032.897,49298.3758,44143.3042,55151.85,-1934.275,-2477.7353,23675.5461
53741.6339,25971.8299,52207.768,39699.0627,34748.0625,37020.6535,5034.1487,49322.3369,44156.4918,55158.9131,-1925.7814,-2470.2698,23678.3177
53741.2763,25972.8581,52203.9682,39699.465,34747.9731,37015.9596,5034.104,49325.2873,44158.2352,55160.3436,-1926.9884,-2472.7285,23674.8755
53725.8089,25962.7998,52202.8506,39688.8256,34724.1461,37019.0442,5033.6123,49299.8511,44145.1818,55154.1746,-1942.3217,-2481.5798,23670.6734
53713.3813,25957.8824,52198.2908,39676.3086,34701.2579,37016.4067,5029.1866,49285.2777,44137.9845,55152.4311,-1953.274,-2492.3086,23668.1253
53732.0673,25966.9125,52199.319,39684.2659,34719.8099,37022.9334,5032.45,49300.4322,44148.1769,55158.6896,-1939.2371,-2479.881,23671.9698
53755.3132,25972.9922,52205.8904,39701.432,34752.8458,37034.1986,5037.5909,49331.0541,44168.8299,55170.6702,-1918.7182,-2462.7596,23680.1058
53749.457,25967.4042,52204.9963,39696.4252,34746.1849,37030.22,5033.0758,49329.2212,44170.8863,55170.1784,-1918.5394,-2463.9219,23680.0611
53734.5707,25963.4256,52208.7067,39689.1832,34725.4872,37022.7993,5034.4616,49311.3399,44160.4704,55164.9481,-1934.0515,-2472.7285,23679.48
53728.4911,25960.4305,52211.836,39688.6021,34716.9042,37021.4134,5037.0544,49292.2068,44153.4519,55164.0987,-1943.8863,-2478.8082,23680.4634
53736.7612,25963.8727,52206.8292,39691.1055,34737.7807,37023.738,5038.7532,49308.7023,44166.0583,55169.5973,-1934.1409,-2464.5925,23684.6656
53755.6261,25970.6676,52206.9186,39701.7896,34752.4434,37025.9285,5039.7813,49346.9685,44182.5986,55181.399,-1916.7513,-2453.2825,23689.2253
53750.0829,25974.6462,52207.0974,39699.3309,34747.0343,37018.6418,5037.4568,49339.1454,44184.8785,55178.3592,-1920.864,-2460.3009,23685.0679
53731.9779,25970.9805,52207.2315,39693.2513,34726.5154,37013.188,5033.5675,49316.9725,44165.9242,55172.3242,-1932.8445,-2473.1755,23681.0446
53727.7758,25963.8727,52209.7349,39689.4515,34716.1889,37014.6185,5032.7629,49312.4127,44156.7153,55167.4515,-1941.2041,-2481.8033,23680.1505
53741.6786,25964.4985,52208.7067,39691.9549,34728.8847,37018.7759,5033.1205,49326.2708,44166.3712,55172.5477,-1931.5481,-2471.7003,23681.2681
53754.9555,25968.343,52209.1538,39704.0248,34751.2811,37024.2298,5032.897,49350.2319,44185.4149,55179.6108,-1911.521,-2455.3388,23685.2914
53751.871,25970.2653,52210.1372,39704.4271,34754.1422,37022.4863,5029.6336,49344.644,44180.0058,55175.0958,-1913.622,-2458.0657,23683.1009
53739.0858,25969.7288,52211.3442,39693.8324,34738.8983,37014.6632,5030.2595,49330.92,44171.2439,55169.2396,-1926.899,-2466.023,23678.72
53730.5027,25964.275,52212.6406,39693.6983,34725.666,37013.2774,5033.2993,49320.1017,44172.2274,55174.7382,-1932.4869,-2470.8509,23682.2963
53744.7631,25969.103,52210.7631,39703.3989,34740.4629,37021.9052,5038.5296,49336.0609,44183.448,55175.5428,-1921.8922,-2460.9715,23687.5713
53757.6824,25976.6579,52210.2267,39708.7187,34760.7583,37028.566,5039.3343,49352.02,44198.1554,55180.1026,-1913.4879,-2448.9462,23688.4207
53753.3015,25968.8348,52210.6737,39705.3212,34759.596,37028.2084,5039.6919,49353.8082,44195.1156,55178.0015,-1919.0758,-2456.0988,23684.1291
53733.8555,25959.8941,52209.3326,39692.4913,34734.2938,37023.6486,5036.518,49335.3009,44182.1069,55170.089,-1933.6045,-2470.8509,23677.9153
53732.9167,25962.9339,52212.7301,39696.604,34725.1296,37024.2298,5039.6025,49328.8636,44177.1001,55169.1502,-1935.9738,-2476.573,23680.4634
53740.4716,25966.9572,52209.422,39700.8061,34740.6864,37027.9849,5039.7813,49340.6653,44187.9183,55170.8043,-1927.3907,-2467.677,23678.8541
53753.525,25973.3051,52202.8953,39707.1987,34755.4833,37023.6486,5038.7084,49364.4476,44194.4897,55172.8606,-1916.7066,-2460.1668,23678.273
53746.9089,25965.2585,52196.3686,39699.8674,34746.632,37014.5738,5033.4781,49365.8781,44180.4081,55162.5788,-1921.9369,-2466.0677,23674.8755
53731.0839,25956.139,52198.112,39688.9597,34729.3764,37011.8916,5031.9582,49347.7732,44172.9873,55159.3602,-1934.4985,-2478.8082,23672.3274
53723.0372,25959.8941,52201.4648,39684.7129,34727.0072,37014.6185,5031.2877,49334.988,44170.6628,55159.7178,-1943.7522,-2484.5302,23670.3604
53736.94,25961.9057,52204.6834,39695.5311,34748.5989,37023.4698,5036.8756,49349.2037,44182.9115,55163.2494,-1930.8329,-2469.0628,23674.7861
53745.7466,25964.5879,52207.9468,39704.2483,34770.4142,37029.0577,5040.8542,49370.1249,44190.5558,55168.6138,-1915.2761,-2456.4117,23678.4965
53748.9206,25965.8396,52208.0362,39702.9072,34769.5202,37028.3872,5039.9154,49375.8917,44194.0427,55171.743,-1912.2362,-2455.0706,23681.8045
53732.9167,25964.5879,52204.4152,39693.8771,34741.5805,37020.5641,5036.0262,49357.0715,44175.4907,55163.9199,-1924.485,-2465.6206,23677.2448
53714.9012,25958.3741,52205.6669,39687.3504,34725.219,37018.5524,5036.9203,49352.8247,44176.1166,55161.5506,-1928.2401,-2472.1473,23676.3507
53717.3599,25948.4947,52200.3025,39686.6798,34736.6631,37019.4018,5034.6404,49364.5817,44176.0719,55156.9015,-1926.0943,-2468.884,23676.5295
53737.6106,25953.5462,52201.1071,39703.5778,34757.2714,37026.7332,5037.2779,49383.2231,44198.3789,55173.71,-1912.3703,-2456.1882,23681.2681
53739.0858,25951.4004,52202.8506,39701.5214,34753.561,37027.5825,5035.311,49372.0919,44203.341,55177.1969,-1919.0758,-2458.0657,23680.374
53717.4046,25940.7163,52198.1567,39682.9695,34724.6826,37018.9101,5029.1866,49352.1094,44186.5325,55165.3951,-1937.0466,-2473.9802,23673.6685
53705.6029,25939.3752,52193.7311,39681.4495,34707.7399,37010.774,5024.9398,49342.5429,44174.4179,55156.1415,-1946.792,-2483.5467,23669.6452
53713.1578,25935.6648,52190.87,39686.6798,34719.4523,37010.0588,5027.1302,49352.8694,44179.6482,55160.4778,-1938.2983,-2473.5332,23673.4003
53732.4697,25931.0603,52186.8467,39690.4349,34744.218,37013.5009,5027.2197,49365.2076,44188.3653,55162.8917,-1924.6638,-2465.3077,23674.9202
53726.8817,25922.8349,52183.0916,39689.4515,34740.0159,37007.5107,5020.6035,49357.7868,44183.6268,55158.6002,-1927.8377,-2469.4651,23666.9183
53712.1743,25915.1459,52180.2306,39681.6283,34716.5912,36998.8829,5016.1332,49340.6206,44167.5335,55153.3699,-1945.0039,-2481.6692,23660.3469
53696.1257,25912.6425,52181.9741,39666.8315,34691.1997,36995.1725,5009.5618,49326.1814,44158.2352,55148.5419,-1961.8571,-2494.1415,23654.9824
53704.6641,25908.9321,52179.9624,39673.3135,34707.1588,36995.396,5008.9806,49337.402,44167.5782,55150.4195,-1952.9611,-2488.4641,23656.2788
53724.7807,25906.1605,52174.0615,39681.986,34729.6447,36997.7653,5011.8864,49350.0084,44181.3022,55152.8782,-1935.6161,-2476.9753,23659.721
53721.562,25901.7795,52173.6145,39682.5671,34723.2521,37001.3416,5012.0652,49353.5846,44179.6035,55149.6595,-1935.7502,-2476.2154,23664.2808
53703.3677,25895.7893,52172.8545,39676.7557,34702.912,36994.9043,5009.2041,49341.6488,44170.7969,55143.9375,-1947.0602,-2486.8548,23662.8056
53681.016,25889.3073,52171.9158,39665.3563,34682.2143,36986.3659,5007.9525,49323.6333,44166.6842,55137.9025,-1956.9844,-2494.9908,23659.4975
53696.841,25896.9963,52171.5581,39673.1347,34706.3988,36995.9772,5010.4111,49342.2747,44171.3333,55142.8646,-1946.345,-2483.815,23661.4197
53713.7389,25901.2878,52168.5183,39679.7955,34729.6894,37002.9956,5010.5006,49361.5419,44179.6929,55151.85,-1931.0117,-2470.2698,23667.3206
53711.9508,25902.316,52165.7467,39684.2659,34723.6991,37006.6166,5012.3781,49358.502,44184.4314,55153.1464,-1929.1788,-2467.0511,23668.3935
53706.6758,25903.2547,52170.0829,39686.1881,34712.0762,37001.5651,5015.2391,49345.8509,44182.7774,55157.125,-1939.863,-2476.9306,23670.0922
53691.119,25896.4598,52167.0431,39673.7158,34695.8935,36990.3892,5010.0982,49329.2212,44164.3596,55146.3068,-1956.0456,-2491.3698,23663.6549
53699.8808,25894.5376,52168.8759,39669.2008,34704.9683,36998.8382,5007.1031,49341.6041,44169.0087,55148.229,-1951.3518,-2483.9044,23660.0339
53718.0752,25902.003,52170.8876,39677.6497,34725.2637,37002.4145,5007.6842,49360.8266,44181.7045,55151.4477,-1941.1594,-2477.1094,23659.4528
53721.2491,25903.3442,52169.6359,39683.8188,34724.9061,36998.57,5005.8514,49368.6944,44179.3799,55147.8267,-1941.964,-2482.5633,23659.3187
53704.7088,25896.9963,52165.255,39677.7391,34709.2599,36991.1939,5000.2187,49347.3262,44175.759,55140.093,-1949.3401,-2495.2143,23655.8765
53683.6982,25884.9263,52157.2977,39663.1658,34685.9246,36983.5496,4993.3344,49321.6664,44161.8562,55129.8112,-1966.6404,-2510.5029,23650.3333
53686.6933,25882.8253,52152.4698,39668.0832,34697.0111,36986.6341,4990.9651,49331.2329,44162.3032,55130.3029,-1954.928,-2501.4728,23652.5685
53704.0383,25891.6318,52153.5426,39678.365,34723.4756,36991.9538,4993.9603,49355.4622,44174.1496,55140.0036,-1934.7221,-2483.0103,23662.4032
53697.6904,25884.1664,52151.8886,39672.0618,34719.5864,36991.0598,4988.1041,49348.3543,44175.0884,55136.6955,-1941.9193,-2490.0287,23658.7375
53672.5223,25874.0634,52147.0159,39656.058,34692.7196,36978.7216,4982.5609,49324.438,44160.6045,55125.0279,-1966.3721,-2512.5146,23645.103
53662.8664,25867.7155,52146.9265,39647.1173,34679.5768,36976.4417,4981.3092,49316.4361,44158.7269,55128.6042,-1974.4188,-2518.9519,23643.9407
53676.948,25876.1197,52151.3969,39656.8179,34704.6107,36982.3426,4983.7232,49333.8257,44166.7289,55135.0415,-1956.0903,-2505.5408,23651.4509
53692.5048,25884.7028,52148.9382,39673.1794,34726.2025,36988.6905,4986.0924,49360.916,44173.2109,55136.6508,-1945.4509,-2494.1862,23653.5519
53688.1685,25880.8136,52146.8818,39673.8499,34715.6525,36984.8907,4982.4268,49357.6974,44172.2721,55131.8675,-1950.86,-2491.8616,23650.0204
53668.7225,25876.3433,52153.0509,39664.4175,34694.9548,36980.1521,4983.0526,49337.4914,44166.7736,55128.6042,-1962.3488,-2503.4398,23648.7687
53665.325,25879.9195,52159.7117,39659.0531,34685.1647,36985.1589,4982.9632,49333.4681,44155.8659,55133.1639,-1970.2613,-2512.0676,23647.0252
53682.5806,25886.9827,52158.1471,39664.5069,34704.9683,36987.4388,4984.8855,49347.9073,44167.757,55138.0813,-1962.1253,-2502.2328,23648.6346
53694.9188,25887.6085,52156.8507,39674.8781,34721.1063,36987.9752,4983.0526,49361.5866,44180.3634,55143.2669,-1948.7143,-2493.8285,23650.2439
53692.1471,25892.9282,52156.7166,39680.6896,34713.2832,36985.3824,4985.7348,49368.7391,44177.1448,55145.1892,-1946.3003,-2495.3932,23651.1827
53680.8819,25899.0973,52162.081,39674.9228,34696.5641,36984.6672,4993.1109,49354.4787,44171.5568,55143.8928,-1957.6102,-2500.1317,23651.8532
53669.7507,25896.9069,52162.3939,39665.7586,34692.6749,36987.3494,4993.3344,49351.4836,44166.4159,55135.8908,-1967.5791,-2507.1055,23647.3829
53688.6156,25902.6289,52161.634,39677.8733,34711.048,36997.4524,4996.6425,49365.2076,44179.1564,55139.1989,-1955.1516,-2496.7343,23650.5568
53712.5319,25912.2401,52164.2268,39688.8703,34730.2705,36999.2405,4997.4471,49391.0015,44196.9037,55151.3135,-1940.9359,-2488.0618,23656.5918
53714.1412,25916.5317,52166.5514,39687.4845,34725.0849,36996.5136,4995.4802,49385.9947,44191.4946,55152.5205,-1946.5685,-2490.6099,23653.1049
53704.7982,25914.7435,52170.0829,39682.4777,34699.9168,36998.4359,4997.9836,49370.8402,44180.8105,55151.09,-1954.5257,-2496.5554,23651.4062
53694.2035,25915.1012,52172.631,39677.9627,34684.8965,37003.0403,5000.2187,49355.9539,44175.5801,55151.1347,-1956.9844,-2498.3436,23653.4178
53704.9323,25917.2916,52174.1062,39682.6565,34705.4601,37000.5816,5000.2635,49369.5438,44185.102,55149.9724,-1948.7143,-2492.0404,23657.3517
53722.322,25927.2605,52178.8448,39700.5379,34735.0091,37003.5768,5003.9738,49394.2201,44197.9319,55153.057,-1931.0117,-2479.0764,23662.8503
53721.0256,25932.4461,52182.8681,39706.4388,34743.7263,37007.2871,5006.8349,49398.6905,44202.134,55160.4331,-1928.1507,-2474.606,23668.5276
53704.5747,25932.6249,52183.0916,39696.8722,34720.5251,37004.9179,5004.4209,49385.8606,44200.927,55165.1269,-1944.3333,-2485.2902,23666.7395
53695.7234,25927.3052,52183.3152,39689.7197,34707.0694,37008.9412,5003.5715,49378.1716,44193.9086,55159.0472,-1950.6365,-2492.9345,23663.2973
53713.426,25935.0836,52187.8749,39704.2036,34728.2588,37016.9431,5010.6347,49400.6574,44205.2186,55161.5506,-1936.4208,-2482.608,23666.203
53729.3851,25948.8076,52193.1499,39716.5418,34747.9731,37027.9849,5016.2226,49431.9499,44217.5567,55169.4185,-1923.4568,-2469.9122,23669.6899
53731.8885,25951.311,52194.1781,39718.6428,34742.251,37024.2298,5016.3567,49437.9848,44213.9357,55169.8655,-1929.1788,-2471.745,23667.4994
53719.1033,25944.5161,52193.3734,39707.914,34718.8711,37018.2842,5010.6347,49415.6331,44202.8046,55160.0307,-1947.6861,-2486.9889,23659.0952
53712.0402,25945.7678,52194.1781,39702.9966,34706.5777,37018.7312,5007.5948,49401.3727,44195.2497,55159.4496,-1952.4693,-2491.6381,23658.9164
53724.8701,25946.6171,52192.1217,39706.1259,34723.6991,37022.8887,5009.6065,49421.9363,44201.687,55162.4447,-1936.8231,-2479.1658,23663.5655
53739.801,25946.1701,52189.4395,39718.5534,34738.5406,37024.2745,5008.8912,49439.2812,44210.1359,55163.9199,-1925.9155,-2472.4603,23663.1632
