FC3,FCz,FC4,C5,C3,C1,Cz,C2,C4,C6,CP3,CPz,CP4
56936.9495,28314.6948,54073.8255,42454.4066,36943.7635,39503.8426,5815.7444,50426.2,43963.9986,55869.3409,748.9622,-589.7731,26259.1839
56913.2119,28310.9844,54074.1384,42445.5553,36917.7908,39490.7445,5813.7327,50392.8065,43950.6322,55860.7578,731.3043,-601.3513,26254.4006
56892.246,28306.9611,54069.7128,42431.0267,36894.3661,39483.5919,5811.6317,50349.4889,43938.7858,55854.7229,717.3121,-614.9858,26247.4716
56894.8835,28310.895,54069.0422,42435.497,36912.3369,39485.1118,5812.3916,50351.1429,43939.9928,55858.2544,726.5657,-611.3201,26248.3656
56912.4967,28326.273,54070.6068,42451.0539,36940.7684,39493.4267,5816.3702,50383.1059,43953.225,55859.2826,746.5035,-594.3775,26256.5017
56918.174,28333.962,54068.9975,42448.2822,36936.5215,39491.3256,5821.0641,50382.3459,43958.0977,55869.7879,744.5812,-587.5379,26256.3229
56899.5327,28323.9484,54068.014,42434.603,36907.196,39484.0837,5817.0855,50348.3266,43939.7246,55860.4002,727.8174,-602.3794,26247.4716
56880.3996,28315.0524,54067.7905,42433.4854,36885.2913,39484.2625,5814.9397,50324.6784,43927.1629,55852.4877,716.1945,-610.7837,26245.9069
56886.9263,28323.9484,54070.875,42439.2521,36898.2553,39492.7561,5816.7726,50336.9272,43940.7527,55854.1417,724.7329,-599.6078,26249.2597
56909.9486,28334.409,54069.9363,42454.1831,36928.6984,39500.2216,5818.3372,50362.4976,43949.3805,55861.0708,740.1109,-588.8343,26252.5231
56909.2333,28328.0611,54065.9577,42455.9265,36920.9647,39503.3956,5812.5257,50353.3781,43953.0909,55860.0873,740.4685,-589.6837,26250.0197
56890.9943,28326.1836,54064.6613,42444.6613,36894.6344,39491.415,5802.4675,50318.4646,43929.2639,55847.7938,722.5424,-606.8945,26243.5824
56876.5998,28321.1321,54064.4377,42432.6807,36872.8191,39483.0555,5798.31,50295.6659,43919.5186,55841.1777,711.4112,-620.3502,26242.9118
56889.385,28323.6355,54065.4659,42446.5835,36891.818,39492.5773,5805.999,50313.8155,43930.6945,55850.8337,723.2577,-612.1695,26249.8856
56919.4704,28328.5528,54069.1763,42466.8789,36916.9414,39499.5064,5814.1798,50339.5647,43939.9928,55856.7792,746.3247,-594.914,26258.7368
56921.348,28329.4022,54071.0539,42475.7302,36923.2446,39502.7697,5816.2808,50344.348,43937.3553,55853.4265,751.8232,-589.8625,26264.146
56903.5113,28323.2778,54068.6846,42466.8789,36899.8647,39488.9116,5809.6647,50318.2411,43917.5069,55844.2622,731.8854,-605.3299,26256.0993
56887.418,28316.3041,54070.0257,42454.3619,36875.2778,39479.7474,5806.7143,50286.6358,43909.1921,55836.5732,722.6318,-615.9246,26250.0197
56897.3869,28315.9018,54068.7293,42457.1335,36882.8326,39487.5258,5806.4461,50286.904,43921.3514,55837.9591,735.5064,-607.9227,26250.3326
56921.7056,28314.6948,54068.9975,42464.9119,36897.853,39488.554,5805.8202,50300.2703,43930.2474,55845.5139,749.4986,-594.3328,26254.9818
56927.0253,28307.3634,54073.0208,42463.3026,36898.7471,39487.2129,5802.1098,50294.8165,43928.951,55844.9775,746.2353,-597.9985,26255.5629
56912.5861,28303.7424,54072.1714,42449.981,36876.9318,39482.072,5800.4558,50269.2908,43913.6177,55840.1942,729.0691,-612.8848,26249.7067
56899.8903,28303.3401,54070.2939,42437.911,36855.0271,39478.5404,5798.623,50253.4658,43899.402,55836.8862,715.211,-620.7973,26246.4434
56908.0263,28308.5257,54070.8303,42445.6447,36872.685,39483.0108,5802.4675,50265.6251,43911.2931,55847.3915,725.8058,-606.1792,26254.4006
56932.5238,28316.8852,54076.6418,42463.8391,36905.9891,39489.4034,5807.8319,50288.111,43933.4214,55858.7462,751.4209,-587.8955,26266.2023
56947.5889,28319.3439,54079.5028,42469.2929,36904.4691,39491.6385,5808.6365,50288.2004,43933.5108,55858.2991,758.9757,-584.6769,26268.1246
56935.8319,28307.1846,54076.4183,42447.567,36875.5013,39482.832,5800.3217,50260.9313,43920.7703,55848.9561,740.3344,-601.5748,26259.6756
56925.7736,28302.6695,54078.877,42438.9839,36852.7472,39476.1264,5795.3596,50241.217,43906.644,55849.3584,726.3869,-610.2026,26256.9934
56939.0059,28307.8998,54080.0393,42443.8119,36865.3089,39479.3451,5796.3431,50249.0848,43912.7237,55855.1699,738.6804,-598.0879,26257.8875
56962.5646,28320.5062,54079.9946,42453.5125,36896.646,39486.8553,5801.1264,50274.9234,43934.1813,55858.0756,754.8183,-583.7381,26262.5813
56957.1108,28326.0494,54077.0888,42451.9479,36898.7918,39492.1303,5799.9194,50285.4735,43941.915,55858.2544,755.4442,-583.9616,26263.6542
56933.6861,28322.6967,54073.0208,42439.6098,36879.167,39483.1449,5796.7454,50267.6368,43930.9627,55855.2146,735.5511,-597.9538,26255.9205
56923.449,28317.377,54071.2327,42428.2104,36865.7112,39478.1381,5796.209,50259.4113,43924.6148,55855.751,718.2062,-607.4309,26251.6737
56928.6346,28314.0242,54068.4611,42432.4572,36877.4235,39476.2605,5793.3033,50275.5046,43935.746,55860.9366,725.0011,-600.0102,26253.5959
56944.102,28312.8619,54067.7905,42444.0801,36897.8977,39473.3548,5794.8679,50298.7057,43947.4583,55867.3292,738.7251,-591.1589,26257.5299
56952.5063,28314.0242,54073.602,42455.9712,36901.5634,39477.3334,5802.3334,50294.1459,43945.9383,55872.8725,742.1672,-581.9052,26262.4472
56929.7075,28300.5685,54071.635,42442.5155,36883.4585,39469.3762,5801.1264,50265.7592,43937.3106,55866.3011,729.6503,-594.5116,26257.2616
56921.8844,28292.6559,54074.9431,42432.189,36863.3866,39464.9506,5803.3615,50248.459,43927.8334,55859.6402,725.8058,-605.1511,26258.7368
56939.3188,28294.6676,54076.8206,42441.4873,36875.0542,39477.1546,5804.4791,50268.6203,43936.1036,55857.6286,735.7299,-598.7585,26260.0332
56956.7531,28306.2011,54077.0888,42454.5854,36895.1708,39487.3023,5803.5851,50288.6027,43953.2697,55856.6898,750.6162,-582.4417,26261.1955
56960.6423,28317.377,54081.2016,42462.8556,36903.128,39495.4383,5808.5471,50299.4657,43962.7916,55867.7763,758.3499,-574.8421,26267.6775
56943.1186,28314.0242,54078.2511,42452.5738,36884.3526,39492.9796,5807.0272,50293.0731,43952.2415,55861.5625,748.7833,-592.5,26260.2568
56924.9243,28306.1564,54073.5126,42443.2755,36868.2593,39487.8834,5803.9874,50278.6338,43948.5312,55855.2593,733.4054,-602.6924,26251.5843
56944.1468,28311.1632,54074.496,42460.0393,36889.4935,39499.6852,5810.38,50291.5531,43958.6341,55858.8356,745.2518,-590.6671,26255.2053
56966.2303,28323.099,54076.7759,42471.081,36917.4331,39501.4733,5814.4033,50322.3985,43965.6526,55864.7364,761.7921,-576.7196,26261.5532
56966.7667,28328.8658,54071.6797,42471.1257,36917.612,39504.7367,5813.8222,50327.8971,43967.9772,55865.4964,763.1779,-578.1949,26261.1955
56953.6686,28328.7764,54069.221,42465.0908,36903.9327,39506.7036,5808.8154,50314.3519,43955.7731,55857.8521,745.3412,-594.4222,26256.5911
56947.3207,28324.6189,54067.9693,42458.117,36885.1125,39508.4023,5802.2439,50298.3928,43937.4894,55844.2622,730.9914,-610.4708,26248.5892
56960.1059,28323.3672,54064.2589,42465.3143,36894.992,39519.757,5798.7571,50301.522,43949.4699,55845.2904,738.8592,-604.0335,26251.2714
56977.0932,28324.9319,54064.5272,42475.8643,36915.9132,39537.1467,5799.2935,50335.6308,43970.5253,55853.7841,756.2935,-587.8061,26254.043
56981.1165,28320.998,54067.2094,42476.8478,36917.6567,39535.5821,5800.6346,50349.2653,43968.2007,55856.6004,756.2488,-586.1074,26254.1771
56958.4072,28320.8191,54073.2443,42468.8011,36903.3068,39532.3187,5801.931,50336.4354,43956.6672,55856.958,743.2401,-594.9587,26253.0595
56937.2177,28310.4032,54077.8935,42458.7429,36886.5877,39526.7755,5801.0817,50321.1021,43946.3854,55853.1582,734.7465,-606.0451,26252.1654
56946.829,28320.8638,54078.6535,42470.4552,36910.7723,39531.1564,5803.9874,50333.038,43960.8246,55856.6898,749.6327,-592.5447,26259.4074
56963.4587,28330.1175,54075.8818,42479.4406,36938.0414,39535.7609,5804.5685,50355.8367,43980.2259,55862.8589,764.2508,-577.6584,26262.5813
56968.1078,28328.6422,54075.7477,42482.0781,36936.745,39532.5422,5807.4743,50360.4412,43982.8187,55868.9833,766.3965,-575.155,26261.5532
56954.2944,28324.2166,54077.3124,42474.7914,36912.1581,39526.2837,5808.4577,50347.209,43972.4922,55873.2748,749.4986,-588.4767,26262.4919
56934.2673,28320.9085,54075.3454,42455.3901,36888.5994,39516.5831,5805.2391,50323.1138,43958.5894,55869.2515,733.4501,-599.429,26257.9322
56940.5258,28325.2895,54074.7643,42455.5242,36903.5751,39511.9339,5808.5024,50329.9087,43967.7536,55872.7384,740.7814,-593.9305,26254.5794
56952.5063,28331.6374,54068.6399,42460.6204,36926.7762,39509.4752,5809.0389,50350.1594,43979.5554,55878.818,750.2139,-584.2745,26254.2665
56947.4995,28327.4353,54068.5058,42456.7312,36926.5527,39501.6074,5804.5685,50343.4986,43977.9907,55877.7452,749.0069,-586.018,26256.1888
56923.8961,28321.7132,54069.0869,42440.325,36904.4244,39494.6784,5804.8815,50326.6901,43969.1842,55876.0017,737.7863,-599.1161,26256.7699
56915.8047,28320.1486,54066.9858,42432.5466,36884.2185,39489.2246,5802.9592,50315.246,43961.7187,55877.924,725.5375,-608.325,26255.697
56927.5618,28318.1369,54065.0189,42437.1511,36899.2835,39490.7892,5805.999,50326.9583,43972.6263,55882.9755,727.728,-602.9159,26256.5464
56945.309,28323.5013,54062.1579,42443.9907,36927.1785,39494.5443,5806.8484,50349.2206,43986.1715,55886.5964,743.9107,-586.2415,26259.9885
56950.897,28325.1554,54062.5155,42445.3318,36931.47,39494.8572,5809.3965,50355.8815,43992.1618,55887.1776,748.2469,-585.258,26262.5366
56933.5967,28318.4499,54062.4261,42436.4805,36907.8219,39487.8387,5805.6414,50345.0185,43976.739,55879.3098,733.3606,-595.0928,26257.7087
56921.5268,28308.9727,54061.3085,42430.7585,36889.8511,39486.4976,5806.0437,50325.8854,43957.7401,55871.1737,720.3966,-603.7652,26254.8476
56937.1283,28315.0077,54068.0587,42441.2191,36906.9725,39496.1089,5813.1516,50340.8611,43977.1861,55876.8064,736.5346,-587.5826,26260.1227
56958.2283,28330.2963,54071.5903,42455.3901,36937.0133,39504.9602,5819.2313,50364.5092,44001.326,55885.3894,757.2323,-571.534,26265.1742
56964.4421,28331.9056,54071.6797,42460.084,36947.4292,39508.6706,5820.6171,50368.1749,43993.6817,55887.267,759.5569,-570.9529,26264.1907
56951.7016,28324.4401,54075.1219,42451.9479,36923.5575,39502.1439,5819.0972,50349.2206,43977.5884,55884.5401,743.4636,-584.2298,26261.4191
56931.1827,28314.3818,54069.5786,42439.6098,36901.921,39495.483,5812.9728,50327.8077,43956.2201,55872.6043,727.1469,-600.3231,26255.7864
56930.691,28311.9231,54066.36,42439.0733,36902.3681,39501.7862,5806.3567,50332.3227,43967.8431,55884.406,733.1818,-592.7235,26260.3015
56951.5675,28312.9066,54066.6729,42450.4727,36927.8044,39508.8494,5811.7211,50353.8251,43987.155,55895.8054,748.8728,-577.2114,26266.9623
56949.4665,28315.4994,54070.1598,42458.1617,36940.9025,39511.3975,5820.1253,50358.7425,43988.1831,55892.2738,750.035,-572.9645,26264.593
56939.3635,28309.6433,54066.36,42446.4494,36919.5342,39501.6074,5814.6715,50341.9787,43973.431,55879.9356,730.2314,-588.9237,26254.9371
56915.76,28301.1496,54067.4776,42431.1608,36885.1572,39488.107,5807.1166,50318.8223,43958.4106,55871.2184,716.2392,-605.0169,26250.422
56916.6541,28298.2886,54065.8683,42428.9256,36885.4254,39489.4481,5803.7192,50320.8786,43963.1045,55873.2748,724.8223,-601.4854,26250.0197
56945.1302,28309.7327,54067.2541,42453.3784,36928.2961,39506.7483,5810.6035,50353.9592,43978.0802,55882.7519,746.8611,-582.0841,26260.6144
56954.6521,28315.7676,54068.3717,42458.6535,36935.4934,39509.7435,5812.034,50367.9067,43987.3785,55883.7354,748.5598,-581.6817,26260.4356
56934.8931,28311.6549,54066.807,42450.0704,36911.1747,39504.0661,5808.3683,50342.5151,43969.81,55875.3312,730.9467,-596.6574,26249.8409
56921.6162,28302.8036,54067.567,42444.7507,36895.5284,39500.4451,5804.6132,50310.9097,43957.5613,55870.1009,718.8767,-605.5087,26246.801
56919.6045,28300.6132,54067.0305,42449.1763,36911.577,39505.8542,5805.2391,50319.8504,43972.0899,55872.649,726.5657,-597.5515,26250.6455
56941.7775,28311.2079,54067.567,42460.8439,36945.4175,39510.9504,5807.2507,50352.8416,43996.0063,55883.5119,744.2683,-585.3027,26256.0546
56939.4082,28310.6267,54061.3532,42452.9314,36937.3262,39503.5297,5797.6842,50347.656,43992.7429,55879.7121,741.2285,-594.6904,26250.3773
56926.5336,28304.413,54059.4757,42443.186,36908.716,39498.7911,5793.4821,50331.2945,43973.431,55874.7947,723.4812,-606.9392,26242.6883
56919.2022,28303.9659,54062.3367,42439.3862,36893.2486,39497.2712,5795.0914,50317.0341,43962.881,55874.5265,712.7523,-618.875,26242.5095
56934.9825,28313.4431,54066.9858,42451.9032,36908.716,39507.9553,5805.1497,50333.2168,43977.3202,55881.7685,732.3325,-601.0383,26251.182
56955.9485,28322.0708,54071.8585,42466.8342,36944.1211,39514.6608,5815.8338,50373.137,43997.1238,55887.8034,753.3431,-580.9665,26258.7816
56962.1623,28326.0942,54076.3736,42469.1141,36946.5798,39517.3877,5818.8289,50380.2449,44000.3425,55892.4526,752.2255,-575.7809,26262.0002
56949.6006,28322.8755,54077.2676,42457.6253,36928.162,39508.76,5815.4762,50364.5092,43988.4961,55891.9162,737.1157,-592.7682,26258.6921
56930.6016,28316.1253,54077.7147,42442.0238,36905.3632,39499.4169,5812.5705,50339.6094,43979.0636,55885.3447,721.246,-605.5534,26250.8243
56942.4033,28322.2049,54075.3901,42445.6,36921.5012,39502.8144,5815.8785,50342.9174,43984.6516,55885.9706,731.5278,-598.4455,26255.1159
56958.4519,28325.1554,54073.1549,42456.5077,36947.2504,39504.8708,5817.6219,50358.5637,43999.6272,55893.9278,754.3713,-584.5875,26262.5813
56967.3926,28323.859,54069.6681,42459.1005,36945.0152,39507.1059,5816.415,50373.4052,44006.7798,55896.7441,751.4656,-587.3144,26260.6591
56948.5724,28315.0077,54068.5505,42445.0636,36920.8753,39501.7862,5813.0175,50359.6812,43994.3522,55889.0104,731.2149,-601.5748,26256.7252
56928.4558,28310.4032,54068.774,42419.4038,36892.4439,39490.968,5808.2342,50343.9009,43981.12,55882.2602,714.1829,-614.3153,26251.629
56944.9961,28319.0757,54069.8916,42424.5894,36906.0338,39502.1439,5808.5918,50356.2838,43987.7361,55884.2719,723.0341,-605.3299,26251.9419
56957.4237,28323.9037,54066.5835,42435.8547,36936.3874,39505.7648,5808.4577,50375.7298,44003.3823,55891.4244,741.5861,-592.5894,26253.6854
56950.8523,28314.9183,54062.7837,42435.1841,36935.4039,39499.7746,5801.484,50376.0874,44001.2366,55887.3117,739.7979,-591.293,26250.6902
56940.3023,28303.7871,54060.1909,42427.361,36915.645,39486.587,5796.2984,50357.0437,43983.8022,55877.0746,721.1566,-605.7322,26243.6271
56929.0817,28302.2225,54059.6098,42417.6157,36902.4575,39480.5074,5794.4208,50339.2071,43972.8945,55873.1854,708.0138,-616.2375,26238.665
56939.3188,28312.549,54062.5602,42429.9091,36913.1863,39489.8951,5799.517,50357.6249,43988.2725,55881.6791,724.5541,-601.7983,26243.4483
56957.8707,28321.9367,54061.9791,42447.567,36940.9919,39500.4451,5804.6579,50377.205,44002.8906,55888.8763,740.692,-586.5544,26248.3656
56960.3294,28315.8123,54058.2687,42442.9625,36937.5944,39498.0311,5803.898,50373.4946,44004.4552,55892.3632,737.9204,-589.1472,26247.2481
56939.8552,28307.7657,54059.3863,42434.5136,36915.6003,39493.4267,5805.5967,50362.1846,43992.7429,55891.2456,723.3471,-598.0879,26242.8671
56923.9408,28299.1379,54061.085,42425.4388,36897.853,39491.5491,5807.9213,50348.8183,43985.0986,55883.0649,714.6299,-606.1345,26239.3802
56938.3353,28296.5451,54063.4096,42429.1044,36912.4711,39497.5841,5808.8154,50359.5024,43993.9052,55881.1873,720.5307,-600.8595,26244.387
56973.204,28309.2856,54067.2094,42448.5952,36950.5584,39504.9602,5814.7609,50384.0446,44015.6758,55889.0104,742.7931,-582.7099,26252.9254
56974.9922,28319.6121,54070.4727,42456.2395,36956.2805,39513.5432,5817.9796,50400.6296,44018.6262,55895.1348,749.4986,-581.2347,26255.2947
56950.1817,28312.0126,54070.5621,42442.9625,36932.5429,39509.4305,5815.6103,50384.0894,44016.0334,55895.2689,734.3441,-593.707,26253.1936
56929.3499,28303.6977,54067.9246,42435.05,36918.7295,39499.0593,5813.6433,50364.5539,44004.1423,55886.4623,719.1002,-601.5748,26248.2762
56944.2362,28313.6666,54069.3551,42445.6894,36930.0395,39505.6754,5815.8785,50382.2565,44008.3891,55895.403,728.7115,-597.2832,26249.7067
56976.4674,28323.1884,54075.0772,42463.5261,36956.7275,39515.9125,5819.9912,50412.3867,44020.3696,55903.6285,751.1526,-578.9101,26257.7981
56978.032,28329.4022,54072.5738,42465.2249,36963.0307,39516.2702,5817.9796,50414.1748,44019.565,55906.713,751.9573,-578.5078,26257.2616
56952.7298,28315.5888,54064.4377,42454.8537,36939.8743,39509.6093,5812.9281,50386.5927,44007.7186,55898.0852,734.97,-591.74,26251.0478
56928.5005,28299.3168,54063.7672,42438.9839,36918.5507,39502.0992,5808.3683,50359.3236,43996.2745,55892.3632,714.0487,-605.5087,26241.6601
56936.1448,28302.5801,54062.5155,42441.4873,36927.8938,39504.379,5809.2177,50380.9601,44006.601,55891.0221,721.246,-599.3843,26242.3307
56966.0515,28317.1982,54070.3386,42464.5543,36959.2309,39518.6841,5815.8785,50413.5042,44025.6894,55900.7674,743.5083,-583.9169,26248.4998
56967.3479,28319.9251,54068.4164,42465.1802,36962.6731,39523.0651,5812.4363,50410.8667,44028.461,55894.3748,742.0778,-582.5758,26244.9235
56944.862,28314.1136,54066.2706,42449.4445,36941.1707,39511.9339,5805.4626,50384.3129,44019.118,55886.7753,727.5939,-594.0646,26237.1898
56922.2867,28306.9611,54065.5106,42436.4805,36918.2825,39499.6852,5801.931,50362.7211,44011.2501,55879.4439,714.317,-606.3133,26231.4677
56932.2556,28305.4858,54063.9013,42438.1346,36926.8656,39501.6968,5802.691,50369.3372,44024.8847,55884.5848,728.0409,-598.9373,26236.5639
56963.0116,28318.2263,54067.3435,42454.0937,36960.0803,39513.3197,5810.4694,50401.6578,44046.0294,55898.4876,746.727,-580.8771,26247.561
56959.48,28315.4547,54065.5553,42457.0441,36955.4311,39513.6774,5813.5986,50410.5091,44039.9945,55896.9229,744.8941,-582.0841,26248.2315
56947.723,28307.8551,54067.6564,42452.9761,36930.3972,39509.3411,5814.7609,50392.9406,44022.6942,55886.5964,728.5327,-590.8459,26243.8059
56937.0836,28303.4742,54068.014,42444.9742,36913.5439,39508.5365,5811.9893,50383.5529,44015.4523,55885.3447,713.2888,-601.6642,26244.2082
56944.9961,28304.0106,54065.1083,42445.8683,36926.6868,39511.2187,5811.3635,50394.55,44023.4542,55892.0056,723.9282,-595.6292,26251.2714
56969.0466,28309.5986,54067.6564,42460.9333,36965.3553,39519.2653,5817.1749,50418.1087,44044.5095,55902.4215,745.1624,-577.6584,26259.6756
56965.2468,28309.1962,54066.5835,42460.0393,36968.1716,39512.1574,5814.6268,50424.3672,44042.4085,55901.7509,746.5035,-579.6254,26256.2782
56950.6735,28301.999,54067.5223,42451.6797,36943.7188,39506.6589,5809.7988,50404.9212,44023.0072,55896.1183,733.2712,-594.914,26250.1091
56936.1895,28289.8843,54069.3104,42436.1229,36919.5789,39500.2663,5802.9592,50381.1389,44014.6029,55888.921,718.0721,-610.4708,26243.493
56940.8834,28286.7551,54065.6894,42434.5583,36927.2232,39501.7862,5799.2935,50386.5033,44025.1976,55892.3632,720.1284,-602.6924,26243.6271
56957.2002,28298.0651,54063.5437,42446.8964,36947.1163,39505.3178,5801.5287,50417.7958,44035.6135,55898.8005,737.7416,-590.1307,26246.4434
56956.619,28303.206,54064.5719,42454.8537,36955.8781,39511.5316,5803.0486,50431.6539,44030.2938,55896.3865,745.073,-588.5661,26248.2315
56940.9728,28298.6462,54060.325,42442.2026,36933.0347,39501.4286,5801.484,50403.9824,44025.5105,55891.335,731.7066,-600.3231,26242.5542
56933.2838,28292.5665,54059.0733,42436.704,36917.8802,39500.0428,5806.312,50380.9601,44024.3483,55893.0337,718.9214,-608.8167,26240.319
56945.8455,28289.5267,54059.5651,42441.7555,36929.9054,39507.7765,5806.1332,50393.03,44032.976,55897.8617,728.0409,-602.0218,26244.1188
56971.3712,28301.4625,54060.7274,42456.6418,36954.4923,39522.3945,5807.4743,50423.2049,44046.8341,55902.645,744.3577,-591.5165,26250.6008
56971.3265,28307.9445,54060.9509,42459.771,36958.6051,39521.6793,5808.6365,50430.268,44045.2695,55905.6848,744.4471,-588.9237,26249.5279
56954.7862,28297.2604,54058.5816,42450.9197,36933.2582,39515.689,5803.138,50405.9494,44025.1976,55896.2077,726.4316,-605.1958,26241.7942
56940.0787,28289.3926,54064.3483,42441.3532,36915.645,39508.76,5803.7192,50388.4703,44017.4192,55894.5984,718.385,-614.4494,26242.8671
56949.1535,28296.4557,54068.774,42444.9295,36926.7762,39509.7882,5803.138,50396.4722,44026.047,55899.3816,729.2479,-605.464,26247.6057
56973.0699,28307.9892,54075.1219,42458.7429,36948.4574,39515.5996,5803.0039,50424.099,44037.044,55901.6615,748.6492,-588.3425,26252.5678
56975.3945,28316.2147,54079.1005,42463.5708,36953.1065,39526.1049,5807.206,50433.3973,44049.7398,55909.7081,754.9524,-578.8654,26254.7135
56958.4966,28308.0339,54078.0276,42447.9693,36936.9239,39521.0534,5807.3848,50423.6966,44030.5173,55903.4497,738.3227,-590.2648,26248.9021
56936.8601,28307.274,54077.3571,42434.0218,36912.7393,39511.9786,5805.5073,50406.9328,44023.3648,55897.2806,715.3004,-609.2191,26241.1237
56944.8173,28308.1681,54070.9198,42440.5485,36926.1503,39514.0797,5804.4791,50412.2525,44029.355,55897.7276,721.7377,-604.4358,26239.8273
56968.9125,28313.756,54071.8138,42457.7147,36951.7207,39520.07,5810.0224,50441.9357,44042.2744,55902.4662,744.9389,-584.3192,26245.4599
56969.4042,28317.2429,54067.9246,42455.9265,36949.3961,39518.55,5809.3965,50451.0105,44046.0294,55901.438,746.28,-581.2347,26245.8175
56943.5656,28303.7424,54066.3153,42446.4047,36931.6041,39512.8727,5805.7755,50427.0047,44024.5271,55895.3136,728.6221,-599.429,26238.6203
56930.2887,28291.6278,54064.9742,42434.1112,36914.9745,39503.172,5798.623,50397.6345,44011.0266,55891.1115,720.1731,-612.1695,26234.0158
56937.4859,28293.4606,54063.9907,42441.6214,36922.0376,39510.4587,5796.656,50404.2506,44016.1228,55893.8384,728.7115,-603.0947,26238.4415
56961.6258,28301.8202,54066.2259,42460.7992,36950.5137,39524.3168,5803.898,50438.9852,44035.1218,55906.8024,750.795,-583.1569,26250.0644
56964.0845,28304.413,54071.188,42463.5261,36955.3864,39525.6579,5809.0389,50448.4624,44042.2744,55912.8374,756.5171,-577.4349,26254.49
56954.1603,28306.067,54076.91,42462.9003,36935.851,39522.7075,5813.0175,50438.1806,44032.3949,55910.8257,744.2236,-588.0296,26252.2101
56943.0739,28306.4693,54077.4018,42457.7147,36917.5673,39522.931,5812.6152,50417.8405,44015.2735,55901.438,732.3772,-594.8693,26247.2481
56956.3508,28313.3984,54075.703,42461.5592,36928.0726,39525.5238,5814.8503,50432.9503,44022.1578,55904.3437,738.8145,-588.7002,26247.8292
56980.6695,28327.8376,54079.0558,42479.6641,36961.4661,39533.3022,5819.4995,50463.2592,44043.3472,55911.9433,756.6512,-572.6069,26253.1489
56980.9377,28324.8425,54075.6136,42478.5018,36965.1765,39527.2672,5814.2245,50463.1698,44045.4036,55905.1484,755.9806,-575.155,26248.0527
56960.6423,28318.0475,54071.0539,42465.6719,36944.7023,39520.2041,5807.3848,50444.9308,44028.5951,55896.8782,735.9087,-591.7847,26242.9118
56944.6832,28309.4645,54073.0208,42456.0606,36925.2115,39521.1428,5806.1779,50422.5791,44017.3298,55899.5157,721.9166,-599.1161,26241.9283
56949.7347,28310.582,54075.256,42464.1073,36935.5828,39525.8814,5813.5539,50434.3361,44035.2112,55903.852,733.8077,-588.6555,26248.5892
56972.1758,28327.0776,54079.9499,42483.4192,36965.1765,39538.8007,5820.2147,50466.9249,44060.6028,55918.6488,762.0156,-565.365,26261.6873
56982.0553,28334.7219,54081.738,42485.6544,36972.4184,39545.5509,5823.2546,50481.0959,44066.0566,55918.47,770.241,-560.8499,26265.8894
56967.7055,28331.0115,54083.4367,42472.4668,36949.3514,39543.0923,5818.4713,50467.4613,44058.2782,55915.609,754.4607,-575.8256,26262.3131
56956.0826,28321.1321,54082.185,42461.291,36928.3855,39535.3585,5813.1516,50459.5935,44044.2413,55908.4564,735.0594,-591.293,26255.6076
56962.8328,28318.3604,54079.4134,42467.4153,36929.1455,39538.3984,5811.1846,50470.1436,44046.7894,55911.7198,737.9651,-581.5476,26255.7417
56981.5636,28326.1836,54084.5543,42480.6029,36953.643,39542.7346,5814.8056,50486.505,44059.2617,55920.6158,750.348,-563.5321,26263.4754
56978.8367,28326.6753,54081.8721,42480.424,36955.4311,39538.2643,5811.9446,50492.8529,44054.8807,55922.0016,748.8281,-566.3037,26262.0002
56954.0262,28312.549,54078.6535,42462.3191,36930.576,39527.0884,5810.6035,50466.9696,44044.3307,55915.3855,733.4501,-584.0957,26252.836
56936.5472,28300.3449,54075.703,42443.9013,36910.37,39515.9572,5809.8882,50440.0134,44031.8137,55906.1319,717.8932,-594.2434,26248.1421
56945.4879,28301.1049,54077.3124,42455.3901,36928.3408,39519.6229,5811.0505,50450.1611,44043.7049,55909.4399,726.0293,-590.3095,26248.2762
56956.7531,28305.3517,54073.4679,42461.8274,36948.8597,39519.1759,5808.1001,50465.7626,44057.2053,55914.4914,739.3062,-576.4961,26250.3326
56961.7599,28310.6267,54076.3289,42461.7827,36954.0006,39518.6841,5809.8435,50475.8209,44058.9488,55914.7149,744.0448,-567.2872,26250.0644
56956.2167,28303.9212,54074.1384,42456.5524,36937.5944,39514.6608,5810.2459,50459.4147,44046.5659,55908.4564,735.417,-578.9548,26244.387
56937.6647,28305.5753,54071.2774,42452.842,36915.2427,39513.6774,5810.0224,50445.7802,44036.3288,55900.8121,722.0507,-592.9917,26241.3919
56948.036,28318.1816,54076.9547,42456.1054,36929.9501,39525.1662,5812.3916,50459.6382,44046.3424,55913.5079,726.6104,-586.7779,26247.561
56978.7472,28326.72,54079.6369,42473.8079,36962.7178,39536.9232,5816.102,50490.5283,44060.8263,55924.5944,744.1342,-568.2707,26256.3676
56983.4411,28329.7598,54083.4367,42478.7253,36959.0968,39542.4217,5817.4431,50498.9773,44070.5717,55922.1357,753.3878,-565.8567,26257.7981
56968.4654,28323.3672,54076.1501,42464.7331,36927.0444,39527.8484,5809.3071,50464.3321,44058.2335,55914.3126,732.6454,-580.2959,26251.629
56954.1603,28316.617,54077.8041,42453.8255,36904.6926,39518.5053,5804.5238,50438.4935,44043.7943,55909.4399,718.1168,-595.0481,26243.5377
56961.1341,28317.4664,54080.5757,42459.1452,36922.127,39515.1526,5805.1944,50447.3448,44047.1023,55914.9384,726.8339,-589.1472,26247.2034
56983.6646,28324.1719,54080.7098,42471.5728,36948.5021,39519.31,5808.5471,50470.5906,44060.111,55918.3806,746.8164,-574.8421,26252.2995
56985.6763,28326.0047,54084.4649,42476.4007,36951.0055,39516.8513,5805.4179,50468.0425,44066.5483,55915.2961,755.3101,-573.9927,26255.2947
56966.3644,28322.5179,54084.5543,42469.9187,36934.4205,39513.9009,5806.1332,50449.0435,44055.9983,55908.9929,744.76,-585.6603,26252.836
56944.6832,28311.8784,54079.0558,42457.2676,36912.8287,39507.0612,5801.484,50429.4634,44041.5591,55901.9297,726.6551,-596.7468,26248.9468
56958.9436,28313.756,54079.9499,42466.8789,36928.1173,39514.5714,5800.6793,50445.9143,44053.5396,55902.198,733.9418,-587.1803,26255.1606
56984.6034,28313.9795,54073.4679,42478.5018,36949.6197,39521.3664,5797.0136,50468.1319,44063.5085,55906.9365,751.7338,-576.2279,26257.8875
56990.3702,28310.8056,54076.9994,42481.8546,36949.1726,39530.0388,5794.7338,50473.9881,44065.9672,55906.5789,750.6162,-574.9762,26256.3229
56971.7735,28315.9912,54083.5708,42484.5368,36939.3378,39537.8619,5798.2206,50464.2427,44060.424,55911.0492,745.073,-582.844,26260.8826
56949.9135,28306.1117,54077.6253,42466.9236,36911.4429,39531.2458,5790.5316,50444.2155,44042.5873,55899.2028,726.7445,-601.6642,26254.043
56961.1341,28307.5869,54076.0159,42467.3706,36916.1814,39532.5422,5790.3975,50453.8715,44040.5756,55894.509,730.7231,-595.6292,26250.9137
56978.9708,28318.3604,54073.6914,42481.4969,36943.8082,39538.0855,5793.8844,50477.7879,44051.7515,55905.5507,748.8281,-579.6254,26257.0828
56979.7307,28321.0427,54070.2492,42479.1723,36951.0949,39537.4596,5792.9903,50485.8345,44049.6057,55907.5177,754.0584,-578.1054,26257.3957
56966.1856,28311.789,54071.2774,42467.3706,36934.644,39533.034,5792.8115,50467.1484,44037.7593,55900.1863,741.3179,-585.258,26253.1042
56947.4548,28306.8269,54074.7195,42455.703,36911.6217,39530.0835,5793.348,50440.7734,44024.2589,55893.1231,732.2878,-594.3328,26250.7349
56949.69,28306.6928,54073.3784,42454.809,36922.574,39529.7706,5796.3878,50447.7024,44022.5601,55891.2903,737.7416,-590.2648,26254.8476
56962.1176,28309.8668,54071.3221,42461.4251,36946.848,39530.9329,5795.0914,50473.4069,44028.2822,55894.2407,749.5433,-581.8605,26256.2335
56963.5928,28317.377,54075.1666,42461.0674,36948.4574,39523.6015,5798.9806,50478.2796,44034.4065,55901.438,751.1973,-575.1997,26257.8875
56949.2429,28316.6617,54074.3172,42446.807,36932.0065,39516.449,5803.3615,50455.6596,44012.9489,55890.6645,735.6852,-590.2201,26252.5231
56923.2255,28308.0786,54067.7011,42429.1492,36908.2242,39506.8377,5802.4675,50419.0475,43997.7497,55878.4157,716.418,-607.8333,26246.9798
56921.2586,28309.4198,54068.6846,42432.3678,36915.7344,39510.1458,5808.8154,50423.6966,44003.6505,55884.6295,729.9185,-599.3843,26250.0644
56947.276,28321.5791,54075.3007,42447.7011,36949.4855,39517.3877,5817.7561,50447.3001,44011.3395,55892.4526,749.6327,-581.0559,26259.0498
56951.2993,28330.0728,54078.3852,42457.3123,36955.3417,39512.381,5821.0194,50443.0532,44006.1539,55887.8928,747.7105,-575.4679,26259.3627
56922.555,28327.3011,54082.1403,42448.014,36934.5099,39505.899,5823.5228,50409.615,43991.67,55886.1047,736.4452,-583.3805,26254.043
56899.3539,28324.8425,54081.3804,42438.0451,36917.299,39501.2945,5826.4732,50376.3556,43974.9062,55877.611,724.107,-595.6739,26249.8409
56915.8047,28333.8726,54087.773,42453.3337,36937.5497,39511.5763,5832.6423,50383.24,43980.2706,55882.5284,740.1556,-583.7381,26254.8476
56934.9378,28345.5849,54090.9022,42473.048,36962.7625,39522.3051,5838.3197,50410.7326,43998.5543,55893.9725,754.9971,-567.3319,26261.1955
56935.0272,28348.9823,54088.1306,42476.4901,36963.433,39520.7405,5839.7502,50400.4508,43994.2181,55891.6479,754.7289,-564.6944,26260.1227
56920.8562,28348.9823,54084.1073,42463.0791,36940.4554,39508.76,5839.169,50370.4548,43978.6613,55884.5401,743.866,-578.5525,26256.0993
56893.0507,28340.0416,54076.6865,42444.3036,36909.4312,39494.4549,5829.826,50340.5482,43947.0559,55868.7598,722.9,-599.876,26248.5892
56896.8505,28340.0416,54071.3221,42443.8119,36914.6168,39497.5394,5824.998,50335.7202,43949.9617,55866.9269,727.0575,-595.1822,26249.4832
56919.4704,28349.6082,54069.4445,42456.3736,36938.3544,39505.4966,5824.7745,50359.7707,43960.467,55872.1125,747.8446,-582.3076,26254.7582
56920.0963,28339.4158,54064.3036,42464.4202,36940.8578,39505.3178,5821.8241,50358.4296,43956.1307,55867.5528,753.4325,-580.0724,26253.1936
56893.8106,28327.3011,54063.6778,42456.4183,36908.4477,39495.8407,5814.9844,50321.1021,43939.4116,55858.7015,738.9039,-591.5612,26244.3423
56877.8515,28319.6568,54065.4212,42443.6778,36871.1203,39488.5093,5811.5423,50286.0993,43926.4476,55852.6218,724.4647,-605.8216,26242.0177
56889.9214,28315.6335,54067.2988,42446.4941,36883.3244,39491.0574,5808.9048,50286.6805,43929.8004,55856.2428,732.6901,-601.2619,26244.6553
56911.4685,28321.4897,54072.8867,42454.9878,36908.2242,39501.2498,5810.3353,50309.4792,43943.3455,55862.3224,749.1857,-587.0908,26251.0031
56912.4967,28316.6617,54075.5242,42455.5689,36911.0405,39503.485,5812.1681,50303.7572,43946.296,55862.0989,749.7668,-585.5262,26253.283
56894.0789,28305.7541,54075.9265,42443.2307,36884.6655,39491.9962,5808.5918,50280.6902,43934.539,55856.6898,735.7746,-597.4621,26250.7349
56881.3831,28298.5568,54074.3619,42432.4572,36853.3731,39476.0817,5803.4509,50258.0702,43919.3398,55851.1019,719.4579,-608.4591,26243.0906
56889.2509,28299.8979,54070.3833,42436.8382,36857.8881,39473.936,5802.8698,50256.1033,43924.8383,55852.3536,723.4812,-600.4572,26239.5591
56908.6969,28308.1681,54070.7856,42452.2609,36886.5877,39483.1449,5806.312,50279.9302,43938.4282,55853.4265,740.692,-587.0014,26245.6834
56918.6658,28307.4528,54069.4445,42447.3435,36893.2039,39484.5754,5805.7308,50286.9934,43938.4282,55855.5722,740.692,-586.5991,26247.2928
56897.4316,28298.6015,54065.9577,42437.1064,36869.0193,39476.5735,5798.9806,50264.2393,43931.0968,55856.4663,722.4083,-605.0617,26239.2908
56877.4045,28286.0845,54060.0568,42423.0248,36842.9571,39463.9224,5792.8115,50229.46,43910.8014,55842.5188,705.108,-624.2394,26228.3832
56882.6348,28285.861,54057.2852,42426.1093,36849.3944,39464.1906,5789.5035,50235.2268,43909.2368,55844.5305,714.8087,-617.7574,26231.1995
56907.3558,28294.4441,54058.3134,42435.05,36869.3769,39470.1362,5789.3693,50260.0372,43926.3582,55852.6665,730.4996,-600.636,26232.7641
56915.2683,28295.4723,54063.4543,42436.5252,36873.4449,39468.3033,5794.8679,50263.1217,43924.7936,55854.6335,731.0361,-595.7633,26235.9828
56899.175,28294.7123,54065.5553,42426.5563,36858.8716,39464.1012,5797.2819,50245.4638,43914.0201,55853.1135,715.6581,-604.8828,26236.4298
56894.66,28294.5335,54066.0024,42417.3921,36836.9222,39462.8048,5799.3382,50226.1966,43910.1756,55849.8055,709.5337,-611.0519,26240.9002
56912.5861,28304.1894,54067.1647,42426.154,36848.098,39466.2023,5800.7687,50237.0596,43919.5186,55857.1815,718.7426,-599.876,26242.3307
56933.4179,28314.3371,54070.8303,42442.5602,36888.6888,39479.6133,5805.4626,50268.8885,43943.0326,55868.3574,739.8874,-580.7877,26247.9633
56947.4995,28320.238,54075.256,42442.0238,36903.2621,39486.3635,5812.7046,50285.5629,43955.4155,55871.9784,744.2236,-574.5292,26251.0478
56947.8571,28329.3128,54076.0607,42440.8168,36887.4371,39493.4267,5817.309,50273.0012,43946.0278,55871.129,738.4121,-584.4533,26250.1538
56933.6414,28329.3128,54075.4795,42436.704,36871.7015,39494.5443,5819.9018,50265.9827,43934.226,55861.8754,724.3752,-589.9966,26248.1421
56942.448,28330.9221,54076.8206,42441.5767,36889.3594,39498.2547,5823.1652,50279.1703,43942.0044,55870.7267,729.0244,-583.9169,26250.6008
56955.0991,28331.7268,54079.1005,42452.7079,36908.9395,39501.3839,5826.3838,50306.797,43956.2201,55879.0863,750.4374,-567.6448,26258.2898
56936.9942,28321.8473,54073.602,42448.9528,36902.681,39490.521,5821.9135,50299.7786,43951.571,55869.4303,749.141,-574.3951,26254.3112
56919.8281,28310.7609,54078.2958,42439.5204,36890.3428,39482.2061,5823.9698,50280.422,43948.7994,55872.4254,734.5229,-587.4932,26255.3841
56915.8942,28312.549,54078.4746,42435.0947,36879.4352,39480.2392,5826.6073,50254.4492,43943.3455,55872.9619,723.1236,-592.187,26255.0712
56928.3664,28315.3653,54080.7098,42440.6379,36890.3428,39489.1351,5824.998,50263.4346,43940.4398,55869.922,731.7513,-585.7944,26255.4288
56951.7016,28319.2545,54078.8323,42445.3318,36908.4924,39492.3091,5820.3042,50284.6241,43949.7828,55872.8278,748.9175,-570.1482,26259.4074
56951.0311,28320.685,54076.1948,42444.5719,36907.956,39487.2576,5817.0855,50282.523,43952.9568,55870.1009,749.5433,-568.9412,26257.0381
56931.2721,28313.4878,54071.635,42441.0403,36883.1009,39482.1614,5814.8503,50269.4696,43940.6633,55867.3739,736.177,-581.9052,26249.7962
56915.9836,28304.413,54068.5058,42432.4572,36861.8667,39478.8086,5809.173,50260.663,43928.2358,55862.546,722.3636,-592.947,26244.8788
56916.6988,28310.4032,54068.0587,42434.7371,36875.2331,39481.4014,5809.3518,50272.2412,43936.1483,55860.9366,731.3937,-594.154,26242.4201
56934.1779,28325.6471,54073.0655,42455.3007,36911.8005,39492.7561,5817.5772,50311.3121,43953.6721,55871.9337,756.7853,-577.1667,26251.5843
56947.6783,28338.03,54077.9382,42466.0295,36919.0872,39501.0263,5823.5228,50322.6221,43962.6127,55879.4886,760.5851,-569.5671,26254.7135
56932.3003,28341.5169,54078.564,42459.0111,36906.1232,39503.8873,5822.8523,50300.7174,43949.2911,55875.8676,745.4306,-578.5525,26253.1489
56928.0535,28344.3779,54078.2958,42454.2278,36895.3943,39506.6589,5820.93,50284.2218,43941.1104,55871.1737,733.4948,-588.9237,26251.4502
56945.4879,28342.2768,54078.0723,42460.8439,36896.4225,39518.8183,5819.723,50302.7737,43947.4583,55871.5761,741.7649,-582.4417,26254.8476
56960.9553,28342.098,54074.3619,42465.3143,36918.1931,39528.3401,5819.0078,50325.036,43957.5166,55872.0231,755.0418,-573.1434,26253.5065
56964.3527,28344.1097,54077.9382,42460.7545,36926.5079,39533.481,5818.2031,50340.9505,43968.9159,55876.9405,753.8795,-574.6186,26253.7748
56958.4072,28339.3264,54085.0908,42453.7361,36912.6946,39529.1448,5818.9183,50334.4238,43973.5651,55881.7685,745.4753,-580.9218,26257.7534
56941.1963,28329.6257,54080.531,42449.8916,36891.7733,39522.7522,5816.415,50303.2207,43963.1492,55871.4867,731.0808,-592.5447,26253.5959
56940.5258,28319.1204,54078.9217,42445.5553,36902.681,39520.4723,5810.9611,50304.9642,43972.4028,55868.715,732.3772,-590.3542,26253.1936
56967.7949,28328.9999,54086.7001,42460.6204,36935.4934,39527.3119,5815.5209,50335.9437,43992.6088,55880.4274,752.9855,-569.7906,26260.3462
56972.4888,28336.1077,54087.6836,42462.9897,36942.5118,39530.4412,5819.7677,50348.9077,43993.7711,55882.3496,759.8251,-563.9791,26263.2072
56955.1885,28333.8279,54087.2365,42454.2725,36920.5624,39525.3003,5819.5889,50328.657,43983.3105,55877.4769,747.7105,-576.9879,26256.9487
56940.3023,28330.8774,54086.566,42448.6846,36900.2223,39523.5121,5822.1817,50308.764,43969.9441,55868.7598,735.5511,-587.1803,26255.5182
56948.7959,28333.7831,54088.0412,42456.1501,36918.2825,39528.9212,5824.2828,50321.8621,43975.845,55870.5926,745.073,-581.637,26258.8263
56971.2818,28341.4721,54087.46,42462.185,36948.4574,39532.4081,5826.4732,50349.6677,43988.2725,55880.4721,763.8037,-570.5506,26262.2237
56973.0699,28345.1378,54087.1471,42463.3026,36950.2455,39528.3401,5827.7696,50349.5783,43999.5378,55886.8647,769.8387,-567.2425,26262.179
56954.6968,28340.3546,54089.1141,42451.8138,36929.5031,39517.9242,5825.9368,50321.728,43991.9829,55883.2437,750.7503,-579.3124,26258.7816
56934.5802,28337.0912,54090.0975,42435.8994,36901.2058,39513.3644,5825.6239,50300.4044,43975.0403,55874.3477,732.5113,-591.6953,26253.7748
56946.2478,28339.9075,54087.9965,42440.5932,36910.6829,39513.5432,5829.7813,50317.9729,43980.36,55878.7286,742.7037,-583.6934,26259.4968
56964.3527,28348.9823,54089.5611,42450.5174,36943.6741,39520.07,5836.0845,50346.2702,43989.7031,55888.1164,761.2109,-569.6565,26263.2519
56973.204,28357.6101,54094.6573,42455.3901,36945.4622,39519.5782,5839.3925,50353.4228,43992.6088,55890.3515,770.1963,-565.4991,26262.9837
56961.1341,28354.4809,54095.3279,42445.1083,36925.2115,39508.76,5839.4819,50339.52,43990.2395,55898.8452,752.7173,-574.261,26261.4638
56942.5821,28341.7404,54090.1423,42430.2667,36903.6645,39504.6026,5833.1788,50316.5871,43978.8848,55888.0717,732.7348,-588.4767,26256.0993
56957.7366,28349.5188,54090.187,42444.3483,36922.0823,39516.3596,5837.1127,50333.3062,43982.5058,55895.2242,747.1293,-574.3057,26263.7883
56978.5684,28357.1631,54091.7963,42457.8488,36946.5798,39524.6744,5839.2584,50359.3236,43996.0063,55902.1086,767.9164,-555.1726,26268.8398
56971.0582,28349.4294,54085.9848,42456.5524,36941.2601,39521.5899,5836.1739,50357.2226,43995.9615,55900.4098,760.0933,-559.6876,26266.3811
56960.1059,28340.0863,54087.5047,42452.5291,36925.2563,39523.0651,5836.0845,50346.4043,43988.8537,55897.3253,750.3927,-567.8236,26264.5036
56949.69,28328.9552,54087.1918,42440.8168,36909.0736,39518.5053,5833.6258,50329.9534,43973.0287,55888.921,739.9768,-582.9781,26261.1061
56957.4237,28333.6937,54085.359,42448.1481,36923.2446,39518.6841,5833.1788,50325.349,43980.4047,55890.3068,747.174,-580.8771,26261.1508
56969.583,28333.6937,54083.4367,42454.2278,36937.1921,39516.3596,5831.793,50342.6939,43987.4679,55893.4361,759.8698,-571.0423,26260.3015
56967.8396,28333.6937,54087.773,42456.0606,36941.5283,39515.5549,5832.0165,50351.5005,43991.2677,55892.989,758.8416,-563.2192,26259.8991
56945.7114,28325.96,54085.5378,42442.1132,36921.0094,39508.8941,5831.6588,50321.7727,43979.153,55888.474,746.1011,-573.7692,26254.7135
56924.5666,28313.9795,54082.0509,42431.5631,36896.3778,39504.4684,5827.1438,50304.0701,43957.8742,55877.4322,732.0642,-590.1307,26246.8904
56933.9097,28309.5539,54082.4533,42439.3862,36908.8501,39505.4519,5822.7181,50310.9992,43967.5748,55874.8394,736.9816,-585.0345,26249.1703
56949.0641,28318.3157,54086.7895,42448.5952,36942.4224,39518.1477,5829.0213,50334.5132,43985.9927,55886.507,760.9874,-565.0073,26258.7368
56954.205,28323.2778,54088.8906,42454.6748,36949.3961,39520.7405,5836.0398,50340.414,43990.7312,55892.1397,770.5092,-556.7372,26261.8661
56939.2741,28317.6899,54089.1141,42448.2375,36922.9764,39513.5432,5833.7152,50325.6172,43983.8916,55893.2126,756.6065,-567.3319,26258.7368
56926.9806,28307.0058,54087.2365,42437.1511,36902.681,39504.379,5827.7249,50305.4559,43967.9325,55881.7685,738.1886,-583.9616,26254.7135
56940.3023,28309.0621,54090.5893,42449.7575,36921.4118,39512.2916,5831.793,50321.5045,43976.739,55881.0979,749.8562,-575.6021,26259.0051
56964.7551,28321.2662,54094.0762,42464.7778,36954.6711,39521.3664,5840.5101,50353.3781,43999.7613,55894.9113,772.9232,-558.7935,26267.454
56964.6657,28318.4946,54092.3327,42461.9615,36957.2192,39526.999,5837.5597,50366.9232,43998.4649,55890.888,775.9631,-561.3863,26264.4142
56937.0389,28308.7492,54090.8575,42454.1384,36939.5614,39518.3265,5835.548,50346.002,43989.256,55885.0765,766.5753,-571.1317,26259.9438
56915.2236,28306.7375,54092.6009,42445.4212,36916.9414,39515.242,5834.7434,50315.4695,43974.8168,55879.3098,751.5997,-581.8605,26258.111
56929.7969,28312.0126,54091.4834,42448.9975,36924.4516,39513.3644,5833.4917,50319.4928,43978.2143,55881.2767,752.6278,-583.4699,26254.1771
56955.1885,28320.8638,54087.6389,42458.8323,36952.3913,39517.8795,5835.9057,50345.1079,43994.3075,55893.6149,766.8436,-571.5787,26257.664
56952.1487,28322.2944,54085.0908,42462.5874,36957.2192,39518.5053,5833.8046,50346.3149,43996.3192,55891.335,768.0506,-568.1366,26255.7417
56942.7609,28317.1535,54088.0859,42451.9032,36932.9453,39515.3314,5829.7366,50316.9447,43989.3454,55885.9259,753.8348,-572.4728,26252.5678
56929.6181,28313.6666,54089.2035,42433.5748,36905.1397,39506.0778,5827.5014,50297.3646,43973.3416,55881.992,731.6172,-586.7779,26251.7184
56934.0438,28311.7443,54084.9119,42432.5466,36915.1533,39508.0,5827.2779,50308.0934,43975.5321,55880.3827,733.763,-582.0841,26253.0595
56951.3887,28313.0854,54083.8838,42451.8138,36939.2037,39512.6492,5828.9766,50344.035,43989.8372,55883.2437,755.1759,-565.9908,26260.6591
56954.3839,28318.584,54082.7662,42457.4018,36940.9025,39505.9884,5829.6472,50357.2673,43999.0014,55887.3564,757.6346,-564.4262,26260.4803
56943.6997,28313.0407,54080.2181,42442.2026,36918.3272,39499.8193,5825.4451,50341.1293,43997.0791,55885.2106,742.659,-579.8936,26254.49
56920.4092,28306.1564,54078.9217,42430.9373,36896.0649,39497.2712,5822.897,50320.074,43985.4562,55878.2369,733.003,-586.5991,26251.3161
56934.312,28306.1564,54081.9615,42436.1229,36908.1348,39502.2333,5824.5957,50326.556,43995.3804,55879.7121,740.8708,-580.3853,26253.5959
56969.136,28316.9746,54082.0509,42458.877,36943.0929,39510.6375,5827.0544,50349.623,44006.0198,55888.0717,759.5569,-563.9791,26254.5794
56967.5267,28319.6121,54078.6982,42457.1782,36941.6624,39509.967,5826.6521,50354.4956,44003.9635,55890.2621,758.8863,-562.9957,26252.0313
56956.0379,28316.6617,54081.4698,42447.3435,36924.1834,39500.7133,5822.6734,50344.3927,43987.9596,55882.8413,750.7056,-577.3008,26249.1703
56936.2342,28306.6034,54081.1568,42436.7934,36905.4079,39493.4714,5817.8455,50327.5394,43981.0306,55880.8297,738.0098,-589.4154,26247.6057
56942.4927,28306.7822,54078.7429,42436.6146,36913.5439,39493.5608,5818.4266,50330.6687,43992.1618,55882.2155,740.7367,-582.0394,26247.9633
56966.275,28313.9795,54078.0723,42446.7176,36942.8247,39497.4947,5818.1584,50352.2605,44009.9537,55886.2388,751.6444,-568.673,26248.9468
56966.722,28314.6948,54080.5757,42448.6846,36943.4059,39496.1983,5816.5044,50362.9446,44013.7535,55893.7043,749.3645,-569.9247,26250.869
56942.8951,28312.4596,54080.8439,42435.6759,36921.4118,39489.8504,5811.8999,50346.6725,43995.6039,55893.3914,728.6221,-585.7944,26245.594
56932.3003,28305.2623,54083.1238,42430.4008,36905.4079,39487.8387,5813.8222,50330.7581,43993.0558,55890.888,722.453,-597.3279,26243.8953
56946.1137,28305.62,54085.7613,42440.6379,36919.5789,39497.5394,5820.7512,50343.6774,44009.7749,55891.8267,736.9816,-584.9451,26252.2995
56966.1409,28314.6948,54090.5893,42447.9246,36944.2999,39511.2634,5825.1321,50372.6006,44028.1034,55897.9958,754.5054,-567.5554,26259.765
56972.3994,28321.8026,54093.4056,42451.9926,36950.2902,39513.275,5824.5957,50385.654,44025.3317,55905.7742,752.9855,-567.2425,26260.972
56961.0894,28313.5772,54087.9071,42444.3036,36928.0279,39506.2119,5821.7794,50369.6948,44011.0713,55900.6333,736.2664,-580.5641,26253.5959
56942.001,28313.8901,54085.5825,42432.7254,36909.3865,39505.0943,5819.9018,50358.1613,44008.0315,55895.2689,727.3704,-589.8178,26249.9303
56949.69,28317.2876,54084.5543,42440.7721,36920.473,39509.0282,5820.93,50361.0224,44015.7652,55895.9395,734.2994,-583.8275,26251.5843
56966.4538,28325.066,54086.7001,42454.3619,36957.1745,39518.103,5823.6569,50382.8377,44027.6116,55898.0405,749.9903,-568.673,26254.8476
56975.9309,28331.9503,54093.3162,42456.1501,36957.6663,39518.9971,5825.4451,50403.2671,44036.9099,55898.0852,752.9855,-564.3368,26256.4123
56957.7813,28323.9484,54091.2151,42449.0422,36937.8179,39512.068,5821.0194,50381.9436,44018.4474,55887.7587,738.5015,-578.2396,26251.8078
56932.0768,28314.7395,54082.2744,42438.0004,36919.713,39505.9437,5816.1914,50355.5238,44002.6671,55875.9123,723.7047,-593.8411,26244.7894
56938.5588,28315.2312,54081.4251,42443.0966,36930.0395,39512.0233,5812.5257,50365.5374,44020.6826,55879.0863,735.3276,-584.4086,26246.8904
56963.2351,28322.9202,54075.5242,42453.4678,36956.3252,39521.8581,5814.001,50388.3362,44033.4231,55887.0882,753.9243,-568.3154,26250.6902
56961.5364,28324.9319,54076.9547,42452.842,36956.1017,39519.3994,5816.3255,50396.6063,44036.3288,55892.9443,755.3548,-574.261,26248.8127
56947.723,28319.7463,54080.6204,42447.8799,36938.3991,39514.6608,5817.1749,50388.9173,44025.6447,55889.8598,738.6357,-583.3358,26245.147
56935.4296,28318.3604,54082.4085,42442.3367,36924.8539,39512.4704,5814.1351,50365.3139,44010.2667,55884.4507,725.4928,-588.7002,26245.6834
56934.9378,28317.6005,54079.6816,42440.6379,36928.0279,39514.8396,5812.5257,50376.7133,44022.0684,55888.2058,726.9233,-585.9286,26243.6718
56954.8756,28323.1884,54075.6136,42451.2327,36948.9938,39517.0748,5811.8105,50404.653,44031.6349,55891.1562,740.4685,-578.8207,26245.4152
56963.3245,28326.5412,54078.0723,42450.3386,36953.643,39518.6841,5813.0622,50401.3896,44032.2161,55898.2193,749.4092,-571.534,26252.7913
56950.4052,28322.652,54082.945,42446.6729,36941.8859,39514.5267,5817.4431,50386.3692,44023.5436,55906.6683,744.2236,-576.5408,26254.1771
56938.2906,28314.6054,54082.0062,42436.5699,36924.5857,39508.3129,5816.5938,50369.2478,44015.0052,55894.1066,730.4996,-588.879,26250.2432
56937.6647,28310.2244,54080.6204,42440.5038,36930.3524,39508.0,5815.4762,50380.5131,44022.1578,55890.7539,738.5463,-586.1521,26251.4949
56955.1885,28314.7842,54083.0791,42452.082,36952.6148,39517.1195,5816.5044,50408.0504,44036.1053,55897.5935,752.9855,-570.9976,26255.7864
56966.4985,28323.4119,54087.9071,42459.6816,36969.3339,39519.9805,5824.3722,50425.9765,44036.2841,55905.0143,763.4461,-564.2474,26259.765
56947.2313,28313.0854,54086.6554,42442.9625,36948.5021,39511.0399,5821.1535,50401.8813,44024.9741,55899.7393,749.2751,-579.6254,26255.4735
56935.1614,28305.8882,54082.7662,42432.1443,36926.2397,39505.7201,5816.6832,50373.0923,44012.2783,55894.7772,733.003,-594.2881,26250.3773
56947.9018,28309.8221,54082.0509,42436.6593,36926.2844,39511.4869,5819.6336,50376.2662,44021.4425,55896.5206,738.9486,-588.4767,26251.4502
56980.7589,28320.5062,54085.1355,42459.6816,36964.193,39525.6132,5826.2497,50405.0106,44040.0392,55908.2776,761.0321,-568.3601,26259.6309
56984.5587,28321.6238,54082.8109,42458.5193,36961.779,39523.2439,5821.1982,50414.8453,44041.5144,55905.953,755.4442,-568.2707,26255.6076
56964.8445,28310.3138,54079.4581,42445.1083,36930.6207,39512.9621,5815.3868,50390.6161,44034.4512,55895.1795,737.4287,-583.8722,26249.9303
56951.3887,28306.6034,54081.9615,42437.9557,36917.4331,39509.654,5813.1069,50377.4285,44025.6,55898.7558,726.6104,-596.0763,26248.7233
56962.0728,28307.2293,54081.2016,42441.7555,36922.887,39517.7901,5812.3022,50389.9008,44020.4591,55897.817,732.1537,-593.3493,26247.6504
56987.8668,28319.9698,54082.185,42457.5359,36959.4097,39528.1166,5817.1749,50420.2992,44031.4561,55901.7509,751.5103,-573.9033,26252.7466
56999.3556,28329.0893,54083.9285,42463.9732,36967.2775,39528.2954,5820.2147,50433.7996,44042.5873,55909.4399,758.1264,-570.3717,26254.9818
56985.274,28323.4119,54086.7895,42458.0723,36950.5137,39523.7356,5822.7628,50421.2379,44039.9051,55906.7577,752.002,-579.0889,26252.9701
56964.0398,28315.4994,54085.5825,42449.1763,36930.7995,39520.6064,5821.377,50402.7754,44028.1481,55898.9346,739.2168,-588.5214,26247.7398
56964.6657,28318.584,54085.806,42455.8818,36940.4554,39526.8202,5820.8853,50413.3701,44042.6767,55901.0804,743.106,-580.3853,26252.5231
56991.3089,28329.7598,54088.5329,42474.0762,36977.4252,39538.7113,5828.0826,50444.752,44059.9769,55910.6469,765.4577,-567.5107,26261.2402
56996.8075,28333.2467,54092.288,42468.4435,36982.7002,39540.0971,5826.3838,50452.7092,44063.9555,55915.8325,769.034,-565.4544,26262.4472
56981.4295,28334.5431,54095.9537,42461.3357,36957.4428,39539.203,5828.619,50434.1573,44054.2102,55916.1901,762.552,-572.6516,26261.1508
56967.3479,28322.9649,54094.7467,42454.4513,36931.8277,39529.5471,5826.4732,50404.2059,44044.8225,55914.3126,750.0798,-583.604,26261.1955
56970.8794,28324.3507,54097.0266,42455.1666,36942.6459,39529.5024,5828.8425,50416.5441,44048.9799,55914.5361,753.7901,-579.1783,26265.04
56983.8881,28334.6772,54100.2899,42465.6719,36966.2493,39536.5655,5830.273,50454.4973,44059.9322,55922.4933,768.1847,-561.2075,26267.9458
56981.3848,28328.7764,54094.1209,42458.2958,36964.2824,39528.2954,5820.7959,50450.474,44059.5746,55917.3524,763.8931,-567.1531,26262.3131
56969.8513,28327.5694,54090.1423,42457.4018,36944.6576,39524.9873,5818.3372,50422.5791,44043.9284,55909.0376,754.1925,-580.0277,26259.9885
56956.0826,28318.3604,54088.22,42446.4494,36923.2893,39515.8231,5814.9844,50410.6432,44029.0868,55901.1251,740.3344,-594.154,26251.7184
56962.654,28318.4052,54085.7613,42438.7157,36928.3408,39513.0068,5810.3353,50417.9299,44025.7341,55899.2475,741.2285,-592.8576,26251.4055
56981.7871,28321.8473,54081.3357,42450.0257,36951.0949,39523.7356,5812.2575,50430.581,44035.4347,55898.5323,749.3198,-582.6652,26251.182
56985.8998,28324.6636,54082.9003,42450.6962,36960.6614,39523.378,5813.0622,50441.3098,44045.046,55906.713,749.8562,-581.2794,26250.5114
56972.2652,28322.3391,54086.4766,42445.4212,36942.4671,39516.6278,5813.0622,50431.475,44042.7214,55907.6965,740.0662,-585.4368,26250.6902
56959.2565,28311.7443,54088.7117,42440.3697,36918.506,39514.9738,5810.8717,50409.7939,44031.1879,55901.8403,731.1255,-598.8032,26247.6951
56965.9621,28307.8551,54090.3658,42446.0471,36929.056,39517.2983,5814.0457,50419.8521,44045.6718,55906.1766,740.3791,-592.0976,26251.8078
56979.6413,28315.5888,54084.2414,42457.2676,36958.7392,39521.6346,5818.2478,50452.7092,44057.25,55913.4185,758.6628,-578.776,26253.5959
56977.4508,28317.6005,54081.7827,42462.3191,36962.3154,39526.7755,5815.7891,50462.3652,44055.8642,55911.4963,758.4393,-580.1171,26251.1373
56953.0427,28310.4479,54079.7263,42440.9062,36938.1309,39513.9009,5808.0554,50440.5946,44039.9498,55901.885,736.6687,-595.4057,26243.0906
56941.9116,28310.8503,54078.0723,42437.1064,36913.0075,39507.1507,5807.5637,50417.9746,44029.0868,55899.6052,728.8903,-606.0004,26239.872
56949.4218,28320.5062,54083.392,42448.2822,36927.2679,39515.7784,5816.0573,50440.0581,44040.4862,55909.887,738.4121,-594.7351,26252.7019
56969.896,28327.5247,54089.1141,42456.91,36956.1017,39522.8863,5823.8804,50473.9434,44059.3511,55919.8558,757.8582,-575.8256,26260.2121
56974.3216,28327.5247,54091.081,42465.5825,36969.2445,39523.1992,5820.7959,50477.9667,44062.6144,55921.5546,764.4296,-568.673,26260.972
56965.4703,28320.238,54092.9139,42459.2793,36948.0997,39524.9873,5823.8357,50461.5605,44046.7,55918.4253,751.4209,-579.3124,26259.1839
56951.2993,28315.9912,54091.6175,42441.3085,36924.988,39520.07,5825.9368,50440.8628,44040.0392,55908.0094,737.384,-590.2648,26255.3841
56965.068,28325.513,54093.6291,42442.7837,36937.7732,39523.8698,5827.9485,50448.6859,44049.9634,55910.1552,742.7484,-580.4747,26256.3676
56996.6286,28333.202,54095.909,42458.0723,36965.6682,39534.3751,5829.9601,50481.0959,44069.4094,55921.2416,760.451,-562.0122,26264.4142
56996.0922,28335.4372,54090.9469,42456.1948,36963.7907,39525.1215,5824.104,50470.68,44063.6873,55922.0016,758.2158,-568.5389,26259.318
56971.4159,28327.167,54089.5611,42447.9693,36942.6012,39518.7736,5820.1253,50442.5168,44051.3492,55915.7878,744.7153,-581.7711,26250.9137
56943.8785,28317.1982,54085.5378,42437.1958,36914.1698,39512.068,5817.2196,50422.3108,44042.3638,55913.0162,728.3986,-596.6127,26247.9633
56952.1487,28318.8969,54081.6486,42446.8964,36924.1834,39516.3149,5819.1866,50430.581,44050.7233,55912.2115,736.7581,-590.7118,26251.182
56979.1496,28323.8143,54083.7944,42462.945,36956.057,39524.7191,5820.3042,50448.1941,44066.1907,55919.7664,755.8912,-574.708,26256.1888
56978.9261,28314.8289,54085.1355,42458.877,36960.9296,39521.3217,5816.9514,50454.0056,44067.0848,55918.023,757.9923,-571.2658,26256.4123
56957.6919,28302.2672,54080.3522,42445.9577,36938.6673,39514.5714,5813.5986,50436.0348,44052.2879,55913.955,742.4802,-586.5097,26252.4337
56941.1963,28302.893,54080.8439,42443.7672,36920.5177,39511.4422,5816.7279,50422.3108,44044.1072,55907.6965,736.7581,-592.4553,26249.5726
56947.5889,28308.3469,54081.1121,42451.6797,36933.5711,39516.2702,5818.5607,50446.2272,44050.321,55910.2446,746.3694,-585.8839,26250.9584
56964.6657,28322.2049,54081.3804,42464.7778,36956.3699,39529.3236,5822.4499,50480.8724,44065.4755,55919.2747,762.1497,-570.8635,26253.5959
56972.7123,28328.8211,54086.1189,42471.3492,36963.7012,39532.7657,5824.4169,50493.0764,44073.6115,55920.6158,765.5025,-566.1249,26253.7301
56968.9125,28323.8143,54087.9965,42468.8458,36957.9792,39533.7939,5822.137,50485.611,44065.0284,55923.7897,746.5929,-577.5243,26252.4784
56959.9718,28323.4119,54091.1704,42462.3191,36939.472,39530.6647,5825.6686,50469.92,44059.6193,55919.0065,736.5346,-588.0296,26252.4337
56962.2964,28322.6967,54090.634,42460.084,36943.1376,39533.7045,5827.8143,50472.3787,44065.5202,55918.2912,742.7931,-582.5758,26257.0828
56973.3828,28321.3109,54092.3774,42468.1306,36965.1318,39538.0408,5830.3624,50497.368,44079.5124,55926.2037,762.1944,-565.0073,26261.9108
56969.1807,28318.4499,54087.4153,42467.3706,36966.5623,39529.2342,5826.3838,50494.5517,44080.1382,55921.1969,759.1993,-563.845,26258.5133
56952.9533,28309.7774,54086.6554,42454.1831,36943.3612,39518.1477,5819.7677,50468.0425,44065.8331,55917.576,742.7037,-576.2726,26253.9536
56951.7016,28303.4295,54090.4999,42450.3386,36922.9764,39513.8115,5816.4597,50441.7568,44047.2811,55914.3126,729.5161,-584.5428,26252.836
56969.5383,28305.3964,54089.6058,42461.9615,36934.7781,39522.8416,5818.9631,50455.1679,44052.1538,55913.4632,742.3908,-579.8936,26256.4123
56990.7278,28314.9183,54089.9634,42475.2831,36957.1745,39530.5306,5818.516,50476.6703,44063.4638,55915.7431,756.2488,-569.8353,26256.9934
56986.6151,28319.031,54085.4484,42468.667,36950.9161,39527.3566,5810.4247,50473.3175,44059.664,55907.8753,750.6162,-575.3785,26249.1256
56962.7434,28311.5655,54080.7098,42454.2725,36926.8209,39519.9358,5802.8698,50452.2622,44043.839,55900.8569,734.0759,-590.4883,26243.8059
56943.5656,28312.2808,54080.3075,42445.913,36910.37,39519.8464,5800.1876,50435.4089,44040.9333,55897.5041,721.2013,-599.2055,26244.1635
56960.687,28319.2098,54081.2463,42452.3503,36928.3855,39534.1516,5802.7804,50444.2602,44043.6155,55899.6499,736.7581,-589.3707,26244.9682
56989.6549,28328.9999,54085.0013,42470.3211,36957.4875,39544.5675,5810.0671,50471.7976,44059.0382,55909.7081,760.9874,-573.1881,26252.836
56994.7511,28326.8541,54085.9848,42466.6554,36960.2144,39542.0641,5810.2906,50487.0415,44058.2782,55913.5079,760.0039,-568.673,26255.2053
56979.6413,28322.8755,54088.7117,42455.9265,36936.9686,39540.6783,5808.2342,50477.2961,44051.0809,55908.5906,745.2518,-576.6302,26253.0148
56960.7317,28318.1369,54087.6836,42451.6797,36916.092,39537.8619,5809.4859,50452.7986,44048.0411,55905.5507,736.177,-587.8508,26252.076
56973.4275,28327.2564,54088.4882,42459.2346,36930.6654,39546.4003,5814.0904,50457.4925,44051.4386,55906.8918,745.0283,-581.9499,26260.6591
56996.5392,28331.3692,54091.8857,42471.3939,36962.8966,39547.3391,5821.7794,50487.3991,44056.5348,55915.609,764.2508,-566.7955,26263.0284
56996.1816,28329.4916,54089.0694,42468.4435,36967.4563,39543.9416,5821.8688,50491.6459,44054.0761,55914.5808,761.7027,-565.1414,26261.3297
56976.4227,28319.3439,54084.7778,42455.3007,36945.4622,39535.2244,5815.5209,50469.473,44036.3288,55900.5886,745.6541,-577.3008,26257.2169
56958.5413,28315.41,54089.9187,42446.8964,36927.2679,39527.3119,5816.0126,50441.3545,44020.8614,55903.092,738.6804,-586.1521,26255.9652
56966.6326,28317.7793,54094.0762,42451.5009,36940.3213,39524.2274,5818.516,50438.8958,44020.1014,55907.2047,739.6191,-581.9499,26254.9371
56972.8911,28320.8191,54092.9586,42459.6369,36963.7012,39529.0554,5824.3722,50452.6198,44025.5105,55912.1221,756.1594,-569.5671,26257.4404
56960.7764,28322.1602,54089.5164,42452.3056,36962.4496,39520.3829,5822.6287,50450.6528,44016.6593,55907.4283,754.1925,-570.7741,26254.5794
56952.5063,28326.72,54094.0315,42454.1384,36953.0618,39519.4441,5827.6802,50429.0611,43999.2249,55900.8569,744.313,-580.6088,26253.3724
56936.9048,28324.4848,54092.0645,42441.6661,36925.301,39514.2585,5827.859,50392.4936,43986.3503,55896.8335,732.3772,-593.9752,26247.4716
56938.4247,28326.0494,54090.7234,42442.6496,36932.4088,39513.0515,5828.3061,50381.8542,43988.362,55896.9229,740.3791,-589.5048,26245.7281
56955.4567,28332.6209,54091.6175,42452.3056,36959.3203,39516.2255,5832.5976,50395.7123,43999.3143,55902.3321,754.5054,-574.6186,26250.6902
56951.1205,28334.4537,54089.6952,42447.0752,36955.3864,39512.5598,5830.9436,50397.7686,43981.2094,55895.8501,754.7289,-576.5408,26251.1373
56935.3402,28338.1641,54090.9469,42444.3036,36945.7304,39507.2848,5835.101,50374.0758,43970.57,55891.6926,747.8446,-589.8625,26252.4337
56917.7717,28333.5596,54093.495,42437.0617,36926.9103,39502.725,5839.3031,50343.2304,43960.1988,55884.6295,734.9253,-599.429,26251.4055
56916.5647,28333.8279,54093.7185,42444.4377,36925.7033,39506.6142,5840.8678,50339.9223,43960.0199,55884.093,736.2664,-592.9023,26250.8243
56936.5025,28341.8298,54098.323,42465.7166,36953.3747,39518.55,5844.5781,50364.5986,43985.2774,55899.2028,759.4228,-571.7129,26260.3909
56936.3236,28346.613,54093.6291,42466.9236,36958.1133,39515.4208,5846.0087,50364.7774,43983.6681,55892.2291,767.8717,-574.0821,26261.6873
56917.5035,28337.6724,54092.6456,42455.256,36932.9453,39510.2352,5843.9076,50346.8513,43963.9986,55879.3098,752.9855,-586.7332,26253.1489
56903.4666,28332.8444,54096.9819,42451.0092,36911.0405,39504.8708,5845.5169,50322.0856,43951.6604,55886.0153,743.6872,-592.8129,26253.7301
56913.3908,28329.6704,54097.0713,42454.496,36912.9628,39503.3956,5846.5898,50324.4549,43957.8295,55885.1659,749.9456,-584.051,26261.0614
56927.7853,28335.9736,54097.2948,42463.1238,36929.2349,39508.8941,5845.2934,50341.174,43970.0335,55886.4623,765.3683,-568.8518,26261.5532
56938.8717,28344.6461,54099.3512,42473.8526,36939.2037,39510.8163,5845.9193,50346.0467,43968.9159,55888.8316,770.5092,-567.7789,26262.3131
56920.3645,28343.1709,54098.5465,42456.5524,36915.7344,39501.2051,5841.6724,50313.7261,43952.1968,55878.4157,755.9359,-583.1122,26255.5182
56898.9068,28333.1126,54096.9372,42445.0189,36886.4983,39495.4383,5837.4703,50284.9817,43936.4165,55870.3691,741.452,-594.8693,26249.3938
56903.6007,28333.7831,54097.4289,42453.1549,36896.646,39494.5443,5840.6442,50290.8826,43945.3572,55869.6538,748.9175,-587.225,26254.3112
56923.449,28332.3079,54093.5397,42459.5028,36918.6401,39496.3324,5836.7103,50316.8553,43953.4932,55873.2301,761.9262,-577.4349,26254.7135
56925.9971,28321.9367,54088.8906,42454.9431,36915.2874,39495.1254,5829.6025,50314.5754,43945.3572,55865.8987,763.4461,-586.1521,26247.3822
56894.7047,28304.3683,54081.3357,42434.7818,36879.167,39476.6629,5817.9349,50270.4084,43919.8762,55851.0572,739.3062,-606.1345,26234.1946
56877.5386,28294.757,54078.4746,42423.5612,36848.9027,39463.4753,5814.0904,50237.9537,43904.7664,55845.961,723.213,-618.9197,26229.4561
56890.6367,28300.3896,54075.5689,42428.9256,36861.822,39466.5152,5814.3139,50238.1772,43910.8461,55849.0008,734.5676,-610.0237,26232.63
56910.4403,28303.0719,54074.809,42446.9858,36893.3827,39472.1031,5816.6385,50259.8584,43922.7819,55851.1019,753.4325,-595.2269,26236.251
56909.4568,28296.3663,54073.9596,42442.5602,36894.8579,39469.1527,5811.1846,50262.5853,43925.1065,55852.4877,754.9524,-596.8809,26238.665
56894.0789,28287.8727,54066.7623,42431.742,36873.7131,39460.0332,5806.7143,50238.356,43911.8296,55849.2243,740.7367,-611.4095,26234.8205
56883.1265,28284.0729,54063.9013,42424.5447,36856.3235,39457.351,5809.9329,50218.91,43897.7927,55844.0834,723.9729,-621.0208,26233.9711
56892.6483,28277.0097,54064.2142,42418.0627,36859.5421,39460.1673,5810.0224,50218.8206,43900.6984,55842.0718,729.2032,-615.3882,26238.3968
56917.0564,28283.8494,54068.2375,42434.9159,36891.818,39472.2372,5819.0078,50244.7486,43918.8927,55848.7773,750.1692,-593.1258,26247.7845
56922.6444,28285.414,54070.3386,42438.4028,36898.613,39475.3665,5822.7628,50247.252,43930.6498,55855.1699,752.9855,-588.2531,26250.5114
56911.9602,28278.172,54069.221,42433.4854,36881.8492,39470.4044,5819.1419,50223.6038,43921.7091,55845.7375,744.9389,-600.2337,26246.7116
56892.4695,28268.382,54068.1034,42420.432,36858.514,39460.659,5815.6103,50200.3133,43911.1143,55845.2904,732.9583,-606.9392,26245.2364
56902.5278,28268.1584,54062.7837,42420.5214,36865.89,39461.7319,5813.6433,50216.0043,43915.0035,55845.3798,738.7251,-600.0549,26247.3822
56922.0185,28268.5608,54061.9791,42432.5019,36886.6324,39470.5385,5814.2245,50248.906,43932.7061,55850.6548,758.3946,-584.0957,26254.6241
56922.555,28269.3207,54063.2308,42432.8148,36889.0464,39476.4841,5815.1633,50259.1878,43941.1551,55858.4332,761.0768,-579.7595,26256.457
56896.0905,28262.5258,54058.2687,42414.2629,36866.4712,39461.866,5809.3518,50240.8147,43930.0239,55852.7559,739.2168,-599.7866,26245.8622
56871.9506,28257.1614,54056.8382,42397.9014,36836.2516,39450.3325,5801.1264,50210.1928,43917.2834,55841.9824,720.2178,-615.8352,26236.4298
56875.1693,28250.277,54053.9324,42404.8752,36846.5781,39452.5677,5797.0583,50217.9265,43922.3796,55843.0105,725.0011,-609.7108,26235.5357
56888.7591,28241.9175,54046.1987,42412.1171,36872.5061,39457.6192,5794.1973,50233.1257,43932.0803,55848.5538,743.2401,-599.2055,26238.5309
56889.9214,28236.866,54044.1424,42413.6817,36880.3293,39454.0876,5792.5433,50231.3823,43933.9578,55850.5207,748.1575,-599.5184,26238.7097
56872.5318,28227.8359,54047.2716,42407.2444,36865.89,39446.2645,5791.2916,50212.9197,43917.3281,55844.5305,732.4219,-608.9061,26232.4065
56861.7582,28216.213,54044.7235,42393.9228,36837.1457,39437.905,5787.6259,50186.187,43905.7052,55832.8629,716.3286,-625.2229,26224.941
56878.7903,28218.0011,54046.6458,42399.6001,36844.4324,39445.594,5793.7056,50199.151,43908.3874,55834.204,728.5774,-618.5174,26231.1995
56901.2314,28223.0973,54046.1987,42413.7264,36871.9697,39455.2499,5795.002,50224.5426,43922.9161,55840.4177,739.9321,-602.8712,26231.2889
56907.2664,28230.384,54044.6341,42426.6458,36883.4585,39465.0847,5796.0302,50235.2268,43931.1415,55850.8784,746.2353,-594.601,26236.3404
56892.9613,28232.3062,54042.6672,42417.9733,36870.0475,39462.1342,5794.4655,50226.1072,43928.0123,55848.2409,737.384,-605.1064,26237.2792
56870.8777,28231.6357,54039.0909,42407.3786,36854.8036,39453.4618,5791.6045,50215.6913,43918.5351,55841.7141,725.0905,-612.5271,26231.0207
56881.0701,28236.419,54040.6555,42414.7546,36863.9231,39461.1508,5791.9621,50225.1238,43931.4097,55846.408,731.3043,-608.2803,26233.2559
56902.2596,28249.8747,54043.8741,42433.0831,36889.0017,39463.9224,5795.9855,50256.9079,43940.708,55845.6928,747.7999,-596.2104,26240.9002
56899.2198,28254.2109,54040.6108,42431.0714,36887.7947,39462.7154,5791.7386,50256.3715,43939.4563,55840.4624,742.5696,-598.5349,26239.5591
56888.2227,28249.4277,54036.9451,42425.4835,36873.4449,39462.3131,5787.0001,50230.8011,43929.8451,55837.1544,726.6551,-612.9742,26235.5357
56870.3413,28244.1974,54035.0676,42413.5923,36847.9192,39461.5531,5779.5346,50216.8983,43922.9608,55833.6675,713.9146,-627.0558,26230.0372
56882.0983,28249.5171,54034.7993,42414.844,36851.4508,39468.9739,5781.0098,50230.4882,43924.7489,55834.4722,716.5521,-624.7312,26229.8137
56912.0497,28263.0175,54036.364,42430.4456,36879.614,39484.486,5785.9719,50260.9313,43938.7411,55841.7588,731.349,-609.1297,26234.597
56921.7503,28268.5608,54034.3523,42428.4786,36885.6937,39486.5423,5782.6638,50272.5989,43946.2513,55844.4858,734.2994,-602.5583,26233.3006
56911.4238,28264.2245,54035.3805,42422.1754,36869.3322,39484.5307,5783.0215,50254.5387,43934.1366,55841.3565,719.6367,-613.0189,26230.3948
56889.7873,28253.5404,54031.8936,42401.0307,36844.4324,39477.0205,5776.0924,50236.3443,43916.8811,55830.0912,697.2849,-632.8672,26225.5222
56890.5026,28253.2275,54034.3523,42397.365,36850.7802,39475.9923,5773.0079,50242.1111,43930.2027,55829.1972,707.0303,-626.6087,26229.8137
56910.485,28257.8766,54033.2794,42413.2347,36885.336,39478.3616,5776.2712,50260.7077,43947.0559,55836.6627,725.6716,-612.393,26228.4726
56921.2586,28266.9514,54037.4815,42426.8693,36900.9376,39480.5968,5781.6803,50275.0576,43951.2134,55851.9959,734.6123,-602.1112,26230.4395
56896.1352,28262.0341,54037.258,42407.2444,36873.7131,39470.8514,5777.3888,50257.802,43934.7625,55841.2671,715.211,-614.1812,26226.6845
56875.5269,28254.2109,54036.3193,42394.3698,36857.1728,39464.4141,5778.864,50231.114,43922.6925,55836.7074,701.353,-628.3969,26224.4493
56886.5687,28259.3518,54037.3921,42405.6798,36872.8638,39467.5434,5785.4801,50250.4259,43931.7673,55843.9493,713.7805,-619.0538,26229.0537
56913.9272,28274.1934,54038.465,42422.086,36900.4905,39475.5453,5790.934,50283.283,43953.7168,55855.3487,735.8193,-600.6807,26240.0061
56921.348,28277.1438,54040.9237,42421.7731,36911.1747,39473.4442,5792.9456,50300.9856,43955.9519,55856.064,736.3111,-602.1112,26242.0177
56909.3674,28268.9631,54043.6953,42413.637,36899.7306,39470.1362,5791.0234,50268.8885,43948.8441,55851.9959,724.0176,-611.4095,26236.0722
56899.2198,28264.8504,54046.6458,42406.9315,36876.6189,39466.1576,5791.4704,50250.0683,43940.9763,55850.2525,708.1479,-617.668,26229.6796
56906.0147,28266.9514,54048.2551,42408.7197,36876.5295,39463.833,5794.1526,50268.9779,43951.0345,55858.478,715.211,-616.0587,26232.183
56927.83,28284.3858,54050.535,42425.1705,36913.8569,39472.6843,5800.4111,50296.1576,43967.9772,55868.4468,739.038,-597.5515,26239.6932
56932.0321,28289.4373,54052.2337,42425.6623,36927.5361,39475.9029,5802.1098,50302.8631,43974.4145,55873.0513,747.174,-597.5962,26242.2413
56908.1157,28282.8659,54050.9373,42411.2678,36899.5517,39468.6162,5798.4442,50300.1362,43961.2716,55863.753,729.1585,-611.6778,26232.6747
56897.9234,28280.4966,54050.8032,42412.3853,36878.6305,39463.6989,5796.3878,50281.0031,43940.5292,55855.7957,711.4559,-622.943,26226.7739
56908.9204,28286.9786,54049.5515,42418.6438,36892.9803,39470.0915,5800.4111,50283.7747,43957.4718,55859.8638,721.693,-606.4922,26230.3501
56928.9923,28304.1447,54053.396,42426.7799,36922.2164,39479.9262,5809.5306,50314.799,43980.9859,55881.8579,740.1109,-586.9567,26239.5144
56929.5734,28303.1166,54053.2619,42425.3494,36920.6518,39477.8699,5806.5802,50312.6979,43979.0189,55877.7004,738.6357,-587.2697,26239.7379
56915.5812,28295.9193,54053.6642,42411.0442,36895.752,39474.9194,5803.7192,50299.868,43968.0219,55870.1456,722.6318,-601.5301,26234.597
56897.1634,28293.6394,54052.2337,42403.7576,36878.5411,39475.3665,5804.1215,50278.7232,43956.1754,55864.5129,710.4725,-613.5553,26231.5124
56910.7085,28303.4742,54054.9606,42413.4582,36894.1873,39482.1167,5806.7143,50283.4171,43963.5962,55867.1057,717.625,-604.6593,26236.8321
56932.9709,28312.5043,54056.4358,42425.6623,36920.1154,39497.003,5811.9893,50309.7028,43973.3416,55880.0697,738.1886,-587.7614,26243.7165
56934.7143,28315.3206,54060.6827,42437.2405,36930.0395,39502.9485,5818.069,50326.3324,43980.0471,55886.82,746.28,-584.6322,26247.6951
56919.8281,28311.6996,54060.9062,42429.9091,36910.7276,39498.0758,5815.2974,50311.1333,43968.5583,55880.9638,735.3276,-591.5165,26243.6271
56907.4899,28303.2507,54061.8449,42420.6555,36885.5596,39492.3538,5811.0505,50289.2286,43951.7051,55870.9949,722.1848,-602.9159,26237.9944
56908.6969,28297.5733,54061.9344,42426.6905,36898.7918,39497.8523,5812.3916,50303.0419,43961.0034,55870.5479,728.7562,-597.3279,26236.6086
56928.5899,28305.307,54059.6545,42436.9723,36925.748,39504.692,5815.7444,50334.3791,43977.8119,55874.3477,746.1458,-585.4368,26238.5309
56935.8766,28303.9212,54055.9441,42438.5369,36925.9268,39498.7017,5812.7046,50334.8261,43981.8799,55873.0066,745.5647,-586.018,26236.4298
56925.7289,28296.7687,54054.1559,42431.2502,36909.923,39496.1089,5809.2624,50311.7144,43978.1249,55866.3011,737.4734,-597.9985,26234.3287
56909.5463,28295.8746,54057.8663,42424.3212,36898.2106,39497.7629,5810.8717,50297.9904,43971.1511,55856.6451,729.0691,-610.6049,26231.6912
56913.8378,28296.411,54063.1413,42426.8693,36910.5935,39502.7697,5814.5374,50309.211,43978.5719,55866.3011,731.3937,-602.3794,26238.1285
56941.4198,28309.8221,54071.5009,42442.2026,36931.6936,39514.8844,5822.8076,50341.9787,43996.3192,55875.0182,748.8281,-584.811,26249.975
56953.5792,28310.7162,54076.0159,42450.0257,36942.0201,39520.1594,5827.9932,50354.9427,44004.2317,55880.2038,752.8514,-578.2396,26254.0877
56941.4198,28312.7278,54078.1617,42447.2988,36932.1406,39519.5782,5832.8658,50339.3412,44003.6058,55885.5236,746.7717,-581.4582,26257.5299
56927.1594,28307.0952,54078.2958,42431.3843,36905.4526,39512.6939,5829.5131,50314.7095,43998.8226,55882.3943,738.5015,-586.9567,26253.9536
56929.2158,28306.7375,54075.7477,42432.1443,36907.2855,39510.2352,5827.0097,50323.7844,43999.6719,55883.8248,738.5015,-586.2862,26255.2053
56945.4432,28315.3653,54078.877,42444.0801,36930.7995,39511.8445,5830.4965,50345.2867,44020.9508,55896.163,756.5618,-573.4116,26259.5415
56958.0495,28319.5674,54081.6486,42448.3269,36945.1493,39515.3314,5829.2896,50344.3033,44018.9838,55896.3865,761.7027,-572.6963,26256.144
56949.8241,28314.4712,54080.8886,42440.5485,36925.2115,39505.899,5825.4898,50325.3043,44001.013,55893.0337,748.1575,-584.0063,26253.8642
56934.6696,28306.6481,54078.4299,42431.429,36905.1397,39499.5064,5825.3556,50309.7922,43986.4397,55890.128,734.4335,-596.0763,26252.6125
56942.8504,28311.5655,54080.531,42433.3513,36923.4681,39500.2216,5827.412,50310.4627,43998.6885,55889.5916,743.553,-589.9072,26254.6241
56968.376,28319.1204,54083.0791,42447.2094,36958.1133,39510.9951,5830.3624,50332.5909,44020.9061,55899.471,764.1166,-575.4232,26259.7203
56966.9455,28321.8473,54081.3357,42448.1481,36959.4991,39512.0233,5830.6754,50344.795,44031.4114,55896.5206,762.2391,-568.4495,26259.7203
56947.9018,28316.1253,54075.1666,42432.1443,36931.8277,39503.3062,5829.2896,50330.2217,44015.4076,55884.8977,740.692,-581.6817,26252.7913
56930.244,28313.8007,54074.6301,42423.4271,36913.5439,39496.3324,5827.859,50310.4627,44007.7633,55880.9638,724.6882,-597.3279,26248.6339
56947.4548,28321.4897,54074.6301,42427.9869,36920.6965,39498.7464,5829.5131,50319.4034,44014.1112,55891.3797,733.9418,-594.914,26253.5959
56973.0699,28327.4353,54078.6982,42438.8498,36944.3446,39506.0778,5828.7531,50352.8863,44027.4775,55897.6382,751.9573,-579.4019,26257.1722
56976.4227,28327.8823,54084.4202,42443.9907,36952.0336,39507.5083,5831.1224,50365.001,44027.6116,55897.4594,756.1147,-572.5622,26256.4123
56960.8659,28319.3439,54083.1685,42434.7818,36932.9453,39499.8193,5828.7531,50346.3596,44016.6146,55892.1397,746.1458,-581.0112,26252.2101
56938.6035,28309.1515,54077.3124,42420.119,36909.4312,39495.1701,5826.1156,50324.4996,44003.0694,55884.6295,726.9233,-593.6176,26246.801
56943.1186,28310.135,54082.0956,42425.7964,36922.8423,39503.0826,5828.3061,50332.1886,44015.6311,55896.0736,731.2596,-592.4553,26251.9866
56960.3294,28316.2147,54082.8556,42437.1958,36937.6391,39508.8941,5829.2896,50363.6152,44036.9099,55903.7179,745.3859,-582.7099,26254.8476
56966.4538,28325.513,54081.9615,42438.7604,36940.8578,39514.1244,5828.7531,50373.584,44039.2345,55902.7344,747.0399,-576.7196,26255.4288
56954.8309,28324.7083,54085.7613,42431.6078,36924.8092,39507.8659,5827.9485,50359.7707,44034.4065,55897.8617,735.1935,-584.5428,26251.5843
56938.7376,28320.0592,54089.3376,42417.7498,36906.4808,39498.0311,5825.9368,50348.4607,44016.4804,55891.5138,722.9894,-596.4339,26245.7281
56939.9893,28313.4431,54085.5825,42416.811,36918.7742,39497.9864,5820.0806,50365.2245,44023.0519,55889.9492,728.3092,-595.6739,26245.594
56962.6093,28318.3604,54086.4319,42435.6312,36946.4457,39507.7765,5825.9368,50384.8046,44043.2578,55900.5439,745.6094,-578.9548,26252.836
56968.1525,28322.2944,54085.5825,42445.4212,36958.2027,39510.1011,5829.2896,50397.0981,44052.7797,55903.4944,753.2984,-572.741,26257.664
56955.0097,28313.9795,54083.7944,42437.4193,36939.4273,39504.8708,5826.965,50374.7016,44031.9031,55890.9327,737.5181,-587.7167,26251.3608
56938.0224,28312.8619,54088.3541,42432.1443,36917.4331,39499.0593,5829.6919,50359.726,44021.666,55887.0435,728.3539,-595.4057,26249.6173
56948.6618,28322.5626,54094.7914,42442.2473,36934.4205,39509.5199,5837.3362,50378.0991,44039.6816,55904.2543,740.7814,-581.7711,26257.1275
56963.5928,28330.0728,54090.7234,42453.5125,36964.5953,39518.0136,5837.4256,50403.9377,44051.975,55906.9365,756.5618,-567.9131,26260.8379
56971.4159,28329.2681,54091.3939,42458.0723,36971.5244,39524.3168,5837.6044,50409.4362,44055.9983,55902.3321,764.2955,-561.8781,26263.4754
56955.5014,28318.5393,54088.8906,42450.1598,36948.9491,39519.0865,5836.5315,50399.2885,44042.6767,55896.6994,752.7173,-578.4631,26258.871
56943.7891,28309.9115,54086.7895,42442.6496,36926.2397,39512.2021,5832.6423,50375.6851,44023.9459,55890.7092,734.7465,-593.9305,26252.6572
56948.1254,28311.789,54086.5213,42445.4212,36932.0065,39511.9786,5830.4965,50380.2001,44032.2161,55894.8219,741.4073,-583.1122,26251.4949
56970.2089,28316.9746,54086.566,42463.8838,36964.9976,39522.5286,5832.5082,50410.1515,44055.2831,55900.6333,761.3003,-563.1298,26257.2169
56975.0369,28318.8969,54087.8177,42470.3658,36972.6419,39523.378,5832.5529,50420.4333,44062.2568,55901.7509,765.0554,-560.6711,26257.6193
56951.7016,28311.789,54083.4367,42465.1355,36956.7275,39515.1973,5828.619,50405.6811,44049.8739,55898.577,748.4257,-573.4116,26252.6125
56927.5171,28300.9261,54076.7312,42446.4494,36924.3175,39506.7483,5822.137,50383.9105,44031.1879,55895.1348,727.5045,-585.258,26246.5328
56936.2789,28305.7541,54078.2958,42450.7856,36929.4584,39517.0301,5826.7415,50391.4207,44036.9099,55901.3039,735.0594,-581.4582,26250.1091
56955.6355,28318.8969,54082.4533,42458.4299,36961.4661,39522.931,5829.7366,50417.9299,44058.5464,55908.0094,755.7571,-568.8071,26254.8029
56963.1904,28316.8852,54084.4649,42458.7429,36966.4729,39516.7172,5826.6073,50424.0096,44062.1227,55903.0473,757.9923,-565.5438,26253.8642
56942.9845,28306.5587,54083.8391,42452.395,36945.5516,39507.6424,5820.3489,50408.7657,44042.5873,55891.4691,737.8757,-582.844,26245.4152
56923.7173,28308.4363,54087.5942,42440.1909,36925.2115,39506.4354,5821.1535,50393.9241,44026.9858,55893.6596,717.1333,-593.8411,26245.2364
56929.1264,28312.3255,54085.9848,42439.2074,36932.4535,39510.9951,5821.5111,50396.6063,44034.3171,55895.7607,725.7164,-585.3474,26246.2646
56954.7415,28312.102,54079.1899,42448.6399,36953.7771,39511.0846,5821.5111,50410.1515,44057.5629,55900.0969,751.0632,-568.0025,26249.3491
56966.0068,28313.5772,54075.9265,42452.3503,36957.9792,39508.0894,5819.1419,50418.5557,44064.7155,55904.9249,751.1079,-567.466,26251.4949
56954.6074,28310.895,54080.084,42447.6564,36942.6012,39508.1788,5820.8406,50400.3167,44049.3375,55903.2261,734.8359,-580.2959,26247.3822
56933.105,28296.2322,54080.7545,42436.3017,36912.784,39506.8824,5822.0029,50380.2001,44036.0606,55897.37,724.0176,-590.1754,26245.4599
56941.9116,28294.4441,54084.4202,42445.1977,36925.3457,39515.9125,5823.7016,50399.1991,44045.2248,55902.3768,740.245,-578.2843,26252.8807
56965.3362,28306.4246,54083.9732,42459.5922,36950.6031,39522.8416,5823.1205,50424.0096,44065.0284,55910.334,761.0321,-564.4709,26257.8428
56964.3527,28308.0786,54081.7827,42457.4018,36952.7042,39525.9261,5823.2099,50436.1689,44069.32,55912.0327,760.898,-563.3533,26255.1606
56934.759,28298.2439,54082.2297,42440.5485,36925.7033,39513.9009,5817.9796,50415.5606,44057.3394,55904.5672,744.8941,-577.4796,26251.5843
56921.5268,28292.1195,54085.1355,42430.6691,36900.5352,39502.2333,5815.8338,50387.4868,44044.3307,55899.3816,726.7445,-592.947,26245.594
56939.6317,28296.724,54088.667,42442.3367,36923.4234,39510.1011,5819.4995,50402.3284,44049.9634,55900.4098,734.657,-582.9781,26250.7349
56962.207,28300.8367,54087.773,42460.4416,36955.6099,39522.7075,5821.6453,50437.1524,44062.3462,55906.1319,752.8514,-563.2192,26258.7368
56962.207,28304.413,54079.9499,42459.4134,36955.8781,39517.2536,5813.8669,50439.3429,44060.6475,55898.9346,750.3033,-568.226,26252.6125
56954.0709,28300.5685,54079.1005,42452.3503,36933.0347,39504.8708,5811.1399,50425.6636,44052.0644,55901.9297,739.5297,-581.0112,26252.7913
56940.4364,28297.7968,54079.771,42438.3581,36913.4992,39506.3013,5813.5092,50411.0456,44048.667,55903.1814,727.5939,-589.2813,26252.5678
56951.5228,28299.2721,54082.2297,42442.8731,36927.3573,39516.6725,5818.7842,50415.4712,44053.9867,55906.1319,730.8125,-588.9237,26251.4502
56967.482,28309.9115,54082.3191,42454.3619,36949.6644,39519.3994,5820.8853,50435.6325,44062.4803,55912.1221,745.8776,-578.9995,26253.4171
56968.7784,28313.3537,54087.1024,42460.4863,36958.9627,39518.3712,5821.8688,50447.166,44066.2801,55913.7762,752.449,-569.6118,26256.144
56953.0427,28303.6977,54084.4202,42447.3882,36937.6838,39511.6657,5814.9844,50430.6257,44052.1538,55907.0259,732.4219,-580.1618,26247.3822
56938.5588,28295.7852,54080.4416,42436.1676,36913.1863,39507.4189,5809.8435,50406.5305,44035.0324,55901.1698,715.1216,-597.5068,26238.9779
56945.4879,28298.1098,54079.5475,42441.1744,36915.9579,39510.6375,5807.966,50417.8405,44046.8788,55902.645,723.7941,-592.4106,26241.8389
56967.6161,28308.3916,54080.7098,42450.2045,36939.2484,39517.5666,5806.8484,50448.0153,44066.7272,55907.3836,741.3626,-578.0607,26245.2364
56966.3644,28308.8833,54080.084,42457.3123,36943.3612,39518.8183,5806.9825,50443.5897,44060.4687,55902.8685,747.4869,-578.9995,26244.2082
56954.1603,28299.0038,54082.0956,42450.1151,36918.5507,39515.8678,5805.6414,50430.1339,44051.4833,55899.3816,731.9748,-590.4436,26241.526
56933.1497,28287.515,54085.0908,42441.2638,36895.4837,39515.5996,5808.4577,50406.4858,44046.1189,55896.163,723.66,-598.6243,26236.2957
56937.4859,28291.1807,54082.0062,42447.4776,36904.6926,39516.0466,5809.3518,50421.4168,44038.3852,55891.5585,730.589,-589.5048,26236.698
56965.8726,28301.8649,54084.5096,42463.8391,36938.9355,39526.4626,5812.8387,50449.1329,44053.8526,55903.7179,752.5384,-570.7741,26244.9235
56964.7104,28300.3002,54078.6535,42457.3123,36936.9686,39521.6346,5808.726,50451.6363,44060.1557,55901.9297,750.7056,-570.6847,26246.1752
56947.2313,28292.7454,54076.2842,42447.6564,36921.9035,39511.2187,5807.0719,50438.1359,44047.5941,55897.37,736.4452,-580.5194,26242.8671
56940.1234,28293.0136,54086.4766,42453.3784,36916.1814,39510.3246,5814.2692,50425.4401,44042.4979,55903.8967,730.8125,-584.9004,26244.5211
56938.7823,28293.8182,54089.7846,42457.7147,36922.8423,39510.2799,5814.1798,50431.6092,44045.3589,55908.9035,739.8874,-576.7196,26245.9069
56963.8163,28299.4509,54086.9683,42466.3872,36948.7256,39516.9407,5812.0787,50454.6762,44064.6261,55913.3738,752.9408,-565.3203,26250.6008
56967.929,28297.618,54081.4698,42462.6321,36949.6197,39515.8678,5810.5588,50454.6314,44071.8681,55910.6022,751.4209,-570.0588,26250.3326
56956.7531,28294.1759,54080.3969,42454.0937,36930.7101,39508.6706,5811.4082,50442.1145,44057.8759,55905.3719,735.5958,-585.0345,26247.0245
56943.4762,28290.6443,54080.7098,42442.0685,36902.9939,39501.3392,5811.4529,50427.2282,44046.8788,55899.6499,722.5871,-595.6292,26242.8671
56948.483,28291.6278,54079.0558,42441.2638,36911.1747,39505.7648,5813.5986,50442.6956,44054.7466,55906.8024,725.7164,-592.8129,26246.8457
56967.2137,28293.7735,54080.3522,42455.256,36936.2086,39515.1526,5815.0738,50468.8919,44064.4026,55912.7033,743.5083,-576.9432,26248.7233
56973.0699,28301.0602,54083.9285,42460.2628,36945.5516,39513.0962,5815.1186,50475.8656,44070.8846,55915.162,745.1177,-572.741,26249.1703
56956.8425,28299.4062,54085.359,42454.3619,36925.4351,39508.5365,5815.655,50458.4759,44062.3462,55910.5575,737.4734,-581.9499,26247.6057
56936.1001,28288.9009,54084.7331,42440.5485,36898.4342,39501.965,5811.8105,50438.8511,44049.2481,55899.6052,721.1566,-597.0597,26241.1237
56943.1186,28288.0962,54084.2414,42438.9392,36904.9609,39502.8144,5810.6929,50437.51,44048.7564,55899.6499,727.728,-590.9353,26241.6601
56961.2235,28294.6676,54089.0247,42453.9149,36936.0745,39509.5646,5811.0505,50467.3272,44067.0848,55915.7431,748.4257,-580.0277,26248.2315
56957.4237,28293.0136,54087.9071,42453.9596,36942.333,39507.2848,5807.3401,50467.1037,44069.32,55909.3505,749.1857,-578.4184,26248.2315
56946.4713,28287.2468,54083.6155,42440.5932,36916.8073,39496.8241,5802.8698,50446.5848,44052.735,55899.8734,733.4948,-590.3095,26241.6601
56930.4675,28284.3411,54081.1121,42437.2405,36900.1776,39494.0078,5799.4276,50429.7763,44042.5873,55890.0386,719.6367,-599.5631,26236.1169
56933.4626,28280.2284,54080.7545,42439.6992,36904.6479,39499.6852,5803.0933,50432.4585,44050.5445,55896.6547,727.728,-590.1754,26243.3141
56951.2546,28295.6511,54082.4533,42451.2774,36933.4817,39507.4189,5807.9213,50460.8005,44074.3268,55906.2213,748.4704,-573.054,26250.869
56954.3839,28294.9805,54079.5475,42454.6301,36940.7684,39502.1439,5805.5967,50469.473,44076.1596,55906.8024,752.1361,-571.8023,26250.6455
56942.5821,28284.7881,54077.9829,42451.3221,36918.506,39506.8377,5806.2673,50460.6217,44072.7174,55908.9929,738.9039,-582.7993,26247.9633
56928.5899,28281.2119,54078.6088,42444.7954,36897.853,39505.7648,5807.6531,50441.5333,44066.9507,55901.8403,723.7941,-596.7468,26244.2529
56937.173,28285.6375,54082.7215,42452.5291,36916.2261,39508.3129,5810.6035,50459.2359,44073.2539,55904.5225,729.2479,-591.5165,26250.5114
56967.0349,28299.4062,54084.5096,42468.3094,36952.5701,39517.9689,5816.0573,50500.0949,44090.867,55916.2349,752.1808,-570.0141,26258.1557
56973.6063,28304.9494,54086.6554,42479.5747,36963.9248,39523.825,5820.3936,50508.365,44094.488,55918.6041,758.7522,-561.8781,26260.7932
56956.4402,28298.825,54084.8672,42473.1821,36948.1891,39522.3498,5814.4033,50490.9307,44076.1149,55912.3456,745.7435,-576.1832,26255.25
56940.0787,28288.4538,54084.0179,42459.324,36921.6353,39512.0233,5807.6531,50466.3438,44063.2403,55901.1698,727.3704,-588.7002,26249.2597
56945.8455,28288.3197,54082.8556,42453.6914,36927.2679,39509.1176,5805.0156,50474.0775,44071.421,55894.2407,733.7183,-587.7614,26248.9021
56962.6987,28296.3216,54087.773,42461.1121,36947.608,39515.8231,5809.9329,50492.0483,44082.3287,55909.3952,749.588,-569.9247,26256.8146
56978.6578,28296.7687,54087.3259,42468.4435,36953.1959,39518.6841,5812.9281,50490.3495,44088.4531,55912.0774,750.2586,-563.398,26259.9438
56970.8347,28293.6394,54086.566,42458.9664,36928.7878,39513.1409,5811.6317,50471.1717,44083.3122,55907.3836,737.071,-577.3902,26256.6358
56947.9465,28292.6559,54085.6272,42442.2026,36906.2573,39507.6424,5808.5024,50462.3652,44069.4094,55897.2806,724.1517,-595.1822,26247.2928
56943.3868,28295.1593,54084.0179,42445.5553,36916.7626,39509.4752,5806.9378,50469.3389,44073.7903,55899.3816,731.9301,-590.0413,26248.2762
56971.4159,28308.0786,54083.4814,42458.9217,36938.3097,39520.0253,5808.2789,50487.8461,44088.1848,55906.0872,747.3975,-576.0044,26251.0478
56980.446,28311.9678,54085.3143,42459.5028,36944.2552,39521.8134,5808.0107,50490.7519,44088.7213,55911.1387,747.4869,-573.5904,26252.5231
56963.9951,28309.3303,54082.4533,42455.256,36931.6489,39522.2604,5804.0321,50470.2777,44079.6912,55901.438,734.4335,-587.8955,26247.561
56951.2546,28307.721,54082.9897,42451.9479,36909.1183,39523.9592,5800.8581,50458.3418,44065.3414,55895.7607,725.8058,-597.4174,26248.4998
56952.0146,28309.9115,54082.0956,42454.1384,36913.1416,39527.6248,5800.9028,50462.2757,44072.3151,55892.7208,731.7513,-587.5826,26250.7796
56972.3994,28316.4829,54090.8575,42467.5941,36945.7304,39541.0806,5810.2906,50491.9589,44091.0906,55904.6566,758.3499,-565.4097,26260.5697
56982.1,28320.4615,54090.3658,42473.6291,36965.0424,39544.7463,5813.9563,50501.9277,44089.1683,55902.198,764.1166,-560.6711,26260.7485
56964.9786,28307.3187,54085.3143,42460.6204,36939.3378,39532.2293,5810.0224,50472.1552,44075.7573,55896.3418,748.381,-571.9811,26256.3676
56946.9184,28295.7852,54083.7944,42443.946,36907.5984,39517.3877,5806.312,50455.7043,44049.8292,55893.4808,729.2479,-588.2978,26252.7466
56953.8027,28295.8746,54087.1471,42455.8371,36919.4448,39519.8017,5812.034,50462.3652,44052.9138,55898.0852,745.073,-580.9218,26260.1227
56972.4888,28300.2555,54088.3541,42471.7069,36944.0764,39524.6744,5818.069,50477.8773,44063.9555,55906.5342,765.0554,-568.9412,26265.4871
56969.8066,28302.893,54090.3211,42474.9702,36951.0502,39520.6511,5819.2313,50482.6605,44061.8992,55907.473,760.6298,-564.4262,26264.0566
56950.7182,28303.1613,54091.5728,42464.7331,36924.4516,39512.5598,5819.0078,50456.509,44047.8176,55905.6401,743.8213,-573.7245,26259.8991
56920.141,28297.7521,54087.773,42445.5553,36899.6412,39499.7746,5815.4315,50423.786,44020.5932,55893.4808,726.1187,-591.6953,26253.9536
56931.3616,28294.7123,54087.5047,42450.7856,36914.7509,39503.932,5820.2595,50420.6568,44017.1957,55894.956,731.4831,-586.465,26255.7417
56946.516,28299.4509,54089.6058,42453.4678,36941.4389,39504.5578,5823.3887,50433.5314,44030.3385,55897.37,739.3509,-572.4281,26257.9769
56941.9116,28303.9212,54091.081,42454.809,36945.9987,39497.2265,5825.3109,50422.6685,44029.9809,55895.8054,745.1177,-567.8236,26261.4191
56924.7454,28304.9047,54087.5942,42445.7788,36932.9453,39491.415,5828.3955,50394.237,44007.808,55891.335,736.4005,-579.4019,26257.7087
56904.3607,28303.7424,54085.0461,42440.2356,36914.5274,39484.1731,5830.1389,50376.2662,43995.4698,55884.093,724.8223,-585.3474,26255.5629
56909.2333,28313.6219,54086.4766,42445.3318,36921.9035,39484.4413,5835.5033,50378.7249,43993.5476,55887.6693,734.1653,-576.2726,26259.9885
56921.0351,28320.9085,54088.6223,42454.9878,36945.7304,39494.0972,5836.4421,50396.2934,44010.7584,55895.3136,755.623,-564.1133,26263.9225
56919.0681,28327.2117,54088.7117,42455.6136,36950.7819,39497.0477,5835.9057,50397.0534,44013.8876,55888.1611,755.3548,-566.4825,26260.972
56898.6833,28329.3128,54090.2764,42443.4543,36923.8704,39490.7892,5834.2069,50379.172,43992.877,55878.1922,738.3227,-577.9713,26256.5017
56887.5074,28329.7598,54093.6291,42441.7108,36906.4808,39491.1021,5836.7103,50352.3499,43977.3649,55879.2204,729.9185,-585.4815,26257.3957
56894.4812,28336.1524,54095.2384,42447.9246,36915.0639,39492.5773,5839.0796,50348.4607,43980.0024,55877.7899,734.8359,-577.1667,26261.1508
56909.6804,28340.9357,54094.702,42457.7147,36931.9171,39496.2877,5838.9455,50366.9679,43992.9217,55880.2485,749.1857,-566.9743,26261.2402
56909.9039,28337.8512,54089.9187,42460.3969,36924.7645,39492.3091,5834.9669,50365.7609,43986.3503,55879.131,748.6939,-570.4165,26257.1722
56891.799,28327.2117,54088.3094,42457.7594,36898.1659,39488.107,5832.6423,50337.2401,43972.4922,55875.957,740.0662,-578.4631,26254.49
56871.6824,28322.9202,54088.22,42452.1714,36877.1106,39490.9233,5833.9834,50305.6347,43958.6788,55865.854,732.3772,-585.6603,26254.9818
56879.8631,28321.1768,54085.806,42459.5028,36891.1922,39495.796,5834.4305,50309.8816,43964.1327,55865.0047,742.2119,-579.9383,26256.8593
56903.0195,28328.9999,54086.7001,42467.9518,36915.0192,39501.3392,5835.9057,50331.2498,43972.7604,55870.4138,755.7571,-571.6681,26258.2898
56915.4024,28334.7666,54086.8789,42471.3939,36922.7082,39495.7066,5840.1972,50339.52,43975.8003,55869.3409,760.7639,-570.6847,26255.9652
56902.5278,28333.202,54088.0412,42464.8672,36903.0386,39484.9777,5836.1739,50320.1187,43958.813,55860.132,747.174,-580.0724,26248.8127
56882.9924,28324.1719,54091.4834,42456.4183,36879.4352,39484.6201,5832.6423,50289.0497,43938.2941,55853.65,732.0642,-591.293,26246.354
56890.6814,28322.8308,54093.0927,42454.8984,36883.682,39486.5423,5833.2235,50289.8097,43940.7974,55851.1466,735.9982,-588.3873,26250.4667
56916.8329,28329.6257,54093.495,42473.2268,36910.1465,39495.6619,5837.4256,50316.9894,43957.293,55854.4099,756.7853,-574.261,26255.8758
56921.7503,28333.4255,54094.9255,42474.3891,36911.9793,39495.5724,5836.308,50325.6619,43966.9043,55868.2233,762.1497,-567.466,26261.4638
56908.9651,28323.8143,54089.3376,42456.5524,36885.649,39484.486,5832.0612,50304.6513,43953.9403,55860.3108,743.6872,-580.7877,26260.1227
56895.2858,28316.3488,54090.9469,42452.5738,36864.1466,39481.1779,5831.1671,50277.7398,43946.743,55857.1368,732.2431,-588.5661,26258.2898
56905.7465,28317.377,54096.9372,42457.4018,36876.753,39485.0224,5834.8775,50277.1586,43952.6439,55864.96,740.8261,-583.3358,26261.2402
56931.0486,28322.6967,54096.8031,42471.5728,36906.2126,39492.4879,5838.4091,50301.7008,43959.3494,55867.5528,758.3052,-570.0141,26264.9953
56945.1302,28324.6636,54096.1772,42474.2103,36909.6994,39491.3256,5838.9008,50303.2655,43965.4738,55873.543,766.3965,-562.0569,26267.767
56926.7124,28317.377,54089.8293,42462.4532,36888.5994,39479.658,5833.0894,50271.526,43952.8227,55863.6189,746.4588,-574.9762,26256.6358
56912.9437,28309.2856,54090.4552,42449.7128,36862.1796,39472.5502,5826.0262,50250.4259,43945.2678,55860.0426,732.9583,-587.6273,26249.4832
56920.5433,28305.3964,54087.773,42448.5952,36871.5227,39470.0915,5821.2876,50264.6416,43942.675,55864.0659,736.8475,-584.9898,26251.4949
56937.0836,28306.7375,54084.0626,42450.9645,36887.5712,39469.0633,5817.5772,50282.4783,43948.1288,55867.8657,748.2022,-572.8751,26254.1771
56934.759,28303.0719,54082.0062,42441.3979,36887.1242,39463.2518,5817.5325,50271.4813,43953.8509,55865.4964,747.0399,-576.4961,26249.0809
56926.7124,28300.1661,54085.5378,42435.0053,36870.9415,39460.1673,5817.3537,50247.9672,43945.6254,55861.6072,736.2217,-585.7497,26248.2762
56911.245,28296.5451,54089.1588,42426.0199,36844.1641,39458.0662,5816.3702,50224.8108,43930.918,55854.1417,721.5589,-595.2716,26248.1868
56914.2848,28299.0485,54089.4717,42430.4903,36852.8813,39461.5978,5815.7891,50238.1772,43937.9811,55860.7131,725.8952,-587.2697,26250.6902
56935.8766,28306.6034,54089.7846,42440.0121,36879.4799,39470.6726,5818.1137,50270.6319,43957.0695,55867.9998,747.934,-573.5904,26251.9419
56937.8436,28307.6316,54084.6884,42437.1511,36879.8822,39472.8631,5814.7162,50287.6192,43955.5049,55862.8589,750.5268,-578.9548,26244.9682
56931.5851,28306.9611,54084.4649,42445.153,36869.064,39475.8135,5816.9961,50269.9167,43956.5331,55866.4799,742.4802,-584.8557,26245.3705
56921.0351,28295.8746,54083.4814,42439.118,36850.2885,39472.8631,5818.7395,50235.5844,43946.8324,55863.3059,730.3655,-594.4222,26243.0459
56919.7834,28295.4723,54085.359,42442.5602,36860.8385,39475.8135,5823.9251,50249.4425,43953.985,55864.2,744.2683,-587.225,26247.3822
56935.8766,28295.8746,54089.0247,42455.4795,36888.9123,39484.3966,5828.1273,50271.7942,43972.0452,55871.4867,760.5404,-566.2143,26253.9536
56939.4529,28299.3615,54089.9634,42457.3123,36897.2719,39486.5423,5830.1389,50281.7184,43974.3251,55873.2301,764.6978,-561.9675,26256.0993
56928.9029,28304.3236,54090.9022,42451.9926,36880.4634,39483.3684,5829.6919,50267.4133,43961.0034,55870.0562,750.4821,-570.4612,26254.8029
56918.7552,28301.999,54093.2715,42441.8449,36863.6549,39478.4063,5832.0612,50244.5251,43953.8509,55865.9881,738.0098,-582.844,26252.1654
56923.9855,28301.3731,54095.5961,42446.0024,36874.0261,39483.9495,5831.5247,50257.5785,43965.1608,55869.2068,742.1225,-580.1618,26253.0148
56954.965,28318.8969,54096.8031,42463.2132,36904.9162,39497.4947,5831.3906,50301.2538,43982.3717,55877.7899,760.7639,-561.4311,26259.2286
56953.8474,28327.7929,54098.4571,42467.5047,36905.7655,39498.0311,5831.7035,50306.9758,43991.4912,55878.9521,761.4791,-558.6594,26261.7767
56928.1429,28321.9367,54095.8643,42454.3172,36884.0396,39490.208,5829.0213,50290.6144,43980.6283,55868.5809,744.1342,-572.8751,26255.1159
56913.9719,28318.584,54095.0596,42445.6894,36866.3371,39488.6434,5827.6802,50282.9254,43969.7206,55866.0775,733.8524,-579.7595,26251.4502
56928.9476,28328.8658,54095.3726,42453.9596,36886.3642,39494.8125,5830.8095,50295.2188,43974.638,55868.4468,744.2236,-568.9412,26258.0216
56945.622,28335.3478,54095.1937,42463.0344,36909.2971,39498.0758,5830.1389,50309.8816,43984.1598,55868.6703,756.6512,-559.5088,26258.0216
56939.8552,28338.7899,54094.255,42465.8954,36907.1066,39499.7746,5828.4849,50316.4083,43983.2211,55872.3807,759.4228,-562.0569,26255.8311
56937.0836,28341.1592,54093.2715,42463.5261,36897.2719,39500.8475,5827.1438,50308.8087,43976.2473,55874.7947,746.6376,-569.9247,26251.5843
56924.1196,28338.3429,54090.6787,42461.0227,36876.7977,39501.518,5823.3887,50288.4686,43969.8994,55865.0941,733.003,-577.2561,26246.801
56935.2061,28342.858,54089.3376,42470.3658,36890.3428,39510.414,5822.9864,50299.9574,43980.8518,55865.9434,741.9884,-572.0705,26250.3773
56966.9455,28351.6198,54092.4221,42486.9955,36925.6586,39522.1263,5829.066,50327.0477,43996.0957,55871.2184,763.7143,-551.3728,26258.6027
56972.757,28349.4294,54093.0927,42488.0236,36929.1455,39527.4013,5827.4567,50336.3907,44002.0412,55873.3642,767.6035,-548.8247,26256.8593
56957.7813,28342.2768,54092.6903,42475.5514,36907.9113,39515.9572,5823.6569,50325.3043,43994.2628,55865.5411,750.7056,-565.1414,26249.7514
56935.3849,28336.6442,54090.7234,42463.3026,36887.3477,39512.828,5826.6073,50305.3665,43985.6797,55861.4284,737.2946,-575.9597,26247.9186
56943.0292,28338.7899,54092.6456,42464.6437,36892.3545,39516.8513,5830.4071,50317.9729,43991.0889,55863.8871,744.7153,-565.4991,26252.9254
56971.103,28345.7637,54094.9702,42474.2997,36925.3457,39524.5403,5833.447,50350.2935,44015.7205,55872.9619,763.1779,-549.7634,26261.0614
56976.8697,28343.9308,54092.6009,42469.3376,36933.5711,39518.103,5833.0446,50361.5141,44021.3531,55879.0863,761.6132,-550.8363,26259.4074
56962.9222,28337.3594,54096.3113,42457.5806,36918.8637,39507.1954,5834.1175,50340.0117,44005.1705,55874.1689,748.4704,-558.3465,26259.3627
56943.1186,28325.9153,54094.7914,42443.6331,36896.1543,39497.8076,5833.4023,50318.6435,43989.2113,55868.7598,735.6405,-570.2823,26255.0712
56947.6336,28322.3391,54091.7069,42439.2968,36898.7471,39493.4714,5830.273,50326.8689,43996.3192,55870.3244,736.3111,-568.5389,26255.6076
56968.7784,28326.4071,54093.2715,42453.7361,36928.7878,39499.9087,5831.3906,50343.8115,44017.3745,55882.1261,755.4889,-553.5632,26260.7485
56982.8153,28329.3128,54099.6641,42467.5941,36940.1425,39501.965,5833.5364,50358.1166,44019.2521,55890.2621,761.4344,-548.8694,26262.3131
56966.2303,28325.8706,54097.876,42454.5854,36916.3603,39490.6104,5831.8377,50340.7717,44006.0198,55886.5517,749.6327,-561.744,26259.318
56942.7609,28316.0359,54098.6806,42440.1462,36896.6013,39485.9612,5832.5976,50316.5424,43996.9003,55888.7869,735.0594,-572.294,26258.7816
56946.4266,28305.1729,54091.9751,42436.704,36904.1115,39482.6084,5832.0165,50322.175,44000.2978,55893.1231,740.2897,-569.3436,26258.871
56961.8046,28308.0786,54090.4105,42446.4494,36931.023,39492.2197,5833.1788,50340.9058,44020.3249,55901.1251,758.3499,-552.4457,26262.939
56959.3906,28305.9329,54088.2647,42449.4445,36934.644,39492.6667,5828.9766,50346.4937,44027.2987,55901.7509,758.8863,-549.4505,26265.1742
56937.9777,28298.378,54086.2978,42443.499,36914.1251,39482.6978,5823.1652,50326.8242,44012.0995,55890.6645,746.4588,-563.845,26257.8428
56916.8776,28288.9009,54087.6836,42434.603,36887.5712,39473.3101,5819.0972,50300.9856,44001.013,55879.4439,723.7494,-580.7877,26251.8525
56920.141,28287.0233,54091.0363,42442.5155,36891.6392,39480.8203,5822.137,50308.4511,44009.3726,55883.5566,733.5395,-570.4612,26257.2616
56944.0126,28296.9922,54091.0363,42458.117,36922.574,39488.3752,5826.8756,50343.9903,44023.9459,55887.2223,756.6065,-551.2834,26261.4191
56946.9631,28297.8415,54087.9965,42454.049,36929.7266,39490.1633,5825.3556,50347.4772,44027.701,55891.0668,757.277,-553.3844,26255.25
56926.3101,28294.9805,54090.2317,42451.6797,36916.5391,39486.4976,5827.7696,50328.8805,44022.1578,55892.6761,743.553,-565.9908,26251.4055
56913.6143,28290.5102,54090.4552,42442.2026,36899.9541,39486.7659,5825.758,50313.9049,44007.8974,55886.9988,730.2314,-578.1054,26247.7398
56917.3247,28296.3216,54091.3045,42447.4776,36913.0969,39491.415,5828.619,50320.0293,44012.2783,55887.4905,736.177,-569.12,26251.4949
56948.8406,28311.2526,54095.909,42469.6952,36943.54,39508.4023,5839.2137,50351.4558,44035.3006,55897.9064,758.4393,-550.4787,26258.7368
56957.2896,28318.271,54097.9654,42473.942,36953.2853,39513.0068,5839.3478,50361.4247,44039.011,55894.509,762.2838,-550.6575,26256.0993
56939.0059,28310.4479,54098.2336,42457.3123,36934.7781,39507.6871,5833.3576,50345.5549,44025.8235,55886.6858,743.4636,-566.3484,26251.5843
56926.1312,28309.4198,54099.7982,42454.049,36915.8238,39506.9718,5832.24,50334.1556,44018.5815,55892.542,731.8407,-575.6021,26248.9915
56934.2673,28310.2244,54097.8312,42458.6535,36922.7082,39512.6939,5834.654,50352.3946,44023.9012,55891.6926,739.9768,-568.3601,26250.9584
56954.9203,28311.2973,54095.6855,42469.8293,36946.4904,39513.3197,5834.2963,50367.5044,44036.7758,55897.9064,754.5054,-554.1444,26254.3559
56953.4004,28306.1564,54089.4717,42466.7895,36947.3845,39504.0661,5826.7415,50359.9495,44035.6135,55895.5371,750.1692,-559.33,26251.7631
56937.3965,28305.5305,54088.1306,42455.3901,36926.3291,39497.4947,5825.3556,50343.2751,44028.3716,55892.3632,737.6522,-567.6001,26250.0644
56925.8183,28305.4411,54087.2365,42447.7011,36907.0619,39492.1303,5827.2779,50321.0127,44014.0218,55883.5119,722.9447,-577.6137,26248.8127
56935.5637,28306.1117,54085.9401,42451.7244,36912.9628,39495.3042,5825.8921,50324.4549,44017.8216,55883.5119,726.7445,-572.2493,26249.3938
56959.5695,28320.1486,54090.7234,42469.1588,36939.5614,39511.5763,5830.586,50354.138,44035.6582,55895.6265,752.5384,-555.6196,26257.2169
56963.6822,28325.3789,54091.5728,42471.4833,36949.3067,39514.3479,5831.3906,50367.5491,44032.1714,55892.8996,757.1429,-553.6526,26256.6805
56951.1652,28319.8804,54098.77,42465.4931,36929.6372,39509.6987,5836.1739,50366.9679,44032.6631,55897.6382,743.9107,-559.0618,26259.8544
56930.8251,28301.9096,54098.0548,42453.5573,36898.613,39500.1322,5834.4305,50345.9126,44022.9625,55897.2359,727.3257,-566.8849,26259.6756
56945.8902,28306.5587,54099.1277,42458.6982,36912.3816,39506.1672,5835.101,50351.9028,44025.9129,55899.0687,730.6337,-564.0686,26258.7368
56969.0019,28316.5723,54099.0829,42472.5562,36947.6974,39510.1011,5840.1972,50382.7929,44040.665,55902.645,754.2819,-552.0433,26264.1013
56967.3479,28320.2827,54101.944,42475.909,36956.7275,39508.8941,5842.6559,50396.651,44047.0576,55905.8636,759.6463,-548.3776,26266.2917
56947.8124,28318.8075,54097.2948,42461.291,36938.3097,39505.0496,5841.7618,50381.4965,44041.4697,55897.6382,746.3247,-555.4855,26259.6756
56931.6298,28315.4547,54094.6126,42446.807,36909.3418,39494.1866,5837.7385,50353.4675,44023.2754,55886.7306,728.4433,-572.741,26250.9137
56942.2245,28315.2312,54097.876,42451.6797,36924.4516,39499.6852,5838.2303,50359.3683,44037.1335,55900.9463,732.2878,-565.9014,26254.3559
56961.0447,28318.1816,54093.7185,42463.8391,36946.8927,39500.0428,5837.1574,50384.7599,44048.7564,55904.5225,741.9884,-553.6079,26253.0595
56970.0748,28327.3906,54090.1423,42471.2598,36951.1396,39502.5462,5835.1457,50396.0252,44053.8973,55904.6119,747.7999,-549.5846,26254.6688
56960.9553,28324.0825,54092.3774,42465.8954,36934.4205,39498.9252,5832.6423,50376.5792,44050.1869,55899.8287,738.9039,-558.6594,26250.6455
56945.2196,28313.0854,54090.6787,42447.3435,36909.2077,39489.0904,5827.6802,50359.2342,44034.5854,55892.3185,720.0837,-578.1502,26239.9614
56954.6074,28313.8454,54091.4834,42449.4445,36919.3107,39493.6949,5828.7084,50366.4762,44040.7097,55897.37,729.6503,-570.5953,26244.9682
56970.0748,28322.8755,54095.8643,42461.5145,36950.6031,39500.6239,5831.1224,50393.4771,44057.9206,55905.0143,750.3033,-554.3232,26251.5843
56976.7803,28323.5461,54093.8973,42465.5378,36959.8567,39502.6356,5834.5199,50406.5305,44060.5581,55908.367,753.656,-547.7965,26256.7699
56958.5413,28319.0757,54093.2715,42458.117,36944.1211,39499.9534,5838.1855,50397.5004,44051.8856,55906.9365,741.0944,-559.8664,26254.6688
56943.9232,28318.271,54100.0217,42449.8916,36927.8044,39498.7911,5840.6889,50379.9319,44041.5144,55904.5225,728.7562,-568.9412,26254.7135
56949.69,28322.9202,54100.2452,42456.5971,36940.1872,39509.1176,5841.7618,50393.7006,44053.2267,55908.5906,733.9865,-563.3533,26260.7038
56981.3848,28334.7666,54106.8166,42477.8312,36975.95,39519.8017,5848.9144,50417.0805,44071.6892,55916.8607,759.1099,-543.952,26268.214
56993.0524,28342.7685,54112.5387,42480.9605,36980.1521,39523.5121,5852.0883,50433.5314,44084.4297,55926.3378,767.2012,-537.2912,26271.4326
56975.8415,28336.1524,54109.6777,42468.8011,36958.2921,39515.3761,5846.0087,50419.4498,44067.3083,55922.538,751.5997,-550.4787,26264.1907
56943.655,28326.4071,54107.8895,42456.8653,36931.5147,39508.6706,5842.1195,50393.4771,44051.6621,55914.0891,733.5395,-564.5603,26261.6873
56944.6385,28327.1223,54110.9294,42463.7049,36942.0201,39518.103,5843.7735,50409.4362,44064.0002,55922.7169,744.0001,-558.7488,26266.9176
56974.6792,28329.3575,54111.0188,42483.9109,36979.571,39529.9941,5845.4722,50441.3992,44084.5639,55930.3612,763.7143,-542.298,26272.5055
56977.8532,28332.6656,54108.7836,42489.2753,36982.432,39529.9047,5846.0534,50440.2816,44085.6367,55931.2552,766.0389,-539.0793,26269.6892
56953.8921,28324.3954,54103.5086,42478.1889,36961.2426,39520.1594,5841.4936,50419.7627,44076.696,55919.4088,754.6842,-554.2338,26259.4968
56933.1497,28313.2643,54099.977,42462.4085,36942.1989,39515.689,5837.3362,50393.7006,44059.7087,55907.1153,739.3062,-569.6118,26250.1985
56944.7726,28317.1535,54101.2287,42468.3988,36946.4457,39522.3945,5840.0631,50399.1544,44064.7602,55911.2728,744.8941,-557.7207,26254.4453
56967.929,28328.6422,54099.7982,42476.8478,36972.3737,39526.2837,5840.8231,50422.1767,44074.4609,55914.6255,756.7406,-548.1094,26258.871
56973.7405,28329.5363,54098.9041,42486.5484,36980.1968,39526.7755,5841.8959,50440.9969,44070.9293,55915.6984,760.0039,-545.7848,26257.1275
56959.3012,28321.7579,54102.1228,42477.2948,36957.5322,39522.7969,5837.9173,50425.3507,44066.7272,55913.1056,746.2353,-554.5467,26252.836
56940.0787,28322.652,54105.6097,42470.3211,36935.7616,39519.2206,5836.9786,50402.6413,44060.6475,55908.1435,730.9467,-567.6001,26252.3443
56957.0661,28327.5694,54107.9342,42480.1111,36951.0055,39529.4577,5844.444,50422.3108,44071.1528,55912.1668,742.5696,-561.4758,26255.5182
56976.7803,28330.4751,54107.2637,42487.1296,36974.5195,39532.8552,5844.1311,50457.4031,44084.7427,55915.8772,755.5783,-546.1425,26260.2121
56976.6909,28332.6656,54110.2141,42493.1198,36976.5311,39537.8172,5847.8415,50469.7412,44082.3734,55919.2747,764.2508,-540.4204,26263.2072
56963.9057,28327.6588,54111.0635,42484.0897,36964.6847,39533.6598,5848.2885,50453.648,44072.8962,55916.8607,755.8912,-552.4457,26258.7368
56948.483,28315.6782,54110.4823,42473.1374,36941.3942,39526.1049,5845.3828,50419.0922,44058.9935,55911.1387,741.2285,-565.7226,26256.6805
56959.9271,28314.6948,54111.8234,42476.1325,36945.5963,39529.6812,5844.8464,50433.6655,44065.5202,55908.8141,745.3412,-560.4923,26258.871
56987.4644,28321.6238,54117.4114,42492.494,36972.7761,39533.928,5849.0932,50464.2427,44089.1683,55927.0978,760.6745,-541.4486,26265.1742
56991.9795,28325.6471,54112.3599,42496.9643,36976.4864,39531.4246,5845.3828,50466.3885,44098.0196,55934.2504,762.4626,-538.3193,26267.5881
56975.4839,28318.2263,54108.0236,42484.4474,36959.8567,39526.2837,5842.1195,50454.0056,44088.5425,55924.6391,755.7124,-550.6575,26264.5483
56956.2614,28310.0903,54109.1859,42469.6505,36941.4836,39518.9971,5838.7667,50430.0445,44069.9458,55914.7596,736.0876,-567.2425,26257.9769
56954.5627,28309.8221,54101.0946,42470.0528,36937.9073,39519.1759,5832.1059,50428.3905,44073.1645,55914.9384,734.6123,-572.5622,26254.1771
56981.2953,28313.2643,54098.2783,42481.631,36966.2493,39524.7191,5831.9271,50449.8929,44087.8719,55921.331,756.07,-555.8431,26259.4074
56990.2807,28317.7793,54100.8264,42486.5931,36976.9782,39525.032,5832.5082,50457.9842,44082.2393,55921.4205,759.6016,-551.5516,26259.1839
56969.6277,28309.5986,54097.6524,42471.7069,36957.3087,39514.4373,5827.6802,50446.0037,44070.4376,55912.1668,745.4306,-561.9228,26255.8311
56951.3887,28299.0485,54099.2618,42462.9003,36932.0065,39513.7221,5827.9037,50429.821,44063.285,55910.9151,738.9486,-568.6283,26256.5911
56959.793,28305.0835,54096.2219,42472.1986,36939.8296,39517.3877,5830.4071,50431.788,44077.0984,55918.5147,746.9505,-561.3416,26257.7087
56983.2623,28318.8969,54098.9935,42485.252,36968.708,39527.6695,5837.1127,50455.4361,44094.8009,55928.2601,762.8202,-544.1755,26263.9225
56987.9562,28317.0193,54101.0946,42486.6825,36977.3358,39527.6695,5838.9008,50468.7577,44089.0789,55929.4224,766.1283,-537.9617,26266.1576
56973.1593,28308.1681,54100.8711,42472.6009,36954.2688,39521.7687,5835.7269,50454.095,44072.8068,55922.1804,747.174,-551.5069,26260.6591
56950.137,28296.9922,54098.77,42456.5524,36925.4351,39513.6774,5832.3741,50428.3458,44066.6825,55913.6868,729.8738,-566.259,26253.2383
56962.0728,28294.1312,54097.5183,42463.0791,36933.437,39514.3479,5830.6754,50443.2321,44080.5852,55916.369,737.071,-557.7207,26255.8758
56979.1496,28299.4062,54097.2054,42472.0198,36966.8305,39522.9757,5833.0446,50467.3719,44098.7349,55923.1192,751.7785,-544.2202,26260.6144
56984.2458,28302.3119,54094.1656,42474.6573,36970.2727,39522.6628,5831.793,50477.1173,44097.7961,55915.8325,754.9524,-546.4107,26259.4074
56964.3527,28299.1827,54091.5728,42467.8624,36949.7985,39518.5053,5826.1603,50463.3933,44087.6484,55908.9035,746.0117,-555.1726,26255.1606
56943.6997,28292.8795,54092.1092,42455.6583,36929.7713,39511.7551,5824.0145,50441.2204,44075.3549,55906.6236,731.4384,-563.5768,26250.6902
56951.2993,28296.0534,54092.7351,42455.9712,36933.2135,39512.7833,5826.4285,50439.7005,44080.2723,55907.0259,736.4452,-560.5817,26251.2714
56966.5879,28304.8153,54094.4785,42469.5611,36958.6498,39519.7123,5831.48,50474.0328,44095.7844,55914.1785,755.2207,-546.366,26256.2782
56972.8911,28306.1117,54093.2715,42476.6243,36961.4661,39529.6812,5832.5529,50486.5944,44094.2645,55915.6984,757.8135,-544.8014,26256.457
56954.4286,28306.2458,54095.5514,42471.6175,36947.161,39528.653,5830.8542,50470.6353,44088.6319,55922.851,741.1391,-555.8431,26256.3676
56943.1186,28307.0505,54098.5465,42472.4668,36933.0794,39528.7424,5831.3906,50456.0173,44074.5056,55914.2679,731.3043,-565.365,26255.9652
56950.8523,28307.5422,54099.6194,42476.8031,36939.3826,39531.5588,5834.654,50467.819,44086.6202,55914.9384,741.3626,-554.502,26259.4074
56966.1856,28313.4431,54098.4124,42484.6262,36957.6216,39534.688,5840.4654,50493.8811,44111.833,55923.6556,760.0486,-540.3757,26263.386
56972.7123,28315.9912,54096.356,42489.5436,36966.5623,39535.0456,5841.8065,50501.2125,44112.9059,55923.298,762.9991,-540.778,26260.7485
56952.1487,28305.7541,54088.0412,42472.0198,36946.4904,39525.3897,5831.9271,50473.2728,44089.0342,55910.8704,744.2683,-555.8431,26252.1654
56933.5073,28295.8299,54087.2365,42457.3123,36919.3107,39516.3596,5825.7133,50451.8151,44073.2539,55902.5556,726.8339,-568.7177,26245.3705
56943.0292,28297.931,54088.4882,42462.8109,36924.6751,39520.964,5827.8143,50462.2757,44076.4725,55905.953,731.4831,-565.9014,26247.1586
56964.3974,28306.3799,54088.5776,42474.9255,36951.9442,39529.1895,5831.9271,50493.7917,44086.7096,55913.0609,748.9622,-547.9306,26251.8078
56964.2186,28301.999,54087.013,42476.1772,36951.8548,39526.9096,5829.2001,50501.883,44087.3802,55914.5808,754.9971,-547.4836,26252.389
56951.5675,28298.825,54087.46,42470.9022,36938.3097,39520.517,5827.1885,50492.987,44079.7806,55909.574,744.2236,-555.3514,26250.422
56928.5005,28286.1739,54082.6768,42452.5738,36914.0804,39511.3081,5819.0525,50472.334,44062.3015,55894.9113,720.039,-573.4116,26241.1684
56937.9777,28284.654,54084.4202,42457.8488,36923.0211,39517.4325,5822.0923,50474.1669,44077.1878,55899.7393,726.9233,-567.0637,26244.0741
56961.894,28297.1263,54092.3774,42469.5164,36953.9559,39525.5238,5829.2001,50503.8053,44097.9749,55920.5711,744.4471,-548.78,26253.6407
56969.1807,28298.0204,54093.2268,42481.5863,36963.8801,39531.9164,5827.2332,50516.5011,44092.3423,55917.0395,748.8728,-548.6906,26250.9137
56949.9135,28297.618,54089.2929,42477.9654,36939.919,39527.4013,5823.1205,50497.7703,44081.9263,55915.8325,738.0992,-566.259,26245.7728
56933.105,28295.204,54087.46,42464.2861,36916.0026,39519.1759,5821.4217,50474.301,44077.8136,55910.2446,722.9447,-580.0277,26242.1519
56948.036,28295.964,54089.3376,42467.1471,36929.6372,39516.6278,5824.4169,50482.4817,44087.6484,55914.7149,729.0244,-573.8586,26248.2762
56969.0466,28301.8202,54087.1024,42480.1558,36955.9675,39518.9524,5829.1107,50510.1532,44098.4219,55924.2815,747.2634,-555.8878,26253.0148
56969.6277,28303.3848,54088.4435,42482.0334,36961.332,39515.1079,5827.5461,50517.7975,44105.2616,55927.2319,753.7454,-549.3164,26255.2947
56960.3741,28296.6793,54093.8079,42470.5893,36948.2785,39511.621,5828.2167,50500.7654,44097.349,55920.1688,743.0613,-557.2736,26254.9818
56941.6881,28293.8629,54095.149,42452.1267,36918.5507,39508.2235,5827.3673,50478.0114,44084.0721,55914.2679,726.6104,-569.7906,26253.1042
56958.9436,28309.5986,54106.1014,42468.1306,36934.3311,39522.931,5836.308,50493.5235,44100.7018,55924.1921,739.0827,-556.2901,26258.3345
56983.1282,28318.584,54114.5951,42486.6825,36972.1949,39540.41,5844.2205,50530.985,44133.2012,55938.7207,761.4344,-537.2018,26269.2422
56982.2788,28320.3721,54111.1529,42492.1811,36981.3591,39544.8357,5845.7851,50542.6973,44134.9,55939.9724,767.9164,-535.2348,26270.2703
56962.1176,28315.6782,54105.1179,42485.252,36956.5934,39534.9115,5840.0184,50521.1949,44115.1857,55929.1542,753.2537,-548.1541,26262.0896
56938.6482,28310.0009,54103.5086,42469.2482,36932.2747,39529.2342,5834.9222,50487.5332,44106.2897,55920.6605,733.2265,-562.0122,26258.1557
56948.5724,28314.0689,54106.7719,42471.5728,36942.2436,39530.5306,5835.9951,50500.2737,44117.7338,55921.9569,738.4568,-554.7255,26261.2402
56966.4091,28318.6734,54107.3531,42487.0402,36969.5127,39535.8503,5841.4936,50527.0511,44131.6813,55929.8247,755.3995,-538.4982,26266.7835
56965.5597,28314.8736,54105.8332,42491.9575,36967.814,39535.4033,5840.3313,50531.0744,44129.4014,55926.6955,759.4228,-536.5759,26263.7883
56951.791,28300.8367,54099.7535,42476.0878,36950.8266,39527.3119,5834.2516,50514.0424,44116.3927,55918.2912,744.5365,-550.0317,26253.5512
56934.759,28290.242,54091.6175,42461.6486,36926.1503,39517.5666,5830.7201,50490.5283,44095.5162,55904.3437,726.2975,-566.8849,26246.6669
56947.4548,28299.2721,54095.5067,42472.4668,36937.7285,39529.2342,5834.0728,50509.1697,44100.8806,55914.8043,733.9418,-559.4194,26254.1771
56966.3197,28309.0621,54099.7535,42484.8944,36968.708,39541.3935,5836.0398,50546.2736,44118.6279,55924.6838,751.4209,-540.8227,26262.0002
56975.5733,28317.2429,54099.53,42490.7506,36973.4913,39536.8338,5834.0728,50558.3435,44129.9379,55927.366,754.1925,-538.6323,26262.1343
56964.2633,28312.996,54100.1111,42487.7107,36963.1201,39538.2643,5832.6423,50549.9393,44122.0254,55924.5497,742.7931,-545.0249,26259.8991
56942.5821,28307.6763,54100.9605,42474.5232,36935.4934,39531.4693,5831.8377,50525.9335,44107.3179,55915.6537,727.0128,-563.845,26251.8078
56944.6832,28302.4907,54096.7584,42475.3726,36932.4982,39529.0107,5833.1788,50527.8558,44114.4705,55920.3923,734.0759,-558.3912,26254.49
56972.0864,28310.895,54099.5747,42490.7058,36959.0074,39541.5276,5839.7949,50549.0452,44127.1216,55935.3232,757.4111,-545.2931,26263.5648
56975.4839,28310.7609,54098.77,42489.2753,36960.0803,39533.8833,5835.4586,50548.1064,44127.4345,55931.1658,760.898,-544.9802,26258.2004
56950.5841,28293.9076,54095.4173,42473.495,36934.1522,39516.4937,5829.4237,50516.3223,44113.9787,55921.1969,742.3013,-560.2241,26247.6057
56934.4908,28286.9786,54093.3162,42470.0528,36920.5177,39511.7551,5830.9436,50495.4457,44097.7961,55915.8325,727.9515,-572.3834,26248.9915
56940.0787,28295.6064,54092.4668,42468.4882,36925.748,39516.0466,5830.4965,50505.057,44101.4618,55919.0065,727.1022,-565.6779,26250.6455
56966.5879,28312.4596,54089.5611,42486.2802,36955.744,39520.8299,5832.1506,50539.3445,44120.3713,55928.2601,748.0234,-549.4952,26251.5843
56978.9708,28318.8969,54089.6505,42490.5717,36966.1152,39525.9708,5830.273,50539.0316,44122.2489,55930.0482,754.1031,-547.4389,26254.4006
56970.4324,28316.1253,54091.841,42489.2306,36950.469,39524.4509,5827.0097,50516.2328,44111.3412,55919.9899,741.8096,-560.0899,26251.5396
56950.4946,28309.4198,54096.3113,42477.116,36927.8044,39512.1127,5821.4664,50503.4924,44099.5842,55917.0842,722.9,-577.9713,26243.7165
56959.1224,28313.9795,54099.53,42481.8993,36937.7732,39517.7007,5822.0029,50507.7392,44102.8029,55917.3077,733.5395,-570.8188,26244.7894
56977.585,28326.9882,54098.77,42496.0703,36956.1911,39532.4081,5824.9533,50532.8625,44116.7057,55916.4584,754.7289,-556.0666,26252.1654
56983.6646,28330.9221,54099.4406,42495.6679,36954.2688,39535.895,5822.3605,50537.1094,44112.5929,55919.9899,752.9855,-553.1609,26252.8807
56974.3663,28323.1437,54101.0052,42484.5815,36927.5361,39529.0107,5821.5559,50527.1852,44105.4851,55925.3991,740.245,-558.5253,26250.6902
56960.7317,28317.1535,54101.2734,42470.6787,36910.817,39520.8299,5822.897,50508.4991,44088.0954,55914.0891,726.2528,-570.1035,26248.9915
56955.1885,28312.3702,54098.77,42474.6573,36926.1056,39521.1875,5825.0427,50514.2212,44088.0507,55910.8704,734.21,-564.7838,26252.076
56968.0631,28312.1914,54093.2268,42483.8662,36951.9889,39525.3897,5827.2779,50530.8509,44105.2169,55915.6984,752.6278,-546.0083,26259.0498
56974.858,28315.1418,54091.1257,42484.5368,36952.7489,39525.8367,5827.0097,50533.846,44101.0594,55916.9501,755.0865,-544.0414,26258.9157
56954.6074,28305.7541,54091.0363,42476.2666,36933.2582,39522.4392,5825.8027,50511.2708,44082.0605,55908.68,742.0331,-558.8382,26253.3724
56922.9573,28293.6841,54089.2482,42456.5077,36908.3136,39508.4023,5823.2546,50483.197,44065.5202,55900.1416,721.693,-576.362,26244.0294
56929.037,28295.3382,54090.187,42465.0908,36914.5274,39511.3081,5828.619,50488.472,44065.2519,55901.8403,728.175,-568.0919,26247.7845
56935.6531,28304.8153,54091.9304,42473.5397,36937.9967,39517.7901,5830.9436,50502.6877,44072.6727,55905.1037,742.0331,-556.4243,26249.7962
56938.7823,28310.9844,54089.9187,42472.8245,36940.9919,39512.1127,5832.5529,50504.297,44066.9954,55901.4827,742.5696,-559.4194,26246.8904
56919.2022,28299.585,54089.427,42461.1121,36921.68,39501.2051,5833.4917,50476.1338,44047.8176,55899.6499,730.2761,-570.7741,26242.9565
56890.5473,28284.7434,54088.6223,42446.5388,36894.0532,39490.4315,5833.3129,50443.5897,44033.4231,55894.0172,715.4346,-584.9451,26239.9614
56891.1731,28291.3148,54088.22,42451.8138,36910.37,39489.5375,5837.4256,50443.0532,44030.4279,55894.6878,719.7261,-581.1006,26240.4084
56906.9982,28301.5966,54087.9071,42470.0975,36938.4885,39496.3771,5844.6676,50457.6266,44041.5591,55905.1037,744.3577,-560.984,26250.1985
56902.1702,28304.3683,54083.8838,42467.2365,36941.3495,39490.3868,5843.3264,50447.2107,44037.8487,55903.5391,746.5035,-560.4476,26252.076
56888.6697,28298.7356,54082.8109,42461.3804,36923.8257,39479.9262,5841.1807,50419.7627,44028.2822,55898.3982,733.6289,-570.7294,26250.6008
56870.386,28298.1992,54088.5776,42455.0325,36898.4342,39475.3218,5843.2817,50389.5879,44010.222,55896.0736,721.7824,-580.1171,26246.7116
56872.6659,28297.931,54082.6768,42450.9645,36899.3729,39474.4724,5839.4372,50382.7482,44004.3658,55883.1096,725.2693,-579.536,26241.7495
56892.6036,28312.1914,54082.8556,42459.9946,36921.6353,39482.2061,5841.3148,50405.2788,44017.5533,55892.1844,743.106,-565.2755,26246.1752
56898.7727,28320.238,54083.2132,42463.0791,36919.8471,39483.0555,5840.7336,50410.5091,44016.4804,55898.2193,741.8543,-564.2474,26247.1586
56880.5784,28317.0193,54078.2064,42451.5903,36897.5401,39475.9029,5836.308,50385.1175,43996.4533,55885.8812,726.4316,-582.4417,26236.6086
56861.9817,28304.5024,54077.8935,42438.7604,36871.7909,39470.0468,5831.9271,50360.62,43980.7624,55873.6771,710.7854,-593.2599,26231.3783
56869.4919,28309.1962,54077.9829,42447.0752,36889.2252,39476.797,5833.9387,50368.6666,43989.9713,55875.3759,722.0507,-585.705,26237.7262
56897.8339,28323.3672,54077.1782,42465.6272,36919.9812,39487.1682,5834.5199,50385.9222,43999.9402,55881.0532,741.5861,-572.0705,26240.5872
56900.4267,28316.7064,54079.2346,42471.9751,36929.1008,39488.0176,5837.6491,50380.9601,43997.6603,55882.7072,745.4753,-565.9014,26241.4813
56885.4511,28315.6335,54079.5028,42468.4882,36908.3583,39484.0837,5837.4256,50366.4315,43993.7264,55880.4721,735.3723,-570.7741,26244.3423
56871.4142,28308.5704,54083.8838,42458.4746,36881.7598,39480.4627,5835.8163,50338.0448,43983.534,55878.0134,722.5424,-579.0889,26243.0459
56877.8515,28319.6121,54085.7166,42461.6486,36891.7286,39488.3305,5840.6442,50343.0963,43984.6963,55876.9405,730.8125,-572.2493,26248.9021
56894.7494,28325.1554,54085.4931,42477.116,36916.0026,39493.2479,5844.7123,50363.794,43993.9052,55882.1261,748.8281,-555.709,26254.6688
56902.796,28322.8755,54086.8789,42487.3531,36923.1552,39500.6239,5849.0485,50367.4597,44000.9683,55882.8861,758.2605,-548.5117,26257.2169
56893.0954,28323.8143,54087.46,42483.3298,36903.3068,39504.6026,5848.6462,50354.5851,43993.1452,55882.439,749.588,-556.6925,26256.3676
56875.0799,28315.4547,54085.4037,42471.081,36876.753,39495.483,5845.2934,50323.2479,43972.4475,55879.8015,733.0924,-571.3552,26250.3773
56882.1877,28310.9844,54084.1967,42466.0295,36878.5858,39485.6036,5838.9455,50318.6882,43971.2852,55879.8462,729.8291,-568.8518,26249.5726
56906.9088,28309.4645,54081.5592,42476.1772,36902.5469,39486.7212,5834.0728,50344.1691,43983.8022,55879.6227,743.553,-554.7255,26250.9137
56915.5365,28313.6666,54076.9547,42474.702,36904.4244,39481.0438,5831.2565,50343.0516,43984.2939,55870.1903,747.9787,-556.156,26247.7845
56898.9962,28304.1447,54079.324,42466.0295,36880.061,39468.4821,5827.6802,50314.6201,43973.431,55867.6422,732.556,-568.0472,26243.4483
56889.1615,28301.1049,54084.5096,42457.5359,36862.6714,39463.6095,5827.859,50299.0633,43966.3678,55867.9104,719.9496,-577.9713,26237.7262
56889.6979,28298.2886,54083.7944,42453.0655,36866.0241,39464.4141,5824.7745,50308.9875,43967.4854,55864.2,721.693,-581.1453,26234.1946
56908.6075,28305.9776,54085.7166,42459.1005,36891.7286,39469.5103,5825.6239,50330.8028,43979.7789,55870.8161,736.8475,-566.572,26236.9215
56926.2207,28312.4596,54092.6456,42471.3939,36916.4497,39477.5569,5831.3906,50332.7698,43984.4728,55873.3642,746.8164,-559.9558,26239.5591
56908.9204,28306.1117,54095.909,42460.2181,36893.6509,39467.0516,5827.0991,50312.9214,43974.9509,55873.5877,732.3772,-570.6847,26239.0673
56895.4647,28297.2157,54096.4901,42449.1316,36867.3652,39463.0283,5828.172,50294.2353,43967.6195,55875.7782,721.5589,-576.8985,26242.8671
56910.3509,28299.1379,54091.1257,42447.7458,36863.6549,39466.1576,5829.5578,50299.6445,43971.5087,55878.5051,725.4481,-570.5059,26244.2976
56942.7609,28309.1962,54088.98,42464.1967,36888.6888,39475.4112,5831.7482,50322.8456,43986.0821,55882.439,746.727,-556.0219,26249.2597
56950.9417,28311.0291,54091.3045,42470.4552,36900.9823,39476.1264,5834.0728,50336.1672,43990.2842,55884.6295,755.5336,-547.7518,26252.6572
56936.9495,28310.2244,54089.874,42461.6486,36887.0348,39477.9146,5833.8493,50328.2547,43984.3386,55886.4176,745.9223,-558.7935,26250.1091
56915.8494,28300.8814,54088.667,42446.2259,36860.9726,39470.0021,5830.9883,50316.1401,43973.3416,55879.2651,730.2314,-573.6351,26241.8389
56915.8047,28302.4907,54086.9683,42450.6962,36869.4663,39474.2936,5833.0446,50324.4549,43977.3202,55883.4672,731.3937,-573.9927,26241.6601
56936.5472,28310.2691,54089.2035,42472.0645,36900.6693,39483.3684,5838.9455,50341.8446,43993.8605,55889.1445,747.3975,-550.7022,26248.5445
56932.5238,28304.2789,54083.6602,42473.3609,36902.3234,39472.3713,5835.3245,50347.8348,43992.8323,55886.9541,751.5103,-547.4836,26248.4998
56909.4568,28298.2439,54080.3969,42459.9946,36876.8424,39457.7086,5829.1554,50325.8854,43989.7031,55876.5829,738.6804,-563.5321,26243.7165
