FC3,FCz,FC4,C5,C3,C1,Cz,C2,C4,C6,CP3,CPz,CP4
57012.7219,28370.5741,54137.8409,42538.7174,36930.4866,39550.6471,5724.1023,50153.777,43738.9165,55819.4071,866.1747,-562.4145,26327.5802
57025.2389,28380.3642,54134.9351,42542.8748,36943.7188,39554.4469,5731.3889,50167.5457,43745.8456,55826.2914,871.0921,-558.883,26326.6861
57008.6986,28383.8511,54133.4152,42530.8049,36925.1221,39545.5062,5727.0974,50161.6001,43738.3801,55822.1787,851.5567,-570.5059,26323.3334
56990.1913,28379.9171,54136.1868,42522.3112,36904.4691,39539.7842,5722.18,50143.6293,43729.1265,55816.9931,829.2049,-586.9567,26318.9971
56992.2924,28369.4565,54134.4881,42521.6854,36909.4759,39540.2759,5719.9448,50141.26,43733.5521,55819.1389,832.2895,-586.1074,26316.4937
57005.614,28370.0377,54132.0294,42532.593,36921.3223,39538.5325,5720.6601,50160.1249,43743.0292,55820.8376,849.2768,-573.1434,26319.9359
57013.2583,28376.6985,54129.9284,42541.3102,36934.2417,39538.9348,5726.2033,50180.2415,43745.3985,55822.8493,864.6995,-565.365,26323.4675
56999.6238,28372.407,54124.9663,42531.5201,36922.7976,39535.4927,5722.9847,50165.9364,43742.1799,55819.3177,852.406,-575.4232,26318.2372
56989.6102,28369.4565,54125.9944,42522.2665,36899.9094,39527.1778,5723.4317,50136.4768,43734.6697,55821.3741,834.9717,-586.2862,26315.8679
56993.4547,28366.6402,54128.8555,42527.1839,36897.1825,39534.3304,5723.4764,50140.0083,43730.8252,55824.548,838.3244,-584.5875,26316.5832
57015.0912,28370.9764,54129.9284,42543.9924,36928.6984,39552.48,5724.9069,50167.2775,43738.2907,55829.6889,858.7539,-567.7342,26320.6959
57031.8103,28379.0678,54125.1004,42542.0702,36941.6624,39556.2798,5722.6717,50181.0461,43747.6784,55828.7948,863.9395,-559.777,26319.8912
57019.8745,28383.0911,54121.6582,42534.6941,36929.6372,39549.306,5723.6999,50173.5806,43748.5278,55824.4139,853.3001,-571.3552,26316.9855
57010.0397,28383.5381,54131.6718,42534.6941,36915.198,39552.2118,5728.6173,50155.8781,43747.1867,55827.3196,845.0747,-580.9218,26321.3217
57007.4916,28385.9968,54128.8108,42534.9176,36917.1202,39553.2399,5725.0857,50170.5855,43748.0807,55825.4421,847.0863,-580.5194,26317.209
57024.8812,28391.8977,54128.5872,42547.2558,36944.434,39555.5198,5726.6504,50201.6991,43761.2236,55832.5946,862.509,-568.4495,26321.7688
57031.855,28400.8831,54131.8506,42553.2013,36954.9394,39557.7103,5726.9186,50212.4727,43771.5948,55833.7569,867.1135,-565.4544,26322.9758
57014.5547,28400.0337,54131.1353,42548.8651,36936.2533,39559.7219,5721.733,50191.9985,43757.6026,55828.2137,854.373,-576.4067,26319.3548
57000.4284,28394.267,54125.5921,42538.1809,36908.8054,39555.0281,5717.0838,50170.809,43743.5657,55815.6967,831.306,-593.4834,26314.0798
57011.6043,28399.4079,54124.1616,42537.1975,36907.956,39562.7171,5716.5474,50179.3474,43758.4966,55815.6967,832.4236,-588.879,26315.6891
57041.6003,28406.0687,54128.6767,42552.7543,36944.0317,39580.5538,5723.4317,50214.6631,43774.3664,55824.101,855.1329,-569.0306,26321.5452
57054.3855,28404.0123,54132.7447,42557.8505,36960.572,39588.3322,5726.4268,50232.1422,43783.9329,55827.0961,862.5984,-560.2241,26327.312
57033.0173,28397.8432,54133.4152,42547.3452,36932.5429,39580.6432,5718.4249,50217.9265,43776.4674,55823.8328,848.6062,-568.3601,26321.5899
57011.8725,28390.3331,54133.7281,42539.1644,36915.645,39573.0883,5717.2626,50190.0762,43764.4869,55816.1885,837.8327,-585.7497,26313.0516
57019.5615,28390.4225,54135.4269,42543.8136,36932.8558,39580.4644,5718.9614,50202.772,43769.8513,55818.9601,842.5713,-583.8275,26314.7503
57043.3438,28392.4788,54138.6008,42556.5094,36968.7974,39587.3487,5722.0012,50239.3395,43788.6268,55830.3595,860.8103,-567.5107,26322.2605
57049.1999,28394.0434,54136.0527,42558.4316,36979.4816,39582.2525,5720.3025,50251.0965,43788.6715,55829.2419,866.2194,-565.5885,26322.3052
57035.6548,28386.578,54132.7447,42549.3568,36960.2144,39570.4508,5716.0109,50231.9187,43783.3071,55824.3692,853.4342,-574.7974,26319.0866
57018.7569,28373.3457,54128.9449,42529.285,36927.9385,39558.6938,5714.8039,50200.9839,43772.0865,55822.4916,836.8492,-587.4485,26319.2207
57015.8511,28372.8987,54123.1334,42521.6407,36926.0162,39557.1291,5713.2393,50196.8265,43763.1905,55820.4353,832.7365,-587.4932,26317.656
57034.3137,28380.2748,54125.458,42537.868,36954.2688,39560.0796,5716.9944,50216.5854,43781.1613,55828.5713,850.752,-572.6069,26320.1147
57032.7491,28381.75,54130.2413,42534.6047,36969.9597,39556.8162,5718.0673,50230.3541,43788.0009,55838.0932,857.0999,-571.3552,26321.5899
57018.6675,28379.0678,54134.0411,42524.5017,36955.8334,39549.7531,5719.0061,50216.3619,43778.4791,55839.0766,841.9007,-581.0112,26319.3101
57010.442,28380.3642,54135.2034,42520.4784,36933.5264,39545.2827,5724.4152,50199.6875,43770.1643,55836.7074,828.3108,-584.1404,26317.1196
57013.3924,28379.2466,54137.8409,42523.8758,36931.5147,39545.4168,5730.4054,50199.5981,43774.4111,55839.2555,836.8939,-578.1502,26319.7124
57031.8997,28385.1922,54140.5678,42536.7504,36966.2493,39553.2399,5735.1887,50227.4036,43791.3537,55850.2525,854.4177,-560.8499,26326.9097
57039.3205,28389.1261,54138.2879,42542.3831,36982.4767,39551.9882,5735.2781,50245.1956,43798.1039,55857.3157,863.9842,-557.8548,26325.7921
57017.8628,28381.9735,54134.9798,42528.7485,36966.2493,39547.7414,5732.4171,50236.8361,43786.9728,55852.0854,853.3001,-568.7177,26321.9476
57004.5859,28372.3623,54130.733,42517.975,36933.3029,39544.6569,5727.9915,50210.2375,43777.7191,55846.0951,832.96,-585.1239,26319.5783
57002.1272,28371.0659,54126.5756,42519.182,36939.2931,39544.5675,5724.0576,50204.0684,43778.6579,55843.1894,829.8755,-586.1521,26318.1925
57020.8132,28379.7383,54129.2578,42532.4142,36966.7858,39552.5247,5729.2432,50231.114,43794.4829,55850.7442,848.6062,-568.673,26325.1215
57026.3118,28382.2864,54128.6767,42535.7223,36966.2493,39549.7531,5729.0196,50235.6291,43801.9931,55860.4896,853.5683,-566.6167,26327.4014
57011.6043,28376.1621,54122.1946,42528.6591,36949.0832,39547.4285,5724.2811,50221.6816,43787.4645,55847.3468,843.8677,-578.1949,26321.8135
56990.1466,28360.6946,54118.9313,42513.2364,36929.2349,39534.3304,5716.1003,50193.0267,43775.3499,55839.7919,826.031,-590.7118,26316.2255
56990.996,28358.4595,54118.7972,42512.5659,36935.2698,39539.6948,5715.251,50191.015,43771.103,55843.4576,828.0426,-584.0063,26317.2984
57008.1174,28364.3603,54120.7641,42522.5347,36957.3087,39549.4401,5716.8156,50218.3288,43788.3139,55849.7161,841.5878,-570.5953,26319.3548
57024.0319,28371.1106,54122.8652,42535.1411,36975.503,39556.7715,5724.3258,50246.3132,43804.1389,55855.8851,852.1825,-560.6711,26323.691
57012.096,28373.4798,54123.5358,42525.0381,36964.1036,39556.3692,5729.3773,50239.8312,43793.723,55850.1184,844.4041,-570.0141,26320.1147
56987.375,28376.2962,54125.5921,42514.7563,36939.2931,39548.0543,5726.5162,50215.1996,43774.5005,55842.2953,828.5791,-584.1851,26317.1643
56994.617,28381.2582,54131.5377,42521.6854,36940.9919,39558.2467,5729.5114,50219.7593,43783.7541,55842.1612,836.1787,-578.9995,26320.1147
57013.3477,28387.4273,54132.9682,42537.1528,36970.7197,39571.9707,5733.8029,50249.6213,43800.7414,55851.5042,856.0717,-565.2308,26325.1215
57029.8433,28388.9025,54137.5279,42550.7426,36985.7848,39576.1728,5738.2733,50262.2724,43813.0796,55859.3273,871.1815,-557.8995,26333.4364
57022.7355,28382.9123,54138.6902,42545.7805,36971.7479,39576.7987,5738.3627,50242.424,43802.2166,55853.9182,863.4031,-563.3086,26334.241
56997.031,28374.4633,54135.5163,42532.8165,36947.2504,39569.8696,5735.8146,50214.9314,43788.8503,55844.9328,843.7783,-579.3571,26329.4578
57000.5625,28383.0464,54137.1703,42536.0799,36951.9442,39572.2389,5732.8641,50217.6136,43790.4596,55846.7656,843.7783,-576.2726,26328.966
57023.406,28385.7286,54140.7466,42548.3733,36975.19,39582.1184,5739.2567,50254.7622,43803.2448,55851.4595,862.062,-562.5486,26331.0671
57033.7325,28386.1756,54142.043,42552.9331,36991.4174,39582.1184,5743.6824,50269.2014,43815.9406,55856.3769,871.1815,-551.0151,26332.2294
57017.6393,28387.785,54142.043,42547.7028,36970.8538,39573.3565,5739.2567,50257.7126,43808.2516,55857.3604,857.0552,-556.8266,26331.0671
56989.6996,28373.3904,54133.8176,42529.9108,36944.7917,39561.6889,5728.3938,50226.6437,43792.6054,55844.9328,831.9765,-579.1336,26322.5287
56995.7793,28372.6305,54129.1237,42523.9205,36949.9326,39561.7783,5725.1304,50217.5242,43796.137,55847.8385,836.7598,-577.6584,26320.5618
57018.3545,28377.9502,54132.8788,42535.2752,36975.8159,39573.2671,5725.6669,50239.0265,43806.1953,55856.8686,857.4575,-558.7935,26326.6861
57023.8978,28378.3972,54131.8059,42539.5668,36988.2435,39575.8152,5728.0362,50251.0518,43811.9173,55859.5508,867.1582,-553.7421,26333.3917
57011.3361,28371.4235,54132.6106,42531.9672,36980.9121,39568.1262,5730.4502,50236.6573,43799.1768,55860.5343,860.0503,-566.0802,26332.1847
56996.7628,28367.7131,54131.8506,42523.4288,36951.5866,39558.0232,5727.0974,50222.2627,43781.6083,55851.7277,840.8725,-579.8042,26325.3003
57006.1058,28362.3934,54131.3142,42522.2218,36948.5915,39561.4654,5727.455,50220.6981,43789.8785,55849.8502,844.1806,-576.2726,26329.4131
57032.7491,28365.3885,54134.6669,42534.0682,36974.296,39572.686,5732.4171,50249.9342,43814.376,55861.6072,864.5207,-559.2853,26334.5093
57039.8122,28370.887,54138.8243,42538.628,36982.879,39572.1495,5734.8758,50267.905,43820.1874,55864.96,870.9133,-551.1492,26335.5374
57018.3992,28368.7413,54135.5163,42527.0051,36968.3504,39560.6607,5726.7845,50246.4473,43805.1671,55858.3885,853.0766,-565.4544,26325.4344
56996.9416,28359.89,54132.5212,42522.1324,36945.9093,39556.9056,5720.3472,50222.7098,43793.0524,55853.6947,834.3905,-580.3853,26318.9524
57007.8492,28366.5955,54130.1519,42525.7981,36955.8334,39562.2253,5719.7213,50230.3094,43799.9368,55854.1864,840.7831,-575.5126,26323.3781
57035.3866,28376.0726,54130.9565,42538.0915,36982.2085,39566.7851,5726.3821,50251.6776,43825.0601,55863.3506,862.0173,-555.5302,26328.1614
57042.8967,28380.4089,54132.1188,42540.5502,36998.6594,39567.9921,5728.5726,50266.4298,43831.6762,55866.5693,869.7957,-549.2717,26327.4014
57033.5537,28376.8326,54130.5542,42536.5269,36985.1589,39563.0747,5725.5328,50254.6728,43813.2137,55860.8919,856.6529,-561.9675,26322.7522
57006.4634,28363.6451,54130.0178,42519.4055,36953.5983,39551.0048,5720.0342,50231.6952,43802.4402,55860.4896,836.134,-579.6254,26316.1361
57011.202,28369.6353,54131.3142,42520.7466,36958.158,39550.7365,5726.6951,50242.3793,43812.1855,55863.9318,844.1359,-580.1171,26319.1313
57034.8948,28376.3409,54131.8059,42527.3627,36980.4204,39564.7734,5729.0643,50268.2626,43827.3847,55869.2068,859.5586,-567.9131,26323.5122
57049.3788,28377.369,54133.907,42536.4375,36999.7323,39571.166,5732.4618,50277.6951,43839.9911,55868.2233,868.9463,-556.1113,26326.9097
57039.6781,28373.7034,54136.8574,42535.8117,36985.606,39568.5732,5733.2218,50268.5308,43833.9114,55868.3127,861.1232,-561.9228,26325.8815
57021.0814,28368.4283,54133.2811,42529.2403,36962.8519,39557.755,5728.662,50243.5416,43811.0232,55856.1087,841.2302,-578.6419,26314.3033
57019.8745,28368.8754,54134.9798,42531.5648,36971.8373,39565.3993,5731.7019,50243.4969,43814.5101,55856.1981,843.823,-574.708,26317.4325
57039.6781,28375.8044,54138.7349,42544.9312,36994.5467,39575.2788,5737.2004,50274.0294,43836.5042,55870.682,862.5984,-554.4573,26328.2955
57041.2427,28378.576,54136.4551,42546.7193,36997.6759,39571.1213,5733.4453,50287.5745,43840.2593,55872.8278,867.2923,-556.156,26322.7969
57027.9658,28375.8044,54136.5445,42542.3384,36987.4835,39564.0135,5733.4006,50276.7116,43831.4527,55870.7714,855.4906,-567.9578,26320.2488
57006.1058,28364.2262,54133.594,42528.5697,36969.1998,39558.0232,5727.8126,50251.0965,43814.5101,55859.7744,831.3507,-582.9781,26311.6658
57013.303,28362.9745,54133.6834,42529.4638,36967.1881,39560.169,5724.6387,50247.4755,43813.8396,55858.7909,833.7647,-578.9101,26310.0117
57030.648,28366.5508,54132.9235,42537.5104,36992.3115,39564.997,5724.9069,50274.5658,43834.7161,55866.3011,851.8249,-562.9957,26312.9622
57030.5586,28375.3127,54135.0245,42541.489,37004.6496,39570.1379,5724.8622,50290.7038,43845.892,55870.235,854.8647,-560.4029,26313.6774
57022.6014,28373.6587,54136.0974,42541.2208,36991.7303,39567.2321,5723.8787,50289.0944,43832.6597,55862.993,845.3876,-570.6847,26309.2965
56999.3109,28362.8851,54131.3589,42520.1207,36966.8305,39558.9173,5715.7427,50263.837,43813.7054,55848.7326,823.3935,-588.0296,26304.2897
57006.4634,28366.5061,54126.4415,42525.7534,36977.5593,39562.2253,5717.9332,50263.2111,43818.9358,55848.8667,826.2098,-585.7944,26307.0166
57031.7656,28383.2699,54133.4152,42551.5473,37020.4747,39579.3021,5729.9137,50295.8,43841.3322,55864.7364,850.8414,-565.3203,26315.2868
57044.5955,28389.7966,54139.3161,42562.1867,37034.1539,39586.544,5735.144,50310.2392,43857.6043,55874.1689,868.4099,-556.3796,26324.0039
57030.7374,28382.3311,54139.7631,42553.6931,37015.3338,39584.13,5732.3724,50291.0167,43847.6801,55865.4964,859.0221,-563.6662,26321.2323
57008.1621,28370.2612,54139.2267,42535.7223,36986.1424,39573.2671,5727.2762,50260.9313,43826.7142,55854.7676,842.7501,-575.7362,26316.2702
57015.2253,28372.3623,54138.9138,42533.0848,36981.985,39569.6908,5723.2082,50268.7544,43830.6928,55858.925,839.0844,-577.3902,26314.7503
57035.6995,28378.576,54144.2335,42545.3782,37006.5272,39580.5538,5725.6669,50296.5152,43852.374,55872.5148,854.1048,-561.0734,26319.2207
57039.4546,28380.0513,54138.9585,42550.5191,37011.0869,39582.4313,5723.5211,50308.2275,43852.7316,55872.3807,859.8268,-559.4194,26319.4889
57026.58,28369.4565,54136.5445,42536.7951,36991.5068,39571.5237,5718.6484,50293.0731,43836.3701,55865.4517,847.131,-576.6749,26313.0516
57007.0446,28354.302,54132.387,42522.9818,36966.4729,39558.8279,5713.7758,50262.8535,43821.9756,55858.478,827.6403,-592.187,26308.5365
57006.1952,28352.2457,54130.8224,42517.5279,36968.1269,39558.1126,5712.7029,50266.3404,43830.8269,55856.064,827.0591,-589.5942,26309.1624
57028.0552,28356.3584,54128.8108,42527.9886,36992.9373,39567.1427,5710.87,50293.6989,43847.9036,55859.7744,840.6043,-578.9995,26311.4423
57036.4594,28355.3302,54125.5027,42533.1295,37000.671,39565.9804,5709.8866,50300.315,43852.374,55861.7413,846.0134,-574.0821,26310.4141
57023.719,28355.3749,54124.8769,42526.558,36983.8178,39562.3147,5707.562,50296.8282,43836.7277,55857.5839,836.581,-577.8819,26306.3908
56997.3886,28348.1777,54124.3851,42510.3754,36957.2639,39553.5976,5702.8234,50273.2694,43826.7589,55851.8171,819.8619,-589.6837,26303.2615
57003.96,28350.9046,54127.8273,42512.2529,36961.2426,39563.0747,5705.2374,50277.7845,43829.3517,55851.7724,822.3206,-585.0345,26308.4918
57038.6946,28362.2593,54133.6387,42529.6426,36992.2668,39577.648,5712.1664,50311.5803,43841.511,55860.6684,844.5829,-565.5438,26315.555
57058.8112,28372.1834,54139.1373,42544.2159,37009.12,39583.0125,5720.3025,50327.1818,43861.5829,55872.7831,861.4361,-555.2173,26321.2323
57048.0824,28370.0377,54139.8972,42541.3102,36994.3231,39582.0737,5716.7709,50315.2907,43857.9172,55871.3526,849.1874,-566.9296,26318.416
57022.3778,28356.9843,54137.1256,42526.2451,36962.0025,39571.6578,5707.1149,50295.8,43835.5654,55856.8686,825.6286,-585.3921,26309.7435
57028.5469,28363.958,54140.7913,42533.8894,36974.5642,39577.2457,5710.1101,50302.8184,43845.3555,55867.8657,833.8094,-580.0724,26314.2586
57053.7597,28371.7811,54144.0994,42548.1051,37005.3649,39586.4546,5717.4861,50324.2314,43864.2204,55875.5994,854.8647,-564.8732,26319.4442
57062.4322,28376.9667,54141.9536,42554.3636,37013.7691,39590.3438,5716.1897,50338.76,43877.3632,55871.442,859.6033,-560.4029,26317.3431
57046.1601,28373.4351,54138.9585,42552.3072,37001.6545,39582.7889,5710.1101,50323.6502,43864.7121,55867.0163,848.0698,-571.1764,26309.52
57019.8745,28359.7112,54136.1868,42536.8845,36970.3174,39571.3896,5702.3317,50302.6396,43840.9299,55858.165,819.4596,-591.6953,26299.3276
57012.3196,28354.4362,54125.905,42533.9788,36965.6682,39569.2438,5701.08,50297.3199,43836.1913,55851.5936,816.8668,-592.0529,26297.5395
57028.5916,28356.5819,54123.6699,42538.9856,36988.6905,39573.58,5701.7505,50321.5045,43849.3788,55856.6451,836.8939,-578.776,26302.9486
57029.7539,28359.3982,54125.458,42545.0653,36998.5253,39578.9891,5703.2704,50335.2731,43859.3477,55860.4002,848.3827,-568.0472,26306.8378
57018.8016,28357.5654,54125.6368,42537.1975,36984.4437,39570.9425,5702.7787,50316.0506,43849.2894,55853.6947,838.9056,-578.4184,26304.4685
56997.7015,28344.1991,54122.1052,42519.629,36958.2474,39568.8415,5697.3696,50292.7601,43825.4178,55846.1398,820.2642,-598.3114,26296.6901
56999.4897,28346.3895,54118.9313,42517.3938,36961.8237,39570.1379,5696.7437,50300.7621,43825.9095,55845.2457,821.1583,-595.8527,26296.6007
57024.2554,28349.8317,54120.2277,42529.0167,36989.0034,39573.0436,5698.6213,50329.3276,43845.4002,55850.3419,834.9717,-582.7546,26301.4734
57035.5207,28354.0785,54123.7146,42535.767,36997.8547,39582.0737,5700.0518,50339.8329,43849.1553,55855.7063,841.1855,-576.4067,26301.6075
57025.7306,28354.7044,54127.6038,42531.4307,36986.9471,39583.5042,5705.1033,50326.2877,43851.2117,55854.7676,835.7763,-578.016,26302.7698
57014.6441,28356.2243,54130.3754,42524.904,36966.0705,39580.1514,5705.8632,50305.1877,43832.4809,55845.7822,825.4945,-591.6953,26298.9253
57018.131,28363.8239,54135.9633,42534.3364,36978.0064,39586.544,5714.8039,50321.4151,43841.5557,55848.062,833.8988,-586.2415,26302.9039
57044.4614,28369.5906,54137.975,42546.8087,37004.0685,39598.7034,5722.0906,50347.7007,43874.2787,55865.4517,854.5071,-566.572,26315.1079
57049.1105,28376.8326,54139.182,42549.178,37010.4611,39601.8773,5727.008,50362.4082,43888.852,55873.7218,858.2622,-558.6594,26319.5783
57040.4381,28376.7879,54137.0362,42539.7456,37000.5816,39593.6519,5723.7893,50356.8202,43872.2223,55867.7316,842.3477,-564.6944,26315.5997
57030.8715,28368.5625,54139.6737,42526.0216,36972.4631,39583.3254,5717.4414,50330.8922,43850.1388,55860.1767,819.7725,-581.4135,26306.2567
57020.2321,28365.8355,54138.5561,42526.3792,36968.261,39581.8502,5713.7311,50332.1886,43848.8871,55863.2612,821.3371,-585.6603,26306.0778
57029.4857,28369.6353,54136.4998,42539.7456,36993.2055,39583.2807,5712.3899,50346.7619,43861.8958,55865.0494,838.995,-574.7974,26311.174
57031.7209,28369.7695,54132.1635,42541.1314,36995.5748,39580.2855,5710.9147,50356.3732,43861.8958,55868.2233,841.6772,-571.6234,26310.3694
57020.098,28365.2097,54127.6038,42528.5697,36978.4981,39567.4109,5705.4609,50347.5666,43846.0261,55865.1835,827.3721,-585.4815,26307.5083
57005.8376,28353.2292,54126.0391,42513.6387,36952.2572,39562.7618,5702.4211,50329.6852,43834.9396,55860.9813,811.5023,-600.5466,26302.9039
57014.2865,28359.2641,54131.8953,42524.2335,36956.0122,39574.2506,5708.1431,50336.6143,43847.0542,55864.8705,821.8288,-589.9519,26306.9719
57041.3768,28369.5459,54136.6339,42539.2985,36986.053,39584.89,5718.0673,50370.4548,43872.9823,55876.9405,846.684,-570.7294,26315.9573
57056.8442,28377.1455,54138.7349,42544.35,37004.1579,39593.8307,5721.733,50378.7696,43878.6149,55878.7286,852.9425,-563.4427,26320.6065
57044.5955,28374.5527,54138.1538,42543.5901,36987.0365,39583.8171,5718.559,50360.5753,43868.8248,55873.6771,842.9289,-574.6186,26318.2372
57026.8035,28368.2048,54134.9351,42533.6212,36959.7673,39573.3565,5712.1664,50328.2547,43855.6373,55863.4847,824.6899,-590.4883,26309.967
57024.7918,28366.1485,54137.5279,42525.7534,36959.0968,39573.4906,5710.7806,50325.4384,43855.5926,55865.6752,826.1204,-585.258,26309.52
57053.1338,28375.8491,54134.9798,42541.0867,36990.9704,39579.7044,5716.458,50353.4228,43868.4672,55871.3526,846.0134,-570.9082,26312.0681
57063.2815,28383.4934,54133.2364,42551.0556,37001.3416,39581.8502,5719.9895,50367.1914,43879.2855,55883.1543,858.8433,-562.1016,26318.0584
57040.2145,28375.2233,54133.6387,42547.2558,36981.8062,39577.4692,5720.6154,50350.1147,43871.2388,55879.6227,849.6344,-568.3601,26316.4043
57025.0154,28366.2379,54131.5377,42535.0964,36959.2756,39576.1281,5717.4861,50328.0312,43859.8394,55875.1523,830.7248,-582.4864,26309.6988
57022.1543,28365.2097,54128.0508,42536.4375,36970.3174,39578.5868,5715.5192,50336.3907,43860.4206,55872.0231,833.407,-582.1288,26306.8825
57043.8802,28381.6606,54137.3491,42552.039,36992.7585,39592.6684,5720.4366,50373.6287,43891.3554,55882.7519,856.027,-561.744,26317.7454
57055.1008,28390.8695,54143.2947,42562.589,37009.9247,39605.543,5727.8126,50400.3167,43898.3738,55888.921,863.8054,-553.0715,26324.5851
57046.4283,28386.6674,54142.0877,42561.4268,37000.0005,39607.1523,5727.3209,50383.8658,43885.231,55886.507,853.3001,-562.6827,26321.4558
57020.0533,28376.2515,54136.5892,42546.4511,36973.089,39591.7743,5719.5872,50361.2906,43869.8083,55875.51,831.7083,-579.8936,26314.6162
57014.063,28366.9531,54129.3919,42538.0468,36969.1551,39581.582,5714.5357,50345.5997,43868.3331,55873.2301,826.478,-588.3425,26308.6259
57040.6169,28369.7695,54133.8623,42551.145,36993.3397,39589.9862,5719.0508,50373.137,43880.1795,55882.0367,848.785,-570.2823,26314.795
57053.8491,28371.2,54135.2928,42563.0361,37013.188,39590.925,5720.7495,50388.1127,43888.4944,55883.5119,864.2077,-561.0734,26322.037
57046.5177,28365.0309,54136.4998,42557.0905,36996.7371,39585.2923,5718.7378,50373.6287,43882.9958,55877.0746,854.9988,-573.3669,26319.2207
57026.0435,28355.3302,54134.7563,42546.5852,36971.2114,39578.9444,5710.1995,50348.9971,43862.4322,55867.2398,832.5577,-588.6555,26310.9058
57018.9357,28356.9396,54133.6834,42541.9807,36971.3455,39580.375,5708.2325,50350.0253,43858.0513,55865.8987,834.0776,-585.6156,26313.3198
57043.8802,28370.3953,54138.4667,42559.5939,36998.7935,39593.2496,5714.9827,50387.3527,43884.2475,55881.0532,853.6577,-564.4709,26321.9029
57063.9521,28380.0066,54145.5746,42569.831,37011.3552,39602.0561,5719.2743,50398.5286,43898.9997,55889.6363,865.5041,-550.434,26326.9097
57051.301,28379.9618,54146.3792,42557.314,36996.0666,39601.3409,5724.8622,50384.9387,43895.1999,55887.3117,856.1164,-557.8548,26327.312
57032.7491,28379.9171,54149.0614,42549.5803,36977.8723,39601.2962,5726.1139,50370.2313,43876.8715,55879.3992,844.1359,-568.9412,26327.9378
57030.6033,28385.7733,54151.4307,42555.7494,36977.2017,39609.2534,5726.8739,50368.4878,43870.4342,55873.4089,843.5994,-563.5768,26329.4578
57053.6256,28401.2854,54157.7786,42567.6405,37007.0189,39623.3797,5732.9088,50405.9941,43891.9365,55882.6625,864.7442,-543.4602,26336.7444
57066.4555,28400.3019,54158.2257,42565.9418,37015.1103,39626.5537,5732.0148,50424.3672,43903.4253,55891.3797,879.854,-539.2134,26336.7891
57058.0959,28396.2339,54155.8564,42559.8174,36987.7517,39625.4361,5729.3773,50402.686,43887.3321,55887.0435,866.0406,-552.0433,26330.2624
57040.9745,28388.8578,54153.8,42550.4744,36964.9082,39614.3943,5727.3656,50372.7794,43870.4789,55879.0863,846.5946,-567.8236,26326.3285
57040.6616,28389.3496,54156.8846,42561.3374,36977.1123,39617.1212,5728.0809,50371.5724,43862.0299,55878.4604,850.2603,-563.5321,26326.2391
57059.6159,28397.7985,54160.8632,42571.9768,37007.2424,39619.5799,5733.1771,50387.7997,43873.6528,55883.5566,865.9959,-549.674,26328.966
57073.2057,28398.6032,54161.8019,42574.4355,37018.3736,39614.4837,5737.3345,50404.9212,43875.0386,55888.921,869.3933,-542.6556,26331.4247
57059.2582,28390.1989,54159.6562,42563.7066,36999.2405,39604.9619,5732.6406,50384.9834,43856.889,55881.0979,854.5518,-552.7139,26327.4461
57031.855,28382.197,54153.1742,42544.7077,36976.71,39593.6966,5727.3656,50350.1147,43828.5917,55868.1786,835.0611,-572.1599,26319.1313
57016.6111,28382.957,54150.7155,42538.628,36981.5379,39587.1699,5729.2432,50336.4801,43816.9241,55862.3672,838.9056,-574.9315,26319.8018
57029.2622,28388.3214,54150.8049,42542.5619,37003.0403,39584.3536,5733.8029,50356.6414,43826.2224,55868.6256,852.8084,-558.7935,26322.5734
57029.0387,28396.8151,54155.2752,42544.0818,37014.6632,39581.0455,5734.7864,50362.2741,43836.8171,55881.0085,860.9891,-545.9189,26327.6696
57014.7783,28395.921,54151.6095,42536.6163,36993.3844,39573.9377,5736.1722,50333.2168,43818.2652,55869.8326,849.1874,-556.1113,26323.5569
56991.9348,28391.3165,54145.5746,42521.9983,36965.0424,39561.8677,5738.9885,50297.3646,43797.0757,55858.6568,834.7929,-571.087,26318.1031
56993.2759,28395.1163,54144.6805,42525.9322,36963.1648,39559.8561,5741.6707,50284.3559,43787.8221,55857.5392,840.7831,-571.6234,26320.7853
57017.9075,28406.4263,54146.0216,42536.8845,36984.8907,39564.6393,5746.3646,50294.5483,43792.6054,55866.7928,858.3516,-556.3796,26328.2508
57019.9192,28412.9083,54145.9322,42540.9079,36997.363,39562.4936,5746.3646,50294.0118,43795.0194,55866.8375,863.0455,-552.4904,26325.658
57005.614,28414.8306,54146.7369,42533.9788,36987.3941,39555.8774,5743.7271,50273.7164,43771.1924,55856.5557,848.9639,-567.6895,26318.6842
56977.1379,28405.9793,54143.4735,42515.7398,36950.2455,39544.3887,5736.0381,50242.3793,43749.6901,55847.4362,823.7064,-584.2298,26312.6493
56964.3974,28403.8335,54145.8875,42507.8273,36941.3048,39541.8406,5735.4122,50234.8244,43754.0263,55848.4197,822.9017,-582.3076,26314.4374
56978.1661,28410.4943,54149.1508,42522.6688,36963.9695,39550.5577,5738.5862,50253.5552,43768.4655,55856.2428,841.9901,-565.0073,26320.2041
56988.2691,28414.5623,54148.9273,42540.9079,36977.9617,39556.4139,5741.2684,50268.665,43769.9854,55855.1252,851.3331,-556.8266,26320.6512
56983.3517,28405.0852,54146.9157,42533.1742,36956.951,39547.3391,5740.0614,50243.4969,43762.9223,55847.0339,841.5878,-570.7294,26311.7105
56968.2419,28399.9443,54147.3627,42527.318,36926.1503,39546.8473,5739.6591,50212.5621,43747.6337,55840.0601,830.2778,-582.844,26309.8329
56970.2089,28402.3136,54147.4968,42538.4045,36929.056,39555.3857,5737.9603,50209.9693,43741.6434,55835.6792,836.6704,-574.8421,26315.2868
56985.9445,28405.4428,54145.2616,42549.8039,36949.7091,39557.3974,5737.4239,50221.8157,43758.2731,55837.2885,853.2554,-562.0122,26318.3266
56994.4382,28409.8238,54147.7203,42559.1469,36958.0239,39561.823,5740.1508,50227.8954,43767.8397,55852.6665,862.0173,-557.2736,26322.1711
56983.4858,28408.3486,54148.3015,42556.3306,36938.6226,39562.1806,5738.6309,50214.5737,43755.4568,55850.476,851.7802,-561.3416,26318.0584
56957.0661,28400.749,54145.9322,42543.3666,36908.0454,39552.9717,5735.6358,50186.4105,43736.5919,55836.4838,833.5412,-576.1385,26312.381
56965.8279,28396.7704,54150.8049,42548.9545,36909.0289,39552.1224,5736.8428,50184.6671,43741.107,55836.3944,840.7831,-573.1434,26312.7387
56991.3089,28409.0191,54154.6047,42563.3937,36938.4438,39554.9387,5736.6192,50201.0733,43749.0195,55839.166,855.9823,-560.537,26318.4607
56994.2147,28405.3087,54157.1528,42561.3374,36945.0152,39556.1457,5735.4122,50209.4328,43752.9534,55842.6529,863.0902,-556.4243,26322.5734
56983.2623,28396.2339,54153.9341,42559.0128,36934.1075,39554.4916,5732.283,50195.3959,43739.0506,55837.6014,853.3448,-564.8732,26317.2984
56965.6938,28391.7636,54153.6212,42549.8486,36905.5867,39550.5577,5729.0196,50167.1433,43726.0866,55829.1972,841.096,-577.8372,26312.8281
56968.9125,28391.1377,54150.8496,42545.3335,36904.4691,39549.1719,5726.0245,50156.191,43727.4277,55825.9785,842.3477,-576.2726,26311.7552
56992.3818,28395.3846,54149.3744,42553.7825,36932.9453,39548.2779,5726.4715,50180.465,43740.5705,55836.9309,860.0503,-565.9461,26320.8747
57003.6918,28395.1163,54151.4754,42551.8155,36937.952,39546.2215,5727.5891,50194.7254,43745.8456,55839.8366,863.716,-563.0851,26323.3781
57004.72,28393.06,54154.2917,42554.7659,36929.9948,39551.6753,5734.2499,50177.5593,43738.4248,55838.8084,854.4624,-565.4544,26321.9029
56987.0621,28384.1193,54149.4638,42543.0536,36899.7753,39544.7463,5732.0595,50147.6526,43725.1925,55834.1593,837.341,-577.6137,26319.0866
56991.3089,28384.8345,54150.4025,42539.6562,36895.9308,39545.4168,5732.8641,50154.3134,43730.6464,55833.891,840.4702,-575.5126,26321.3664
57009.0115,28388.3214,54152.146,42545.4676,36920.8753,39550.9154,5737.0663,50179.0345,43742.5375,55837.8696,856.2505,-562.638,26325.2556
57021.4391,28387.5167,54148.7932,42547.1663,36937.6391,39548.9037,5735.5016,50187.9752,43749.5559,55837.1097,862.0173,-559.0618,26326.0603
57012.5878,28386.8015,54147.3627,42537.0634,36923.4681,39541.3935,5734.0711,50169.7809,43746.0691,55839.8813,851.6461,-565.0967,26329.9942
56995.4664,28383.8063,54143.9205,42525.2616,36894.5897,39533.1234,5731.7019,50143.674,43728.4559,55831.9688,836.4469,-578.776,26324.2275
56999.892,28382.2417,54141.9089,42524.5464,36896.4672,39538.3984,5732.1936,50144.434,43737.2625,55834.5616,839.7102,-571.6234,26324.138
57019.1145,28387.8297,54143.7417,42536.661,36922.2164,39545.2827,5730.316,50165.8916,43754.6968,55843.1894,857.0999,-555.709,26326.8203
57027.2505,28387.8297,54138.869,42537.1975,36928.6984,39548.0096,5726.3374,50185.1588,43758.3178,55846.408,862.6431,-551.9986,26324.5851
57018.0863,28385.7733,54139.8972,42532.3248,36913.0522,39546.8026,5727.2315,50189.7633,43750.8076,55842.3847,855.3118,-562.7722,26319.8912
56996.0475,28376.6985,54138.1985,42522.3112,36885.649,39540.9018,5721.9565,50173.6253,43744.1915,55834.6063,839.9338,-577.7925,26314.7056
56998.7744,28380.3642,54138.2879,42519.629,36885.8278,39538.8901,5723.834,50170.1385,43743.7445,55834.0251,841.7666,-576.7196,26314.6609
57029.6198,28386.6674,54137.6173,42535.6328,36923.5575,39541.9747,5729.8243,50190.8809,43756.3062,55838.1379,858.6645,-563.0404,26319.5783
57034.9842,28381.9735,54140.0313,42545.3782,36950.1114,39545.5509,5737.0663,50205.4095,43771.2818,55848.1961,869.3039,-550.3893,26326.1944
57016.6111,28375.715,54135.8292,42540.6396,36934.5099,39545.5062,5731.2548,50193.3396,43761.5812,55848.2856,860.0056,-559.5535,26324.0486
56993.0524,28371.3341,54137.9303,42526.111,36909.2524,39538.309,5727.8574,50169.915,43747.8125,55842.6082,842.5713,-571.2658,26319.3995
57001.5907,28377.5926,54139.6737,42535.3199,36914.9745,39545.5509,5731.2548,50167.5457,43751.8805,55840.1495,848.5615,-569.2989,26321.0088
57030.7374,28390.6907,54141.1042,42556.2859,36946.6245,39559.9455,5737.4686,50199.5534,43765.3363,55841.7141,866.3535,-555.9325,26325.345
57037.13,28391.6295,54138.9585,42560.0857,36959.4097,39563.6111,5730.4502,50217.5689,43770.0301,55840.1048,870.198,-555.0385,26322.9311
57030.5586,28396.0104,54140.8807,42555.6153,36945.194,39562.8065,5728.5279,50212.0256,43767.6162,55842.5188,859.2904,-557.9442,26319.7124
57015.717,28393.5964,54142.7583,42543.6795,36921.68,39559.0514,5729.3773,50192.5349,43761.3577,55841.2671,840.0232,-571.2658,26315.6444
57011.8725,28394.2223,54142.0877,42541.0867,36929.1455,39559.9902,5731.0313,50197.1394,43774.1429,55841.133,842.5713,-571.7576,26315.8679
57028.3234,28407.3651,54143.3841,42555.7494,36962.2707,39565.5334,5730.4054,50227.6719,43789.1185,55848.2409,861.0338,-557.8548,26319.623
57034.6713,28410.9414,54141.3277,42560.9797,36969.2892,39564.5946,5728.1703,50231.6505,43786.2575,55849.6714,870.645,-554.8149,26319.9806
57018.7122,28408.0803,54140.7019,42547.7028,36948.7703,39559.4984,5723.5658,50219.2676,43770.209,55842.3847,852.4507,-569.1648,26313.4986
57012.856,28399.8102,54139.8972,42539.2091,36920.2942,39559.5878,5721.2859,50186.0976,43754.6521,55834.0251,832.2001,-584.1404,26307.7319
57020.4556,28404.9958,54141.1936,42541.6231,36920.2942,39570.4508,5721.0624,50196.29,43762.52,55837.8696,838.9056,-577.2114,26314.5268
57040.8404,28413.713,54142.2665,42554.9001,36952.7489,39581.0455,5725.8904,50235.7632,43781.7872,55845.5586,857.3681,-559.0171,26323.2887
57057.8277,28413.9365,54145.2616,42559.0128,36962.986,39584.0853,5726.8739,50249.7107,43791.4431,55847.615,867.2923,-552.2668,26325.1215
57046.026,28408.0803,54145.4852,42558.6998,36957.5322,39581.8502,5727.7232,50239.9206,43783.0836,55845.5586,860.2291,-560.8052,26323.0652
57029.4857,28408.885,54148.525,42551.5473,36939.8296,39579.1233,5731.523,50222.5757,43776.2439,55843.0552,850.8414,-565.0967,26323.1099
57029.2175,28409.0638,54152.5483,42548.3733,36940.4107,39579.7491,5731.3442,50228.4318,43778.4791,55846.7656,853.1213,-557.9889,26325.8815
57055.5478,28414.6518,54152.4142,42561.2926,36972.1055,39584.89,5738.4968,50250.6047,43798.9533,55853.6053,873.1037,-543.6838,26329.8154
57058.2747,28412.3272,54150.2237,42559.8621,36986.1871,39582.3419,5735.5016,50254.6728,43803.5578,55854.2758,871.0474,-545.606,26325.6133
57032.1679,28405.8452,54148.0333,42544.3053,36966.5176,39571.0766,5725.9351,50238.9371,43788.9397,55853.7841,857.234,-559.6429,26320.8747
57012.9901,28396.7257,54140.5231,42534.6047,36945.194,39558.515,5720.4366,50205.946,43776.6463,55844.9775,844.9405,-576.3173,26316.8514
57007.3128,28389.6625,54141.4618,42533.0848,36943.6741,39549.6637,5715.7427,50197.2288,43775.7522,55851.683,838.5479,-581.637,26316.002
57025.8647,28387.9638,54142.9371,42536.2587,36963.0307,39551.9882,5719.1849,50227.806,43784.5588,55856.8686,854.1048,-567.2425,26319.0866
57031.3185,28383.404,54138.9138,42534.4259,36978.6322,39555.6539,5720.1236,50240.6359,43796.4052,55861.3837,859.0221,-559.2853,26320.2488
57020.098,28372.6752,54134.9798,42531.2966,36968.4398,39547.2497,5718.0673,50227.4483,43790.6384,55854.2311,843.1971,-568.5836,26315.6891
56996.8969,28355.822,54135.4269,42518.1538,36938.0862,39541.7064,5715.4745,50202.9061,43777.3615,55848.6879,829.3837,-580.7877,26311.2634
57006.5528,28358.7277,54136.6786,42520.7913,36942.1989,39542.6005,5716.1897,50206.9294,43782.7259,55849.4925,830.8142,-576.2279,26312.8281
57031.2291,28372.7646,54141.0148,42540.282,36973.5807,39554.8493,5723.2976,50236.7914,43799.7133,55855.7957,851.4673,-556.3796,26322.8416
57040.6616,28376.7432,54140.7019,42544.0371,36991.3727,39557.7997,5726.6504,50246.3579,43809.3245,55861.5625,861.1679,-549.4952,26323.3781
57028.6363,28370.887,54139.7631,42536.0799,36975.7265,39552.6588,5727.7679,50241.9323,43798.5957,55857.1368,848.8744,-556.3349,26317.2537
57013.616,28367.3108,54136.2762,42518.1985,36952.0783,39544.7016,5722.7165,50216.2278,43774.1429,55846.5868,830.7248,-572.6963,26308.5812
57013.7948,28372.3176,54138.6902,42526.3345,36957.3981,39554.894,5727.6338,50222.6204,43783.4859,55850.8784,841.0066,-566.6614,26310.6376
57024.3448,28377.4585,54142.6688,42540.9973,36983.0579,39567.5451,5732.5065,50255.3433,43809.4586,55859.5061,860.2738,-550.0317,26319.5336
57036.0124,28379.6489,54141.2383,42550.0721,36992.9373,39566.2487,5727.7679,50270.9895,43812.1408,55858.8356,860.1397,-551.3728,26317.4772
57025.3283,28372.6752,54133.8623,42539.8797,36976.2182,39557.3974,5720.8389,50250.4259,43798.4616,55843.7705,844.6276,-563.6662,26308.4024
57003.1554,28368.4283,54135.5163,42528.7932,36948.815,39548.5461,5722.8059,50223.425,43789.2079,55847.7491,829.3837,-575.6021,26304.5579
57001.8589,28368.2495,54133.7729,42528.8379,36939.9637,39547.205,5721.9565,50225.4367,43790.5937,55851.1466,827.1486,-577.1667,26307.2848
57021.8861,28380.0513,54138.3773,42540.3267,36975.9947,39553.8211,5725.354,50249.3531,43803.9154,55859.5508,847.6675,-563.5321,26313.6327
57026.6247,28379.6936,54138.5114,42540.0585,36988.2435,39553.687,5724.4152,50259.2325,43804.4518,55862.3224,853.5683,-557.4971,26315.4209
57024.3895,28376.3409,54138.869,42534.9176,36972.0608,39551.1836,5719.8554,50245.1509,43795.2876,55856.2875,844.6276,-567.2425,26311.3976
57002.1272,28373.2563,54139.6737,42526.8263,36949.3514,39552.3459,5719.8554,50230.3541,43787.9115,55851.683,829.2943,-577.6584,26308.6259
56997.2545,28375.6703,54139.7631,42524.5911,36948.9044,39550.7813,5716.5027,50230.4435,43783.1283,55846.7656,823.2594,-581.3241,26306.659
57019.8298,28384.9239,54138.0644,42530.7602,36971.2561,39559.4537,5720.0789,50257.6679,43800.1603,55852.6665,839.8443,-565.4991,26312.6045
57028.5916,28394.4905,54140.2996,42533.1742,36980.778,39561.8677,5720.6154,50275.594,43805.9717,55856.064,846.9075,-556.2007,26316.9855
57011.7384,28394.0881,54140.076,42533.1742,36967.4563,39559.1855,5717.0391,50251.0965,43804.1836,55854.4099,839.0397,-566.259,26314.0798
56988.6714,28379.783,54138.6008,42522.3112,36938.5332,39552.48,5711.0041,50226.5096,43786.8387,55842.787,822.1865,-582.5311,26306.8378
56988.3585,28373.8822,54136.6339,42516.4104,36936.8792,39555.0281,5713.5522,50227.6719,43788.448,55837.5567,821.8288,-578.3737,26304.4238
57013.303,28389.439,54143.3841,42535.9458,36973.4019,39566.4722,5724.5493,50258.9643,43802.4402,55848.9561,844.8511,-562.6827,26313.5433
57033.7772,28398.3797,54146.6027,42548.418,36996.7371,39573.7588,5726.4715,50271.7942,43806.8211,55852.3089,855.8482,-555.9325,26317.1196
57021.9755,28386.8909,54140.836,42539.3432,36965.847,39562.5383,5719.0061,50255.1198,43793.1865,55847.8385,845.1194,-572.3834,26311.174
56995.6899,28378.0396,54141.1936,42524.5911,36939.4273,39551.1389,5717.2179,50231.427,43785.9446,55846.7656,831.0825,-583.0675,26308.7153
56996.9863,28375.715,54142.2218,42519.1373,36941.8859,39549.619,5715.7427,50229.4153,43792.963,55851.236,829.2943,-583.0228,26308.0001
57018.891,28385.1922,54142.3559,42536.661,36970.2727,39560.3925,5720.6154,50261.1548,43814.8677,55861.7413,853.7918,-558.883,26317.1196
57029.7092,28389.7519,54138.5561,42543.3218,36976.8888,39562.0465,5721.5542,50266.4745,43813.5713,55860.3555,858.3516,-550.3893,26317.7454
57022.199,28380.5877,54136.2315,42536.2587,36959.3203,39553.9105,5717.4414,50253.1528,43802.3061,55856.511,845.2535,-561.5205,26313.8562
57011.8278,28369.233,54133.3705,42521.9983,36934.2417,39544.791,5711.4065,50225.1238,43794.93,55848.4644,826.2992,-581.2347,26305.4967
57011.1126,28366.7296,54135.4716,42515.4716,36930.9336,39543.2264,5710.3783,50219.4911,43793.0524,55845.7375,821.3371,-581.1006,26301.4734
57035.7442,28376.7432,54141.1042,42531.7436,36962.2707,39558.5597,5716.9497,50262.0935,43815.5383,55856.0193,840.1126,-565.2308,26309.073
57043.8355,28385.4157,54139.6737,42533.5318,36971.0773,39564.1476,5717.6203,50280.3773,43824.8813,55857.2263,847.2651,-562.4592,26309.6094
57024.6577,28376.922,54138.0644,42526.1557,36959.5885,39552.0329,5716.7709,50259.3666,43822.1097,55859.0591,839.3526,-568.4495,26307.9107
57011.0679,28369.993,54139.3608,42514.8457,36948.055,39543.2711,5713.5075,50235.8973,43811.7385,55853.8288,823.3935,-580.43,26302.9933
57017.3264,28369.0989,54141.5513,42517.4385,36953.1959,39547.4285,5717.6203,50248.0567,43818.0417,55859.1485,825.271,-575.5126,26306.7037
57032.5255,28374.7315,54138.1538,42524.2335,36974.8324,39555.3857,5717.0838,50273.8059,43832.0786,55865.7646,841.2302,-561.2075,26311.2187
57043.1203,28381.3477,54140.2996,42534.0682,36988.7352,39563.3429,5722.18,50283.1936,43836.3254,55874.0348,856.0717,-551.5516,26316.3596
57033.8666,28377.0561,54141.2383,42529.1508,36979.0345,39558.4255,5719.6319,50271.3472,43832.7938,55871.7102,847.0416,-560.6264,26313.7668
57019.2039,28369.8142,54134.9351,42524.9934,36951.7207,39548.9931,5717.2179,50246.5814,43823.9425,55863.0824,829.2049,-575.0209,26307.106
57008.6986,28365.612,54128.9002,42522.1324,36954.1794,39549.0825,5715.6533,50241.217,43819.4275,55851.5936,831.9765,-577.1667,26304.9155
57023.9425,28375.4915,54134.0411,42527.2286,36982.2532,39560.616,5718.872,50264.6416,43833.6432,55865.854,848.6062,-562.6827,26308.3577
57042.3603,28378.3972,54140.4337,42546.0488,37004.1132,39565.4887,5724.3705,50285.9205,43841.8686,55872.6043,860.7209,-556.8713,26313.7668
57031.408,28378.4866,54140.836,42541.1314,36990.121,39556.2351,5722.2694,50290.4356,43840.9746,55868.8045,849.3215,-563.8003,26310.0564
57013.8395,28366.7296,54136.5892,42528.2568,36966.5623,39551.4518,5716.9497,50282.2101,43824.3002,55865.3623,826.1651,-581.8158,26303.2168
57011.8725,28369.0989,54136.4998,42529.0614,36967.3669,39560.3925,5719.4978,50275.9963,43829.0834,55866.1669,829.4284,-575.0209,26308.313
57028.234,28378.4866,54138.422,42543.2324,36994.3231,39566.8745,5723.2082,50299.5551,43848.2165,55872.0231,849.5003,-557.676,26313.9457
57030.8715,28381.0347,54139.2267,42547.7028,37011.3999,39562.7171,5726.3374,50310.9992,43852.7763,55872.5595,856.3399,-553.5185,26313.4986
57022.5567,28378.1737,54139.7184,42543.0089,37000.5816,39558.4702,5725.0857,50302.1032,43839.4994,55870.1456,846.0134,-562.638,26311.7105
57010.6208,28370.3506,54139.3161,42532.2801,36966.7858,39559.0067,5719.319,50284.7135,43825.6413,55861.8307,828.4003,-577.3008,26309.2518
57003.96,28373.4798,54139.8972,42538.5833,36971.122,39561.2866,5722.9847,50287.0828,43835.9678,55865.854,835.0164,-570.4165,26316.0914
57020.2768,28376.475,54138.0644,42549.8486,36995.1725,39570.5849,5728.215,50317.0341,43859.3477,55876.1358,853.9706,-556.0666,26321.0088
57027.6529,28377.4585,54134.0411,42554.1848,37014.6185,39570.8084,5729.9137,50336.3013,43865.1145,55879.0416,856.2952,-553.2503,26319.3995
57017.5946,28377.7267,54138.4667,42553.6484,37009.567,39567.0086,5731.1654,50327.5394,43857.2913,55875.3759,848.1592,-559.9558,26315.5997
57005.0329,28376.0726,54143.7864,42540.0585,36981.8509,39566.3828,5730.0031,50307.3335,43829.4858,55866.8375,830.2778,-573.3669,26311.8446
57010.2632,28377.0561,54146.6027,42544.0371,36981.3591,39572.2389,5728.662,50307.0652,43840.3934,55870.7714,835.1058,-566.7061,26314.6162
57032.4361,28389.3049,54143.4288,42562.9914,37009.6117,39586.857,5730.7631,50335.7649,43861.5382,55877.164,855.58,-551.5516,26318.4607
57047.3671,28392.4788,54139.0479,42569.9204,37025.2579,39587.6169,5731.9254,50351.1429,43864.9803,55870.3244,863.5372,-546.4554,26316.9408
57038.7393,28389.1261,54137.975,42561.0691,37014.3056,39586.7676,5732.0148,50338.9835,43859.2583,55868.4468,855.7141,-555.5302,26313.0963
57011.0679,28379.9171,54139.8525,42545.8252,36979.5263,39579.7938,5729.3326,50312.4297,43840.3487,55859.7296,836.581,-567.2425,26308.2683
57018.131,28377.682,54144.0994,42549.0886,36983.3261,39581.6267,5731.076,50309.8816,43850.4517,55867.0163,842.616,-561.7887,26314.3927
57041.8686,28379.7383,54142.2665,42561.0244,37009.8352,39590.4779,5731.5677,50343.0068,43870.4789,55872.649,862.062,-551.4622,26318.0584
57052.508,28382.2417,54145.8875,42570.9486,37025.8391,39597.2729,5731.7466,50366.5656,43872.7587,55879.6227,868.991,-545.3378,26318.6395
57036.2359,28375.715,54142.49,42558.5657,37007.153,39585.65,5725.801,50348.2372,43863.5945,55873.6324,849.2768,-556.8713,26314.4821
57017.1028,28368.2048,54136.0527,42540.9526,36977.9617,39571.9707,5719.4084,50316.0059,43844.7744,55861.8754,826.6568,-579.2677,26307.0166
57014.5547,28366.819,54139.0926,42536.4375,36977.6934,39574.0271,5720.4366,50312.6979,43846.6519,55855.9746,827.7744,-579.4913,26306.6143
57034.9842,28372.0046,54138.8243,42554.4083,37006.0802,39581.7608,5724.0576,50350.3829,43862.0746,55861.3837,847.9804,-561.6099,26309.967
57045.0872,28373.4351,54137.7515,42556.9564,37013.2327,39577.0222,5722.3588,50366.1633,43868.5119,55863.2612,855.3118,-557.2736,26309.9223
57033.9561,28366.9531,54132.0294,42548.9545,36999.2852,39570.8084,5714.3122,50358.0719,43858.2748,55862.4119,840.5596,-567.6895,26305.2285
57011.3361,28357.476,54126.8885,42535.7223,36968.9316,39556.9503,5705.4609,50332.5015,43843.4333,55851.0572,820.8454,-584.811,26295.4384
57013.8842,28359.3982,54126.7991,42532.593,36964.9082,39556.7268,5705.3715,50324.4549,43841.1087,55852.0406,820.2195,-586.1968,26296.0196
57040.7957,28372.2281,54130.286,42552.1731,36997.2736,39572.5071,5710.7806,50350.9194,43865.785,55865.6305,843.6888,-567.7342,26306.5696
57052.5527,28373.5693,54132.5659,42555.3024,37010.0588,39579.6597,5712.1217,50362.4529,43874.6363,55873.0066,852.9872,-560.0005,26309.1624
57036.8618,28368.4283,54132.1635,42549.2227,36990.2551,39578.3186,5713.1946,50350.7853,43875.441,55871.9337,844.8064,-568.1813,26306.3014
57018.6675,28356.8949,54128.0508,42540.5502,36971.7479,39573.7141,5710.3336,50323.4267,43862.6111,55862.3672,833.8988,-584.1404,26304.245
57018.6675,28352.7821,54123.9828,42539.1197,36971.7032,39572.5518,5711.6747,50325.5725,43859.6606,55858.7462,835.8657,-582.1288,26306.7931
57042.5838,28360.0688,54127.4697,42550.0274,37002.7721,39580.8667,5712.2558,50365.6715,43873.7869,55865.407,848.9192,-571.5787,26309.073
57061.8957,28369.4565,54126.6203,42561.1138,37022.4863,39588.6451,5714.491,50376.9815,43884.8734,55867.5081,855.1329,-564.5603,26309.4306
57043.3885,28367.4896,54130.4201,42552.5755,37005.052,39584.3983,5715.7874,50366.9232,43877.0056,55866.1222,844.0465,-571.1764,26308.0448
57016.7899,28360.4711,54133.2811,42542.5619,36989.4058,39574.3847,5711.8982,50357.6249,43863.7733,55861.4284,824.2875,-586.3756,26302.0098
57018.9357,28363.6898,54133.5046,42545.6017,36987.4835,39576.6199,5710.5571,50358.1613,43870.5683,55863.753,823.3041,-583.7828,26303.2615
57033.4643,28365.2991,54129.9284,42556.9564,37001.3863,39581.1349,5708.009,50376.3109,43879.5984,55867.5975,836.7598,-574.6633,26306.7037
57042.4944,28366.6402,54127.6485,42563.2149,37016.7643,39581.4031,5711.8535,50386.9951,43885.4545,55868.8045,846.2816,-566.4378,26307.2401
57032.1232,28362.9745,54125.8603,42553.4248,37004.2026,39577.5586,5712.3899,50373.0923,43874.7257,55865.1835,835.4187,-573.8139,26303.3509
57007.6257,28354.8832,54122.6864,42533.0848,36971.122,39569.8249,5706.1315,50349.6677,43855.1903,55858.9697,814.4528,-592.1423,26292.6221
57014.3312,28355.509,54125.7709,42536.7951,36969.1998,39577.9163,5705.6397,50355.9262,43864.9803,55863.6189,820.5771,-588.8343,26296.9136
57020.2321,28359.6218,54121.4347,42547.7922,36993.2055,39583.7724,5702.2423,50383.8658,43877.8996,55868.8045,831.9318,-576.1832,26300.5346
57025.7753,28360.4264,54117.0537,42547.1216,37006.9295,39575.3235,5701.1694,50387.6656,43875.6645,55867.4186,834.6587,-573.6798,26300.3111
57010.8443,28351.441,54111.0188,42534.1576,36983.4155,39559.0961,5694.2403,50369.7842,43860.8676,55860.9813,819.1913,-590.0413,26290.2975
56995.0193,28341.3827,54109.4989,42524.9487,36957.4875,39555.1175,5690.8876,50345.7338,43847.2331,55854.0076,803.1428,-604.3464,26286.5424
56991.3536,28338.3876,54107.5766,42521.7748,36947.6527,39555.1175,5689.9041,50342.0681,43854.8326,55852.2195,801.2205,-602.2453,26285.5589
57015.0018,28343.2156,54108.5601,42536.6163,36975.4136,39564.4605,5694.0168,50370.9465,43873.6081,55858.7462,818.5655,-585.1686,26291.4151
57026.9376,28345.3614,54109.4542,42543.8136,36993.0714,39563.4323,5693.3463,50385.0281,43879.956,55861.6966,829.6072,-576.7196,26293.6503
57009.3244,28343.3497,54112.2258,42538.5386,36981.8509,39558.515,5692.5416,50377.652,43876.5138,55857.5392,818.9231,-581.7711,26291.6386
56979.3284,28334.7666,54111.8234,42527.3627,36949.262,39547.5626,5691.424,50356.0603,43861.0911,55848.2409,800.3712,-597.0597,26283.4132
56991.3983,28337.2253,54115.0421,42535.2752,36959.9909,39550.9154,5697.1908,50359.9495,43866.3214,55855.0358,803.2769,-594.5116,26289.5823
57007.7598,28341.0698,54113.1198,42539.0303,36978.3193,39557.755,5697.459,50376.5792,43880.3136,55862.6354,822.1418,-580.0724,26294.6784
57019.1145,28346.6578,54118.7972,42550.8767,36988.914,39566.9192,5699.3365,50402.1496,43882.6829,55869.1174,834.9717,-572.1152,26299.6405
57014.1077,28350.547,54120.4512,42550.9214,36979.124,39566.3828,5697.6378,50398.3945,43878.2126,55868.0892,824.4663,-576.8985,26298.8806
56990.9066,28343.7967,54121.7476,42539.3432,36954.7606,39556.548,5696.4755,50373.897,43868.6907,55863.2165,808.5966,-588.9237,26296.0196
56995.064,28343.1709,54120.4512,42537.0634,36952.3913,39562.3595,5699.5153,50364.2857,43865.2039,55862.0542,812.3964,-587.1803,26297.6289
57018.4439,28355.0173,54121.2559,42552.4414,36985.6954,39574.8317,5705.2374,50386.5927,43884.3369,55870.5926,834.5246,-566.7955,26304.3344
57025.82,28363.6898,54121.5688,42557.0458,36999.9111,39576.0834,5707.5173,50402.1049,43885.5439,55879.0416,844.5382,-559.5982,26303.2168
57005.8376,28354.5703,54119.6465,42548.8651,36978.364,39572.6413,5703.0022,50402.4178,43880.1348,55876.717,831.5295,-576.0938,26298.8359
56983.3964,28341.2039,54115.4891,42534.0235,36954.0006,39562.3595,5696.7437,50373.5393,43867.5731,55870.1903,810.2953,-593.6176,26290.6104
56995.064,28345.4061,54119.1101,42533.5318,36952.8383,39564.684,5698.0401,50366.0291,43858.4089,55868.3574,809.5354,-594.9587,26291.5939
57019.6956,28358.0124,54121.8817,42550.6532,36979.8839,39576.2175,5706.3103,50394.3264,43870.8812,55874.9735,826.7015,-576.8985,26299.9535
57022.0202,28360.6052,54116.8749,42559.728,36987.1259,39579.8832,5704.2986,50403.5354,43880.8948,55877.164,836.581,-567.3766,26301.5181
57012.5431,28358.9065,54115.5338,42558.074,36971.1667,39573.58,5705.148,50389.4538,43879.2408,55875.8229,831.2166,-573.948,26302.2333
56995.3322,28357.8336,54122.2394,42551.1003,36946.2669,39566.7851,5708.456,50366.208,43872.9376,55875.1523,814.7657,-581.8605,26304.245
56996.4945,28351.5304,54123.804,42549.8486,36945.3281,39566.7404,5704.9692,50373.7181,43873.5187,55867.3292,808.6413,-586.018,26299.1041
57016.7452,28351.5751,54123.3569,42558.7893,36970.5856,39576.6199,5706.4891,50395.0864,43883.577,55869.8773,830.7248,-576.2726,26302.6804
57024.2554,28354.4362,54124.1616,42554.8553,36987.6176,39579.7938,5711.183,50414.3089,43890.8637,55872.336,839.3973,-567.9131,26303.7533
57023.3166,28360.6052,54126.9332,42558.9681,36983.3261,39577.5139,5715.698,50415.1583,43888.3603,55873.7218,830.546,-573.1881,26301.831
57007.5363,28360.0241,54126.4862,42549.8039,36953.3747,39576.6199,5712.7476,50400.5402,43880.8501,55875.3759,816.3303,-585.9286,26297.316
57007.7151,28359.13,54122.7758,42549.7591,36952.6595,39584.7112,5712.4794,50399.7356,43885.3651,55873.0513,814.4081,-590.1307,26295.7513
57025.0154,28367.9366,54123.5805,42566.3441,36978.2746,39590.2991,5717.9332,50430.4916,43907.4934,55883.2884,838.9056,-568.0472,26305.6308
57031.408,28366.7743,54124.9216,42576.2683,36995.3066,39595.4847,5721.5542,50445.1543,43913.7071,55890.6645,848.6509,-556.469,26311.1293
57021.1262,28359.89,54124.4745,42566.0312,36987.3047,39585.4264,5715.1616,50421.9979,43904.7664,55885.7918,836.581,-567.466,26309.4753
56998.0592,28350.0105,54128.1402,42551.8155,36959.365,39577.4245,5711.8088,50392.9406,43890.1484,55881.3214,825.0475,-580.2959,26306.8825
56994.4829,28343.2603,54124.9216,42550.1168,36946.6692,39574.2059,5712.837,50381.0942,43888.1814,55879.0416,824.9134,-579.983,26305.899
57016.4323,28343.3944,54122.1052,42560.7115,36964.7741,39577.3351,5713.2393,50400.7638,43897.9715,55879.8462,838.7715,-568.673,26310.3247
57033.3302,28350.1893,54124.4745,42569.384,36986.053,39588.1087,5716.9944,50422.8026,43904.3641,55888.027,849.1874,-556.2901,26314.6162
57018.0863,28350.8152,54123.0887,42565.5842,36974.4301,39586.1864,5710.3336,50414.4877,43902.4419,55885.2106,840.2914,-567.8236,26310.5929
56999.1767,28348.6694,54129.4366,42552.8437,36945.7304,39578.6315,5706.0868,50398.0815,43890.8637,55879.3545,822.2312,-584.498,26301.8757
56993.7229,28353.5421,54128.4978,42548.9545,36940.9919,39575.547,5705.7738,50396.0252,43886.8403,55876.6276,820.8901,-584.4086,26298.4335
57019.338,28356.6266,54129.5707,42564.2431,36968.3057,39582.8336,5707.4279,50415.8288,43898.508,55879.578,836.6704,-569.1648,26303.485
57035.476,28365.2991,54128.7214,42572.4685,36983.7731,39588.1981,5709.663,50436.7948,43900.3408,55881.9026,846.1922,-562.191,26305.6308
57027.474,28370.6635,54134.4881,42565.4501,36969.468,39587.751,5709.7971,50422.4002,43893.2776,55882.3943,837.788,-571.5787,26306.2567
57017.0134,28364.9415,54138.0644,42554.4977,36946.4457,39588.3769,5707.3385,50403.133,43876.8268,55879.8015,822.8123,-581.3688,26303.0827
57010.8443,28364.2262,54136.4104,42550.385,36941.2154,39591.4614,5707.6067,50397.8133,43874.1446,55871.7102,819.4596,-585.3921,26299.4617
57026.9376,28372.094,54137.3044,42557.8058,36962.8072,39596.1106,5710.0207,50424.9036,43888.4497,55872.0231,839.7996,-570.4612,26308.5365
57045.579,28373.1669,54134.3987,42569.6075,36980.9568,39596.9599,5710.1101,50440.4604,43887.8685,55869.7879,852.9872,-557.4971,26313.2751
57027.6082,28372.5858,54127.8273,42558.7445,36969.468,39584.89,5705.5056,50419.0922,43873.027,55868.4021,840.8278,-563.2192,26312.5598
57003.2448,28369.3224,54126.665,42542.7854,36947.9656,39576.1728,5702.5105,50397.0087,43849.4682,55866.8822,820.9795,-579.9383,26310.3694
56998.5062,28363.4216,54127.3355,42546.4511,36951.6313,39580.7326,5706.802,50395.2205,43842.6286,55861.4284,825.9416,-582.5758,26308.5365
57022.6014,28361.0523,54126.2627,42554.0954,36974.1619,39587.9298,5707.8749,50408.4975,43852.7316,55870.5926,843.5994,-567.0637,26308.8495
57021.7073,28359.0406,54125.3239,42557.2246,36982.2085,39583.2807,5708.3666,50409.3915,43852.2398,55870.9949,848.1592,-560.0005,26308.0895
57007.2234,28363.958,54129.8389,42554.0507,36976.6653,39579.4809,5713.2393,50389.5879,43835.9678,55863.8871,841.4984,-565.5438,26308.0448
56980.1331,28358.683,54125.3239,42535.1858,36950.8266,39568.3497,5712.6582,50348.103,43806.0164,55854.0523,821.963,-582.9781,26304.1556
56967.8396,28357.923,54119.0654,42528.4803,36944.0317,39554.7152,5708.5901,50333.3062,43794.5276,55850.789,814.0951,-589.7731,26300.5793
56986.8386,28363.958,54122.1946,42544.7524,36968.1716,39561.5995,5714.0887,50351.6346,43804.8095,55853.337,836.581,-575.1997,26304.692
56991.9795,28368.5178,54123.9828,42549.9827,36979.0345,39558.8279,5722.627,50361.0224,43815.7618,55858.7462,850.7073,-563.3086,26308.0448
56983.6646,28373.4351,54122.5076,42546.4958,36962.986,39556.101,5727.3656,50340.0564,43808.5198,55859.2379,840.3361,-568.4942,26308.8048
56960.7764,28369.68,54119.7807,42538.9856,36949.4408,39548.2332,5723.5211,50300.2256,43784.8717,55849.8949,824.8687,-586.9567,26301.4287
56961.3129,28371.647,54123.4463,42537.2869,36948.055,39548.4567,5724.6834,50284.7135,43786.4363,55851.9512,823.9746,-584.9898,26302.6804
56982.3682,28388.4108,54125.5027,42553.6036,36975.5477,39562.7171,5731.7913,50308.4511,43806.4635,55860.4896,843.5547,-565.9908,26311.3976
56994.7958,28401.5089,54130.4648,42562.4549,36985.4718,39566.1592,5741.4472,50321.1468,43806.1059,55863.9765,853.5236,-558.3018,26313.6774
56989.342,28408.438,54135.8739,42563.6172,36974.5195,39566.5169,5743.5483,50307.557,43797.4781,55863.6189,849.7238,-561.5205,26311.4423
56953.2663,28397.7985,54138.3326,42544.5735,36934.644,39550.6471,5738.4074,50278.0974,43782.5024,55859.1485,827.5062,-575.1997,26308.5812
56953.8027,28398.0221,54139.3161,42547.3452,36931.5147,39550.8707,5736.3957,50273.627,43783.6647,55856.8239,832.7812,-571.9364,26309.8329
56969.2701,28396.3233,54129.8836,42557.3587,36950.7372,39556.6821,5733.8029,50286.0546,43786.9281,55848.5538,847.3098,-563.0851,26308.4918
56971.2371,28398.1562,54126.665,42570.1439,36964.6847,39555.9222,5737.8262,50293.6989,43793.1865,55854.6782,855.7588,-559.9111,26313.141
56962.654,28393.3282,54123.1334,42565.9418,36948.7703,39551.1836,5732.5512,50278.455,43778.4791,55850.9678,847.578,-569.2542,26309.0283
56942.7609,28378.6654,54118.3054,42553.8719,36911.3982,39547.6073,5727.6338,50252.2141,43757.0214,55840.7307,828.9814,-585.8839,26303.6638
56939.0953,28372.9881,54115.7126,42548.1051,36897.2719,39546.892,5724.4152,50242.871,43749.5112,55833.6675,822.4994,-588.4767,26302.3674
56957.7813,28381.4818,54122.3288,42562.6785,36920.92,39555.0281,5733.0877,50255.8351,43768.9126,55844.2622,844.717,-570.2823,26311.0399
56976.9144,28387.2932,54124.2063,42569.2052,36942.4224,39558.1573,5735.9487,50273.0459,43780.9825,55844.4858,854.3283,-561.6546,26313.0963
56978.7025,28385.5051,54123.6252,42567.4617,36935.7169,39553.8658,5733.043,50262.0935,43768.7784,55839.6131,844.9852,-571.087,26313.1857
56959.2118,28384.2087,54123.804,42564.8689,36912.1581,39547.2497,5734.1158,50237.0596,43758.0049,55837.1991,831.753,-577.7925,26311.487
56950.137,28373.1222,54123.9828,42555.3024,36902.0551,39544.5228,5731.3442,50235.5844,43761.0894,55836.0368,834.3458,-581.6817,26305.899
56978.3002,28378.3525,54130.5989,42564.9136,36924.5857,39552.9717,5734.3394,50246.492,43773.5617,55841.0436,852.9872,-564.9626,26311.487
56994.5276,28382.957,54133.7281,42566.4783,36930.5313,39548.3673,5730.629,50252.1247,43777.0039,55843.7705,855.4459,-560.0899,26312.5598
56981.653,28377.2349,54133.7729,42562.142,36916.5391,39539.8289,5726.561,50235.8973,43764.7998,55837.6908,849.1874,-569.88,26310.8164
56963.861,28369.3224,54132.6553,42552.3967,36891.9522,39532.5869,5726.5162,50213.5903,43749.7795,55830.6724,836.2234,-582.8887,26306.3461
56955.412,28366.4167,54128.8108,42544.7524,36886.7218,39528.2954,5723.834,50208.4494,43747.4102,55826.6044,827.2827,-588.3873,26301.6522
56971.1924,28371.3341,54128.1402,42553.7825,36914.0357,39540.4547,5721.6436,50227.5378,43762.5647,55835.0533,845.1194,-570.4612,26307.1954
56982.3682,28373.5245,54124.7874,42559.728,36919.5342,39539.0242,5717.4414,50231.2034,43765.3363,55837.6014,853.3895,-565.9908,26306.3014
56974.0534,28365.6567,54124.5639,42551.5026,36902.4128,39532.0952,5712.837,50211.1316,43756.3062,55833.6228,844.2253,-578.1054,26301.6522
56969.136,28358.0571,54124.8769,42543.2324,36878.7646,39526.0602,5711.5406,50187.7517,43751.1206,55834.2487,828.3556,-589.6837,26300.8922
56964.7551,28354.7044,54125.7709,42541.6678,36876.2612,39528.8765,5712.4794,50182.3872,43746.7843,55829.1972,823.8852,-590.8906,26299.3723
56993.0077,28363.7345,54129.079,42550.8767,36907.5537,39540.5889,5714.5357,50203.2638,43765.381,55839.0766,843.5994,-572.6069,26307.0613
57016.3429,28374.9104,54135.3822,42564.3772,36934.0181,39546.892,5720.6154,50230.8458,43780.5355,55847.8832,858.0387,-560.2241,26314.7503
57011.0679,28372.6752,54134.8457,42556.7776,36917.3884,39545.1039,5721.1965,50218.0159,43780.0437,55845.5586,849.098,-566.259,26310.4588
56987.7774,28372.8987,54132.5212,42543.3218,36889.4488,39537.3702,5723.7446,50197.0053,43762.2517,55840.4177,835.2846,-575.3785,26307.0613
56987.1515,28373.2563,54126.7097,42542.5619,36890.164,39543.0475,5726.248,50195.2171,43759.6142,55844.3069,833.407,-576.5408,26309.6094
57008.2068,28373.6587,54125.1004,42551.3685,36913.0075,39550.2001,5725.3987,50219.4911,43776.6463,55855.0358,845.4323,-564.9179,26314.3927
57019.4721,28366.0591,54125.9944,42554.0954,36924.4069,39546.5344,5723.387,50234.5562,43786.3469,55858.3885,850.8861,-559.33,26311.7552
57004.0047,28359.5771,54125.6368,42544.7971,36915.5109,39535.0009,5724.9963,50228.4318,43777.6744,55854.2311,842.3924,-569.7459,26307.5978
56972.3994,28348.9376,54128.9896,42533.4871,36890.924,39524.138,5723.2529,50213.4115,43764.7104,55850.1184,827.9532,-583.0228,26302.4569
56967.6608,28344.8696,54128.6319,42529.3297,36884.6655,39518.0136,5719.9448,50208.6729,43764.7551,55848.9114,822.9017,-583.0675,26300.4452
57004.9435,28353.3633,54125.1451,42547.7028,36917.6567,39531.3352,5721.0177,50230.7117,43785.8999,55854.857,844.5829,-565.9014,26308.1342
57017.0134,28359.8453,54123.6699,42554.0507,36938.3991,39542.5558,5724.0129,50245.7321,43795.2876,55860.4896,856.9211,-559.5088,26310.1906
57007.134,28357.8783,54123.1334,42550.4297,36926.1503,39541.4382,5723.6105,50226.1966,43786.4363,55856.064,847.6228,-568.9859,26306.7484
56993.8123,28355.2855,54128.2743,42541.3549,36906.5255,39536.8338,5722.18,50211.5339,43768.5549,55848.5538,827.7297,-583.8722,26301.9204
56988.2691,28353.8103,54124.0275,42538.628,36908.3583,39541.5276,5722.4482,50226.5096,43770.0748,55847.9726,823.9299,-579.4019,26301.8757
56996.0922,28360.9182,54120.183,42547.971,36923.6916,39548.3673,5720.4813,50252.3929,43785.1846,55850.476,840.3808,-567.6895,26302.6357
57013.6607,28378.3078,54123.6699,42570.4122,36948.5468,39555.2516,5727.1421,50275.0129,43796.3158,55859.0144,857.1446,-558.3018,26308.9389
57011.649,28382.5099,54126.7991,42568.6687,36950.7372,39559.9008,5730.0031,50268.0838,43801.5014,55862.4119,852.2272,-561.6546,26313.4986
56996.8522,28379.4254,54128.3637,42556.9117,36929.0113,39558.515,5726.6951,50247.6543,43793.4548,55855.9299,837.4304,-574.5292,26308.9389
56999.0873,28383.7616,54132.9682,42556.5541,36927.2679,39564.7734,5726.9186,50248.459,43796.7181,55850.9231,837.4304,-571.534,26309.073
57023.2719,28394.6246,54138.0644,42573.1391,36958.6498,39577.5139,5730.3607,50275.7728,43812.4985,55857.0474,852.1378,-559.8664,26314.0798
57037.9794,28399.1396,54140.5678,42578.8611,36972.1502,39580.3303,5726.4715,50287.3957,43822.4673,55860.0873,859.8715,-553.9209,26316.762
57026.8929,28393.8646,54139.0479,42571.9321,36960.125,39582.3419,5721.1965,50287.1722,43811.5597,55855.3487,853.0319,-562.191,26311.1293
57008.7433,28381.5265,54140.7466,42558.5657,36937.9967,39577.6927,5720.3025,50269.112,43802.9319,55856.5557,834.0776,-575.7809,26307.7766
57015.5829,28381.6159,54143.3841,42555.6153,36939.7849,39583.7277,5723.4317,50274.387,43809.0116,55857.4051,832.4236,-575.5126,26307.866
57039.7675,28396.9045,54146.6475,42573.3179,36975.8606,39593.2496,5728.7961,50309.0769,43825.1495,55862.6801,852.3613,-560.1794,26314.8397
57050.8093,28405.1299,54145.7981,42578.6376,36992.2668,39594.6801,5732.1489,50326.6901,43835.476,55869.475,865.1465,-551.2834,26319.0866
57036.6383,28402.6265,54142.9371,42572.0662,36984.9801,39587.5275,5733.8923,50310.4627,43833.2409,55867.4186,854.6412,-561.4758,26316.762
57008.6092,28396.681,54136.1868,42558.7893,36954.5817,39571.6578,5729.6008,50275.4599,43813.4372,55857.1815,837.341,-574.7974,26307.9554
57002.1272,28396.6362,54135.561,42553.9613,36947.5186,39567.2768,5731.4783,50276.6222,43817.1923,55861.4284,835.9104,-573.8586,26309.3859
57018.891,28398.2009,54136.2762,42558.1634,36964.64,39569.7802,5732.9535,50295.8,43831.1398,55868.0892,847.3992,-563.7556,26312.8728
57031.2738,28398.2903,54137.7515,42561.2926,36980.5545,39567.1874,5731.9254,50313.4131,43831.4527,55866.1222,854.8647,-554.6808,26314.1245
57015.9405,28391.8083,54136.0527,42550.2062,36963.6565,39558.515,5727.3209,50299.9574,43818.3993,55857.0027,842.8395,-561.7887,26307.1954
57000.9202,28388.4555,54137.3938,42543.903,36940.8578,39557.8444,5727.5444,50280.1985,43818.6228,55863.0824,832.3342,-568.2707,26307.1507
57004.9435,28387.6508,54141.5513,42547.3899,36946.848,39562.3147,5733.7135,50280.6902,43824.926,55868.8492,839.2632,-564.0686,26318.1478
57027.8317,28393.954,54143.0265,42560.2198,36977.7381,39571.3449,5739.7038,50308.2275,43841.5557,55879.3992,855.1329,-551.2387,26323.2887
57048.9764,28399.0502,54143.9205,42566.97,36997.1842,39575.0552,5746.8116,50316.7212,43857.9619,55884.2272,866.9794,-542.745,26324.6298
57043.612,28400.3019,54147.0945,42569.2499,36992.4009,39576.6199,5753.9195,50316.1401,43850.9881,55881.2767,863.1349,-543.5944,26325.2556
57014.8677,28387.025,54147.8097,42557.1799,36961.779,39569.4226,5752.8466,50298.5269,43839.2758,55877.7899,847.7122,-560.4029,26326.9544
57011.0232,28382.4652,54147.1392,42546.4511,36950.6925,39561.4654,5748.5998,50289.2286,43845.6237,55883.9589,843.063,-563.6662,26324.9874
57038.1135,28395.2057,54151.2966,42565.3607,36980.8674,39569.9143,5753.9642,50318.3752,43857.2019,55897.5935,862.8219,-545.4719,26330.0389
57044.059,28397.7091,54145.4405,42568.8028,36999.5534,39570.5849,5749.0021,50336.0778,43851.3905,55899.8287,865.2806,-541.9403,26329.5025
57027.474,28391.5401,54140.076,42555.0789,36980.5545,39564.997,5744.8894,50318.0623,43841.6004,55895.2242,848.2933,-549.5846,26321.0535
56999.8473,28379.8724,54136.4104,42540.9079,36945.2387,39557.0397,5740.9108,50289.4074,43825.6413,55884.9424,831.753,-567.6895,26314.6162
56989.6102,28378.2184,54134.0411,42540.7737,36941.0813,39555.6986,5736.7533,50281.0478,43816.9241,55878.5051,827.1039,-575.4232,26309.8776
57011.8278,28387.3379,54132.8788,42554.7212,36970.4962,39561.4207,5737.1557,50303.3102,43836.5936,55882.1261,843.9571,-562.9063,26312.8281
57018.5781,28389.0367,54131.1353,42560.3539,36985.0248,39559.9008,5737.0216,50313.5026,43849.6023,55884.2719,857.5022,-552.6245,26313.5433
57005.5693,28382.3311,54134.3987,42553.246,36973.6254,39560.0796,5742.6095,50303.3102,43850.9434,55886.4623,854.7753,-555.9325,26314.9291
56987.3303,28372.9881,54133.8623,42540.9973,36950.6925,39553.5976,5738.0497,50275.8175,43838.8288,55875.7782,836.0893,-568.1366,26309.2965
56983.7093,28368.7413,54130.0178,42533.0848,36934.8675,39554.0446,5731.6571,50271.9283,43833.7326,55869.5644,831.6189,-574.5292,26305.1391
57005.1223,28376.4303,54133.907,42549.8039,36972.7761,39569.6461,5736.6639,50306.6629,43849.7812,55880.338,853.0319,-559.1065,26312.694
57014.1524,28381.5265,54133.907,42558.4316,36987.0365,39573.6694,5735.9934,50323.6502,43853.8045,55884.853,859.2904,-551.8198,26313.4986
57006.8657,28376.3856,54132.9235,42553.0672,36975.0112,39567.7239,5736.2616,50311.0886,43844.9085,55880.8744,852.9872,-559.4641,26311.6211
56992.6947,28372.4517,54136.768,42539.6115,36955.4311,39559.4537,5734.3394,50283.9088,43834.9396,55873.096,836.4916,-574.4398,26306.0331
56987.6879,28370.0824,54135.2034,42536.661,36951.7207,39560.5266,5731.9701,50284.8923,43830.2457,55868.4021,832.7812,-578.016,26303.8427
57009.3691,28372.8093,54134.9798,42550.0274,36981.7168,39570.3167,5733.8029,50308.6746,43843.0756,55871.889,847.2651,-563.1745,26307.9107
57014.2865,28371.9152,54132.7,42558.2975,36997.5418,39574.0271,5729.0643,50315.3354,43853.7151,55875.5994,855.1776,-557.6313,26309.6094
57002.0825,28369.1436,54128.3637,42550.6979,36980.778,39568.1709,5724.5046,50298.1693,43835.1184,55872.8725,846.8628,-568.0025,26304.1556
56984.8269,28363.8239,54126.9332,42536.3034,36949.3961,39559.8114,5720.7942,50271.6601,43815.0913,55862.8142,825.1816,-584.5875,26299.4617
56981.2953,28360.6052,54128.2296,42532.8612,36950.6031,39559.0961,5718.9614,50274.1635,43815.3595,55856.511,818.1185,-588.7896,26294.8126
56996.9863,28365.0309,54130.0178,42549.4015,36975.7265,39564.7734,5722.8953,50302.4161,43838.3818,55866.6587,836.3128,-573.4116,26303.9321
57008.8327,28374.5527,54134.0411,42558.3422,36991.0151,39573.6694,5728.215,50327.45,43852.3293,55876.8064,850.4391,-561.1628,26313.2304
56999.3556,28366.9978,54132.0741,42551.5026,36975.503,39567.858,5724.9516,50311.7144,43848.4401,55876.0464,838.0115,-567.3766,26308.9389
56987.1515,28365.8355,54129.3025,42540.9079,36950.1561,39560.7501,5722.8953,50292.0449,43843.2992,55869.8773,822.41,-580.1171,26305.6755
56985.2293,28366.1932,54130.1519,42534.2023,36942.333,39559.2749,5719.1849,50289.1392,43838.65,55866.3011,820.2195,-582.844,26306.2119
56999.4003,28372.8987,54129.3472,42539.6115,36962.4496,39561.1972,5716.2344,50307.8699,43853.7151,55873.1854,835.4634,-569.433,26308.9836
57015.0465,28376.2515,54128.2296,42548.5969,36977.1123,39562.6277,5715.6086,50327.7183,43863.0134,55880.5168,843.823,-564.1133,26308.9389
57012.1855,28377.2349,54131.8506,42548.3733,36967.3669,39561.1972,5717.9779,50319.8504,43859.303,55877.3428,836.4022,-568.0025,26307.6425
56995.4664,28371.8258,54130.8671,42533.1742,36947.7868,39556.8162,5717.4414,50293.0284,43842.8521,55871.0396,819.8172,-587.0014,26300.2217
57000.0261,28376.475,54127.9167,42535.0517,36953.2853,39554.1787,5723.387,50292.8942,43838.6053,55876.9405,821.6053,-585.9286,26300.0876
57020.992,28379.6936,54128.3637,42550.1615,36978.0958,39561.9571,5724.7728,50321.0127,43854.7432,55879.6674,839.2632,-571.3552,26303.038
57034.8054,28378.129,54131.3589,42557.6717,36991.0598,39558.0232,5724.9963,50333.1721,43863.1475,55878.0581,847.8463,-566.8402,26301.6075
57029.0387,28374.4633,54129.9284,42550.0274,36977.1123,39558.9173,5725.2198,50315.0225,43854.3856,55876.717,840.0679,-575.4232,26298.6571
57006.0164,28365.3885,54122.6417,42532.9059,36944.7917,39554.6257,5720.8836,50290.3461,43841.511,55871.0396,820.8901,-592.8576,26291.9068
57010.442,28371.4235,54123.3122,42533.4871,36952.4807,39559.7667,5722.3141,50296.0682,43852.2846,55871.9337,825.1816,-586.2415,26297.4501
57038.7393,28380.7665,54126.218,42542.8748,36984.4437,39566.651,5726.2033,50324.3208,43866.545,55875.3312,841.4537,-568.4942,26303.4403
57047.7694,28389.5731,54128.7661,42548.0157,37001.1628,39568.7073,5730.9866,50340.1905,43876.6927,55881.5897,848.1145,-554.949,26309.1624
57033.7325,28386.0415,54128.1402,42548.2839,36982.5661,39566.8745,5731.7913,50324.9913,43880.3136,55887.8481,843.6888,-559.777,26307.9107
57017.0134,28382.5547,54128.2296,42542.249,36959.2309,39562.4042,5730.0478,50308.9875,43866.9473,55883.199,829.5178,-577.7031,26302.7698
57017.9075,28382.5994,54125.8156,42540.0138,36959.0074,39562.1806,5730.8525,50312.2509,43860.1077,55879.3098,826.2098,-579.8489,26300.4899
57037.4429,28386.0415,54126.3521,42551.4132,36989.5846,39567.858,5729.9584,50331.9204,43873.474,55885.2553,844.3147,-564.9179,26304.4685
57043.7014,28393.1047,54126.3968,42558.6551,37001.0287,39575.0552,5733.937,50349.5783,43872.714,55886.4176,853.4789,-559.4194,26307.5083
57023.9425,28383.0464,54122.2394,42553.3354,36987.5282,39570.3167,5730.4502,50341.3975,43863.818,55880.8297,842.616,-568.2707,26302.9039
57004.407,28369.9036,54119.1995,42538.8068,36960.125,39567.4556,5722.8506,50318.4199,43855.1009,55873.1407,819.9513,-584.7216,26297.6289
56996.3157,28364.8521,54117.5902,42533.7553,36957.1298,39565.1311,5720.526,50316.3636,43854.9668,55864.7364,815.0786,-592.8129,26295.4384
57010.6208,28373.3457,54121.6135,42541.6678,36986.1424,39573.4906,5723.2976,50342.2022,43871.5965,55873.7218,835.1058,-575.8256,26303.798
57022.4673,28380.1407,54126.2627,42559.4151,37012.9198,39586.4099,5725.9798,50365.001,43891.4001,55888.5634,846.2816,-562.9063,26311.6211
57013.616,28370.1271,54124.6086,42549.7144,36997.5418,39571.479,5719.1849,50349.4889,43878.0785,55880.6509,832.2895,-572.0258,26304.8708
56989.6102,28365.5226,54124.1169,42536.3034,36964.1036,39564.3264,5715.698,50322.175,43861.8511,55876.1358,814.8551,-583.5593,26300.1323
56986.481,28362.9298,54123.7146,42539.8797,36963.6565,39564.4158,5717.7544,50324.6337,43862.7452,55872.649,813.6928,-586.2415,26297.8524
57009.7268,28372.3176,54124.251,42550.2956,36984.0413,39569.3332,5717.9779,50353.1545,43875.2621,55877.164,831.8424,-579.0889,26300.8922
57025.0154,28373.7928,54125.2792,42559.5045,36997.7653,39577.2904,5717.7991,50367.102,43880.0007,55879.1757,839.8443,-572.5175,26301.8757
57005.6587,28369.5012,54123.1334,42554.9001,36985.7848,39569.6461,5714.3122,50355.0768,43868.959,55877.3875,825.9863,-583.5146,26298.6571
56992.3371,28368.7413,54129.3025,42548.8651,36963.8801,39563.3876,5716.905,50335.4967,43863.4604,55874.1689,816.3303,-593.3046,26297.6736
56991.6666,28362.1252,54128.7661,42547.3899,36963.2095,39566.204,5715.2957,50328.9253,43858.0066,55869.6091,815.7939,-591.2483,26295.0808
57013.4372,28366.0591,54127.872,42556.3753,36986.6788,39574.3847,5717.6203,50349.2206,43873.5187,55873.8112,830.5907,-575.8256,26299.417
57030.4692,28373.7034,54128.5425,42567.6852,37007.4213,39582.6548,5723.8787,50376.7133,43888.9861,55879.3098,846.5052,-561.8334,26304.6026
57020.098,28365.2097,54125.9944,42559.5939,36994.1443,39575.8152,5719.7213,50377.5626,43884.9628,55874.4371,834.7034,-573.2775,26299.1935
57002.4848,28353.6762,54127.9167,42546.8087,36963.2095,39573.6694,5717.8438,50348.4607,43872.0435,55874.1689,818.0737,-585.4368,26295.8854
56996.8969,28354.6597,54126.665,42547.7028,36960.7955,39576.1281,5714.1781,50340.1011,43875.7539,55877.4769,820.1748,-583.2464,26299.1041
57006.8657,28365.0756,54127.3355,42551.9496,36987.2153,39578.4974,5716.905,50364.4645,43887.2427,55881.5002,839.7549,-569.2542,26304.3791
57017.5499,28364.4497,54126.7991,42556.2859,37000.5816,39577.3351,5716.7262,50380.5131,43891.713,55880.338,847.891,-563.6662,26304.692
57016.477,28356.9396,54123.2675,42555.8388,36994.0102,39575.3235,5713.6416,50365.3586,43885.0075,55878.6392,836.3128,-574.5739,26299.8641
56997.7909,28341.9639,54116.4279,42538.2257,36959.8567,39564.7287,5709.1266,50336.3013,43862.0299,55866.4799,818.0737,-590.8012,26294.0079
57001.7695,28351.9775,54119.5124,42539.8797,36957.4428,39564.9523,5710.7359,50336.3907,43866.0979,55866.614,819.4596,-585.4368,26295.0808
57019.4274,28360.337,54123.7593,42556.3306,36984.6672,39579.3021,5717.0391,50360.0836,43891.1319,55882.3049,838.9503,-566.2143,26303.4403
57027.027,28355.5984,54124.6086,42557.6717,36998.9276,39581.4925,5716.5027,50382.9718,43902.7995,55879.1757,842.0348,-563.2639,26301.3393
57017.7287,28351.5751,54120.8982,42549.4015,36988.0646,39579.7491,5712.9711,50371.7065,43894.1717,55872.4701,829.3837,-574.6633,26296.2878
57000.7861,28346.3895,54122.3735,42540.1032,36959.9909,39576.7093,5709.7524,50349.2206,43880.5372,55869.7879,815.4809,-586.5544,26295.8854
57002.7083,28346.6578,54128.1849,42546.4511,36961.7343,39580.1961,5711.0935,50355.0768,43877.095,55871.0396,813.1564,-584.2745,26301.071
57022.7802,28351.2175,54130.8224,42568.3558,36992.982,39583.1019,5714.491,50389.0067,43892.92,55880.9638,832.96,-567.6001,26304.8708
57040.6616,28355.3749,54132.387,42578.1906,37008.4941,39583.1466,5717.7097,50406.4411,43901.7266,55880.2038,841.0066,-562.191,26306.2119
57030.8268,28350.6364,54129.3472,42569.3393,36988.3329,39577.0222,5716.5027,50398.6627,43892.3389,55880.0697,830.0543,-578.1502,26301.831
57000.6967,28338.1641,54123.2228,42551.4132,36962.1813,39571.926,5711.4065,50370.6783,43868.5566,55872.649,809.9377,-594.7351,26293.2926
57002.7083,28344.2438,54122.7758,42550.6085,36968.261,39575.4129,5712.3899,50361.3353,43870.5683,55872.5148,815.0786,-593.7964,26293.1585
57028.3681,28353.3633,54127.6932,42564.556,37002.9956,39586.4546,5716.5921,50393.6112,43883.9346,55879.7568,835.6869,-577.3008,26300.3111
57038.0241,28363.4216,54131.8059,42572.9156,37021.8158,39594.1436,5721.3306,50413.9513,43896.1387,55884.853,848.2039,-566.259,26305.5861
57024.7918,28364.9862,54132.0741,42566.8359,37002.1015,39587.1699,5717.4861,50399.6015,43892.2048,55881.2767,838.1009,-573.5457,26301.384
57002.6636,28352.3351,54124.7427,42547.6134,36962.8519,39570.9872,5705.595,50367.415,43875.4857,55866.5246,808.8648,-592.187,26288.4647
56989.4761,28340.891,54116.8749,42532.7271,36942.4671,39560.3031,5697.1461,50358.0719,43866.232,55858.7015,800.8182,-602.4688,26282.0721
57014.063,28346.8366,54114.5056,42546.1829,36970.2727,39569.065,5698.666,50388.3362,43875.5304,55866.4799,821.9182,-589.1025,26287.1236
57024.6577,28348.8929,54112.4046,42550.2509,36981.9403,39573.9377,5693.7039,50394.3712,43887.4662,55868.8492,829.2049,-585.4368,26287.3918
57007.4469,28340.5781,54111.1529,42542.6066,36965.1318,39566.651,5692.3181,50374.7463,43882.6382,55864.0659,820.4877,-591.293,26283.5026
56987.375,28332.9785,54110.7953,42534.2023,36939.1143,39559.1855,5694.7321,50356.7755,43870.8812,55859.372,803.0534,-603.81,26278.764
56985.8104,28329.0446,54114.3268,42535.1858,36943.54,39559.5431,5695.3579,50358.8766,43862.1193,55858.1203,800.55,-605.7322,26281.3121
57003.6024,28336.823,54116.6514,42549.2674,36972.4184,39566.7851,5695.1344,50383.4188,43878.1679,55868.3574,818.4314,-592.6788,26285.0672
57015.4041,28349.1611,54119.6465,42559.0575,36983.7284,39577.8269,5697.1908,50402.686,43895.9152,55878.4157,829.4284,-585.2133,26290.834
57004.2729,28349.7423,54120.8982,42551.1897,36969.7362,39575.6811,5699.6495,50399.7803,43888.9861,55875.2418,822.3653,-587.4038,26290.6998
56985.4081,28338.477,54117.9478,42543.0983,36942.0201,39564.997,5698.8448,50369.1584,43875.2174,55869.6985,809.5354,-597.9985,26286.3189
56989.8337,28335.5713,54115.3997,42542.8301,36943.8082,39563.6111,5698.4872,50362.0952,43880.0901,55869.2515,808.4178,-600.4125,26285.9166
57013.7501,28339.5052,54114.5504,42554.5424,36973.3125,39566.7404,5697.7272,50392.583,43888.5838,55868.5362,822.0971,-591.293,26288.2859
57022.0202,28340.6675,54117.0537,42561.6503,36991.5962,39572.2389,5696.0285,50410.4644,43893.4565,55872.649,836.4469,-587.4485,26291.5492
57000.9202,28337.1359,54118.3949,42554.4083,36975.5924,39566.0698,5695.492,50394.5053,43889.2096,55868.8045,825.3604,-595.0928,26286.9447
56981.5189,28333.9173,54116.115,42537.2869,36942.6012,39558.2914,5693.9721,50375.2828,43874.5916,55859.4167,807.2555,-608.5932,26279.7028
56992.9183,28336.823,54121.5688,42538.3151,36946.5798,39567.5451,5697.7719,50381.4071,43879.5537,55862.546,811.5023,-600.0102,26286.1401
57005.3905,28340.4887,54125.5027,42548.1498,36960.9743,39573.3118,5700.7223,50409.4362,43900.7431,55873.543,825.3157,-580.743,26294.3208
57017.8628,28345.9872,54124.9216,42554.5871,36966.8752,39574.6082,5704.2986,50422.6685,43911.2931,55878.6392,834.4352,-572.8304,26297.003
57019.6062,28349.2953,54126.3521,42557.4481,36967.2328,39577.6033,5706.1315,50420.9697,43903.6489,55877.2981,825.4945,-578.5525,26293.695
57001.546,28350.0999,54123.3122,42552.1731,36949.3514,39576.7987,5705.8632,50403.0883,43890.1484,55869.922,811.7259,-587.8955,26287.3918
56988.8055,28355.3749,54116.6067,42549.1333,36950.1114,39579.3468,5703.3151,50408.4527,43889.9249,55867.4186,807.1661,-591.2483,26285.246
57007.3128,28365.925,54118.3949,42552.4861,36973.3125,39589.3157,5705.0139,50438.6276,43908.9239,55876.2252,826.031,-578.0607,26292.5774
57017.0134,28368.0707,54122.1499,42563.0361,36986.6788,39589.5392,5707.8749,50452.6645,43918.6245,55881.5002,833.6753,-570.3717,26296.6007
57006.5528,28361.2758,54123.804,42561.0244,36968.3504,39580.6432,5704.7457,50432.1456,43906.197,55878.1475,822.857,-578.6419,26289.9399
56984.7822,28351.2622,54124.251,42545.11,36947.7868,39567.6792,5700.9459,50404.34,43891.4448,55865.4517,803.1875,-597.1938,26281.938
56978.2555,28346.2107,54125.1451,42540.8185,36941.1707,39562.6724,5700.4094,50405.7258,43892.0259,55868.5362,802.1593,-598.5796,26283.592
57002.3954,28355.6879,54127.4697,42557.4481,36966.3835,39578.2739,5709.9313,50439.8793,43908.3874,55885.9259,823.9299,-576.4961,26294.9467
57022.8249,28364.4497,54126.3521,42570.1439,36983.7731,39588.2875,5711.8982,50453.0221,43916.2999,55892.7208,834.4352,-568.4942,26300.0876
57010.1738,28356.2243,54124.9216,42566.0312,36969.468,39582.1184,5712.0323,50440.6393,43908.4768,55887.0882,826.1651,-576.0044,26299.9088
56989.1632,28348.1777,54123.804,42550.1168,36947.0268,39574.1612,5710.1101,50422.4896,43903.6936,55882.6625,807.479,-587.1803,26295.3043
56988.8502,28347.8647,54123.0887,42544.7524,36943.8976,39573.893,5710.0207,50421.5956,43906.8228,55881.8579,807.2555,-589.0578,26292.8009
57015.7617,28353.9891,54123.2228,42556.2412,36972.329,39579.7491,5710.8253,50442.9191,43920.0103,55884.9871,826.2098,-575.7362,26295.7066
57023.1378,28359.3535,54126.2627,42562.1867,36986.7235,39581.7161,5712.3899,50457.8948,43921.0832,55894.4643,832.5577,-568.0472,26294.1867
57005.167,28356.4478,54123.5358,42555.1683,36971.5244,39572.3283,5712.2111,50450.7869,43909.9073,55890.7092,821.9182,-579.983,26287.8388
56993.9017,28353.6762,54124.8769,42553.2907,36953.2853,39565.891,5713.9993,50423.4284,43892.7412,55885.4342,808.239,-592.3659,26283.9943
56994.3935,28351.441,54120.8982,42546.0488,36946.1775,39565.7569,5708.3219,50399.9144,43890.3719,55879.3545,806.3614,-595.2716,26281.6697
57013.8395,28360.6946,54122.0605,42562.3208,36969.021,39573.3565,5711.9429,50425.7977,43902.6654,55884.1825,823.3935,-579.1336,26286.9
57027.5635,28366.4614,54120.6747,42577.0283,36987.0365,39574.34,5711.6747,50441.4439,43916.6576,55894.2854,834.5246,-565.5438,26288.3306
57012.4984,28358.0124,54113.5222,42559.0575,36968.1716,39564.8628,5704.3433,50423.4284,43905.7052,55881.0979,823.5276,-573.948,26289.4034
56999.6685,28349.2953,54115.7126,42549.4462,36941.126,39559.3196,5703.181,50398.618,43896.4963,55874.9735,808.2837,-586.4203,26289.9399
56999.1767,28353.8103,54121.3006,42551.3238,36940.2319,39565.9804,5705.4609,50397.2769,43889.6567,55876.6276,807.3002,-588.5214,26291.8174
57028.8599,28357.7889,54125.011,42562.1867,36971.0773,39581.4925,5709.1266,50423.3837,43907.4486,55887.714,825.1816,-573.501,26299.1041
57042.6732,28361.4993,54123.2675,42565.6736,36978.5875,39583.9512,5708.3219,50430.7151,43916.6576,55888.6975,837.3857,-564.5156,26299.1488
57024.0319,28359.2641,54118.8419,42553.1119,36956.3252,39575.2788,5698.5319,50414.9795,43904.0959,55877.2087,823.0805,-575.2891,26289.314
57003.96,28353.3186,54118.216,42536.5269,36926.5974,39572.7754,5692.2287,50398.7521,43886.0357,55866.3011,803.2322,-598.1326,26281.8485
56998.1039,28349.9211,54117.009,42534.247,36927.5808,39581.0902,5692.2734,50397.3663,43889.4331,55872.1125,802.3381,-600.0996,26286.3189
57016.9687,28355.5984,54115.7573,42543.7689,36949.3961,39590.6568,5697.0119,50427.1388,43912.4107,55874.9288,818.8784,-583.3358,26290.1634
57032.2126,28356.8949,54114.9974,42559.0128,36966.3388,39595.3953,5697.1461,50448.6859,43922.7819,55873.0066,827.9532,-574.8421,26290.834
57021.2156,28347.2836,54113.9692,42553.1566,36959.0074,39591.819,5693.838,50435.9454,43898.4185,55865.1835,817.2244,-580.6535,26288.7776
56997.1204,28335.9289,54115.802,42534.8729,36931.8277,39578.4527,5687.8924,50401.479,43880.3136,55860.7131,796.9737,-599.2055,26280.9992
56992.9183,28336.5548,54117.5008,42535.0964,36931.6041,39573.133,5688.0265,50406.3517,43875.0833,55859.5061,794.515,-605.1958,26276.6182
57006.0164,28344.2885,54116.8302,42545.0206,36953.9559,39572.2389,5689.9488,50432.1009,43885.4545,55860.579,809.4013,-597.6409,26279.524
57014.2418,28347.0601,54115.0868,42552.799,36969.5127,39578.7209,5693.3016,50431.8327,43878.2126,55860.3108,820.2195,-589.5048,26281.1333
56992.7394,28341.3827,54112.1811,42540.8632,36953.9112,39571.0319,5689.0547,50415.0689,43861.8958,55853.6947,812.1282,-597.8644,26277.7358
56967.7502,28338.7452,54112.8516,42531.7883,36928.162,39560.9289,5692.184,50387.7103,43845.0873,55851.1466,799.4771,-608.5485,26277.5123
56958.8989,28341.6063,54112.047,42531.2966,36925.6139,39559.8114,5700.1859,50385.9669,43842.8074,55851.5489,798.7618,-605.2405,26280.5521
56967.8396,28348.7588,54109.8118,42532.6824,36949.7091,39564.1923,5704.4327,50402.1496,43839.3652,55853.6053,811.8153,-596.2998,26286.006
56975.7968,28356.4478,54108.8283,42533.5318,36971.7479,39561.9571,5705.5503,50400.1379,43839.857,55852.2642,820.443,-589.0578,26285.2907
56968.376,28354.9279,54110.5717,42530.5814,36960.9296,39556.1457,5704.6115,50370.8124,43825.3284,55848.4197,813.961,-593.4387,26283.3238
56946.516,28348.6694,54112.2705,42518.0644,36928.3855,39546.0427,5698.3978,50330.8922,43809.9056,55842.3847,794.7385,-608.2356,26275.5454
56938.1565,28353.3633,54116.3832,42514.9351,36929.2349,39538.2643,5702.0634,50316.453,43805.3459,55836.8862,792.7269,-606.2239,26280.6863
56955.8144,28361.0076,54116.6514,42531.9672,36952.5254,39546.1768,5711.4512,50330.6687,43812.1855,55838.6296,812.0835,-590.3542,26288.0623
56969.7171,28367.2661,54118.1266,42535.2305,36963.7907,39552.7035,5716.0556,50346.8961,43822.825,55849.6714,820.4877,-580.9665,26294.0526
56957.5578,28365.8355,54116.6067,42531.8331,36947.3398,39546.1768,5714.7145,50330.4005,43810.6209,55847.5703,810.9659,-588.0296,26285.1566
56929.6181,28358.2807,54114.5056,42513.0129,36914.0357,39534.3304,5711.1382,50293.833,43785.6317,55834.1146,793.6656,-605.1958,26277.3335
56931.3169,28356.1349,54111.8234,42519.3608,36913.4992,39541.617,5711.3618,50288.6027,43782.5024,55831.1641,794.5597,-609.2191,26278.6299
56941.7775,28365.2991,54109.7671,42530.5814,36936.7898,39545.1933,5708.769,50308.9428,43789.3867,55834.4722,815.4362,-594.601,26284.8884
56948.1254,28367.3108,54111.0188,42540.2373,36951.8548,39548.0096,5711.8088,50318.554,43794.2147,55838.1379,825.6733,-586.5097,26290.074
56940.5258,28358.4148,54111.8234,42538.8962,36930.8889,39546.6238,5709.976,50306.1265,43793.723,55834.0698,813.2011,-592.947,26286.9895
56922.4656,28347.5518,54106.1908,42524.9934,36902.9939,39537.7278,5701.527,50268.1285,43772.6676,55823.6092,797.0184,-611.4542,26279.0769
56910.5744,28342.6344,54103.2404,42520.5231,36896.199,39531.6929,5698.4872,50249.5319,43762.2517,55822.4022,797.1078,-610.4261,26278.4958
56926.8465,28347.5518,54101.1393,42533.9788,36916.7179,39535.135,5699.0683,50264.3287,43773.9193,55829.6889,811.3235,-594.3775,26284.1284
56941.1963,28346.2107,54099.4406,42540.9079,36927.6255,39539.203,5697.459,50269.6484,43780.759,55830.0912,820.0407,-588.2978,26285.5589
56943.4315,28350.8599,54099.3959,42543.8136,36916.4497,39540.723,5696.6096,50257.1315,43769.6725,55820.1671,813.7822,-598.4902,26282.2956
56925.7736,28346.6578,54098.7253,42528.8379,36889.0017,39527.4013,5691.7816,50234.2433,43751.9252,55810.6899,796.7949,-610.4708,26278.1829
56923.762,28334.8113,54093.3162,42526.2898,36879.5246,39522.931,5691.9158,50213.0985,43750.2712,55805.9514,794.3362,-609.8002,26276.7524
56945.0855,28334.0067,54094.6126,42535.454,36901.2952,39526.999,5697.2355,50227.6719,43763.2799,55813.3274,807.0767,-597.0597,26280.5969
56957.826,28341.5616,54097.2054,42546.9875,36914.1251,39526.4626,5697.5931,50246.9838,43770.7007,55815.3391,817.2244,-592.947,26283.1002
56954.8309,28340.8463,54098.9488,42543.456,36897.5848,39516.449,5695.1791,50237.8643,43771.863,55820.48,812.0835,-602.4241,26280.5521
56940.8387,28334.8113,54095.149,42531.6095,36872.372,39512.6492,5690.6193,50214.6184,43759.793,55818.1554,795.0962,-615.7458,26276.4394
56940.8834,28332.6656,54099.4406,42529.4191,36877.0659,39519.1312,5692.8098,50204.0237,43761.8941,55820.927,797.9572,-614.3153,26281.9827
56967.7055,28342.6344,54106.3249,42540.6843,36906.1232,39524.0933,5699.56,50230.3094,43786.2128,55829.1972,813.2905,-597.2832,26288.2859
56982.5917,28342.7238,54104.9838,42546.7193,36918.6401,39529.2342,5699.2918,50246.6261,43798.1933,55832.7287,824.2428,-586.5097,26292.5774
56968.6443,28336.6889,54103.0616,42539.075,36904.3797,39524.4062,5695.1791,50230.3094,43782.6365,55826.6044,816.8221,-597.0597,26289.2693
56947.4101,28331.1903,54098.0548,42524.904,36879.3905,39511.3528,5694.0168,50199.8663,43766.4092,55824.995,797.7784,-612.0801,26284.1284
56956.8425,28333.4255,54103.0169,42518.1091,36871.478,39512.8727,5695.4026,50192.8031,43768.2867,55828.169,793.6656,-613.7788,26285.6483
56981.7871,28338.3876,54102.8827,42527.7203,36897.6295,39520.2488,5699.0683,50218.2841,43786.034,55835.098,810.6083,-595.4951,26291.2363
56999.0873,28347.4624,54104.3133,42539.9691,36920.8753,39530.3518,5698.7107,50240.8594,43799.8474,55840.1495,825.5839,-582.9334,26295.2596
56990.3702,28348.4012,54108.5154,42536.0799,36909.163,39532.721,5695.6261,50237.8643,43794.3935,55836.7968,819.1019,-592.5,26294.0526
56971.1924,28352.3798,54110.1694,42525.0381,36887.2136,39532.0058,5695.7603,50223.8721,43784.1564,55832.2817,802.7405,-606.5369,26287.9729
56969.4042,28357.6995,54109.1859,42519.0926,36885.6937,39531.514,5697.1908,50231.9187,43783.7988,55835.8133,799.2983,-607.7886,26287.4365
56993.1865,28355.7773,54108.1578,42533.5318,36909.7888,39537.6384,5703.1363,50256.7291,43799.758,55843.547,815.1233,-590.3542,26291.5939
57003.9153,28356.0008,54111.9128,42541.936,36927.8044,39533.5257,5704.9245,50271.4813,43806.0164,55844.8881,826.7015,-580.8771,26293.4268
56992.8288,28353.0056,54112.6728,42540.5502,36916.3603,39526.4179,5705.6397,50259.1431,43796.0923,55838.0932,822.3653,-589.0578,26292.5327
56971.7288,28350.234,54117.9925,42532.3695,36892.0863,39525.1662,5706.6679,50230.7564,43787.3304,55839.3449,811.9941,-601.5301,26296.5113
56965.8726,28346.1213,54123.2675,42527.8544,36885.4254,39526.6414,5706.8467,50224.5426,43788.7162,55844.754,811.7259,-597.5515,26294.4549
56986.3915,28349.7423,54125.2792,42545.8252,36916.4497,39538.8454,5712.6135,50253.5552,43807.3128,55852.2195,830.7695,-582.7546,26302.5463
57008.6539,28358.0124,54123.6252,42559.4598,36934.8675,39542.5558,5716.1897,50279.3938,43818.7569,55852.6665,838.0115,-571.3999,26306.5696
56997.7462,28356.5819,54118.7525,42550.7873,36915.6003,39537.1914,5714.2675,50267.145,43805.3459,55845.1116,825.718,-576.7643,26304.8261
56973.6063,28354.3915,54116.7408,42538.4492,36896.4672,39532.7657,5711.0935,50246.3579,43794.4829,55841.5353,815.5257,-582.2182,26301.2052
56971.2818,28362.9298,54121.6135,42538.3151,36901.7422,39538.1749,5709.8418,50256.4609,43798.1486,55847.3468,813.961,-584.1404,26298.0312
56994.2147,28373.5693,54118.9313,42552.039,36930.6207,39542.5558,5711.3618,50289.6309,43808.2069,55845.8269,826.1204,-578.0607,26297.6289
57000.0261,28383.0911,54117.7243,42560.3092,36949.3514,39548.0096,5714.5804,50308.0934,43824.9707,55847.0339,833.3176,-575.9597,26298.1653
56981.8318,28381.5265,54113.9245,42553.5142,36935.7616,39544.7463,5710.2889,50305.9924,43823.0038,55842.1612,823.5723,-587.8955,26289.7164
56956.172,28369.233,54109.3647,42533.1742,36905.9891,39538.3537,5699.5153,50272.1518,43807.3575,55834.0698,801.4888,-606.4922,26279.3005
56962.2964,28368.4283,54106.6825,42533.04,36900.2223,39541.2594,5692.3181,50262.63,43801.2779,55830.6277,796.3032,-609.532,26275.2324
56986.928,28379.6042,54107.2637,42550.4744,36926.3291,39551.72,5692.8098,50289.2286,43815.4042,55834.8298,815.5704,-596.0763,26283.8602
56990.1913,28382.2864,54107.5319,42548.1945,36930.576,39552.4353,5687.803,50302.1926,43825.4625,55840.9542,817.8949,-589.0578,26290.3422
56989.4761,28379.3807,54107.3531,42551.0108,36925.1668,39556.2798,5689.5912,50299.6445,43824.926,55842.6082,812.3517,-591.0695,26289.8058
56982.9047,28376.3856,54106.3249,42546.1382,36915.645,39557.6656,5690.3511,50278.7679,43812.2749,55838.0038,799.343,-604.4358,26287.3024
56980.6248,28371.5576,54105.9226,42545.1547,36914.3039,39561.1078,5690.3958,50270.6766,43806.7764,55833.4887,801.5782,-607.118,26287.3918
56999.892,28373.2116,54107.9789,42553.3801,36941.9754,39566.651,5692.9886,50295.5765,43828.7258,55848.0173,820.0407,-588.0296,26292.7562
57006.1505,28375.9385,54110.1247,42561.0244,36954.4029,39573.0436,5698.4872,50319.3587,43840.4381,55855.8404,830.4119,-576.4067,26296.5113
56995.6005,28372.6752,54111.4211,42551.4579,36939.0696,39566.7851,5699.113,50314.5307,43831.3186,55853.9629,820.9348,-582.6205,26294.2761
56973.2487,28362.0358,54112.2258,42540.4161,36913.0075,39561.0631,5694.6874,50280.5114,43818.2652,55848.6432,806.0038,-598.3114,26288.0176
56972.7123,28362.751,54112.1364,42541.9807,36918.1037,39555.9669,5694.3297,50276.7563,43823.9872,55846.7656,803.0087,-601.5301,26287.7047
56997.6568,28368.2048,54113.2092,42550.0274,36947.9656,39558.515,5699.2024,50308.6746,43841.3322,55854.9464,821.1583,-588.432,26293.0691
57008.9668,28367.1767,54115.0868,42560.041,36962.539,39558.6491,5703.0916,50318.5987,43846.6072,55862.3672,838.5926,-579.6701,26298.2547
56999.3556,28361.9463,54111.8234,42554.6318,36951.6313,39548.6802,5702.5105,50311.7144,43836.3254,55858.478,828.892,-586.7332,26293.8738
56978.2108,28354.1232,54111.734,42534.5153,36925.6586,39538.0408,5701.3035,50286.5911,43819.7851,55849.9843,808.5966,-599.1161,26290.521
56976.6015,28354.8832,54111.1529,42530.3578,36924.4963,39536.5655,5702.3317,50271.6601,43811.515,55849.7608,802.0252,-600.4125,26288.107
56994.5723,28365.0756,54113.7457,42535.8117,36950.3796,39538.8901,5705.2374,50296.7834,43830.8716,55863.3059,822.2759,-587.2697,26294.6337
57015.8511,28376.3856,54115.6232,42544.35,36966.607,39542.8687,5710.3336,50318.7776,43843.0756,55869.2515,835.6869,-579.4019,26300.6687
57008.8327,28367.0872,54111.0635,42537.2422,36953.5983,39538.3984,5708.2325,50307.6464,43837.4877,55862.993,826.925,-589.1919,26295.7513
56977.7638,28353.8997,54103.4639,42515.2034,36920.8753,39525.345,5700.9459,50272.42,43811.6491,55849.0008,802.3381,-606.8498,26281.3121
56980.1331,28356.6713,54103.8215,42516.0974,36909.7888,39526.1049,5702.0634,50269.872,43809.0116,55854.7676,793.6209,-606.1345,26282.4744
57010.3973,28364.718,54108.5154,42525.2616,36934.1522,39533.8386,5702.5105,50293.7883,43830.1563,55862.233,807.3002,-590.5777,26291.0128
57017.2369,28365.5226,54110.2588,42532.9059,36953.0171,39535.9844,5702.9575,50301.1644,43843.0756,55863.2165,818.789,-582.4864,26293.2926
57007.7598,28356.2243,54109.5436,42525.5746,36947.0716,39532.5869,5699.113,50283.3277,43834.4926,55859.1485,806.9426,-590.6671,26288.9117
56986.168,28345.9425,54107.4425,42522.9818,36925.1221,39527.6695,5698.6213,50260.7524,43820.6345,55852.1301,793.0398,-601.3066,26286.2295
56975.8415,28343.9308,54104.9838,42519.8972,36916.092,39524.8532,5699.8283,50260.5289,43819.204,55850.6101,790.6705,-602.2453,26286.9
56990.7278,28349.6082,54105.6544,42527.9438,36937.4156,39536.1185,5702.0187,50277.8292,43828.1894,55854.544,804.5733,-592.3659,26290.074
56995.3769,28345.2719,54105.4308,42528.5697,36941.4389,39539.7395,5700.0965,50290.212,43834.3585,55851.2807,812.3517,-586.912,26288.5988
56981.2506,28336.376,54103.8662,42523.2947,36934.1522,39535.895,5696.1626,50277.4268,43824.0767,55854.6782,808.5072,-590.8906,26288.5988
56960.5529,28333.3361,54101.2287,42508.7214,36913.6333,39529.7706,5690.7088,50256.1033,43805.5247,55847.9726,790.4917,-604.0335,26284.2178
56954.4733,28333.7831,54102.2122,42502.2393,36906.6149,39523.825,5689.0994,50259.3666,43797.5675,55839.166,786.6025,-609.7108,26281.1333
56970.0301,28342.6344,54107.9789,42519.6737,36929.9948,39534.241,5692.8098,50295.2188,43821.618,55849.6714,810.3848,-591.1589,26287.9729
56985.8104,28342.9921,54108.2919,42533.9341,36953.5983,39543.0028,5696.2967,50308.1828,43828.6811,55848.7326,822.6782,-581.7264,26292.1751
56975.3945,28330.5645,54100.737,42524.8146,36940.0978,39533.8386,5692.4969,50284.9817,43818.2652,55840.0601,809.4907,-594.7351,26286.8106
56951.8358,28319.791,54101.1393,42513.9964,36913.4992,39529.7706,5692.0052,50247.9225,43812.2302,55836.305,794.1127,-607.5203,26279.7922
56947.0525,28318.584,54104.805,42513.9964,36907.4643,39537.5043,5697.5037,50244.6592,43810.0398,55836.9756,789.1506,-605.3299,26280.7757
56964.8892,28332.2185,54105.9226,42530.7155,36938.3544,39546.2215,5703.0469,50271.526,43820.6345,55838.272,808.8201,-591.3824,26286.6318
56980.1331,28339.9522,54104.3133,42537.1975,36957.0851,39551.72,5702.1081,50291.7767,43830.6034,55850.6548,822.7229,-580.7877,26289.4928
56973.964,28342.2768,54104.4027,42529.0614,36947.7868,39550.0213,5703.3151,50285.5629,43830.1563,55853.1582,818.1185,-585.7497,26290.3869
56959.3012,28333.8726,54104.3133,42516.1868,36927.5808,39541.5723,5699.7836,50267.5474,43813.929,55843.1894,798.7171,-601.7536,26286.6765
56955.8591,28330.3857,54102.7933,42514.1305,36917.6567,39538.756,5698.0848,50257.4891,43812.6773,55837.0203,793.1739,-606.7157,26285.8719
56978.4343,28339.9075,54104.3133,42523.2053,36940.4107,39542.1535,5698.9342,50279.6173,43825.7754,55841.58,806.4955,-594.3775,26291.8174
56998.6403,28349.1611,54107.6213,42535.7223,36959.365,39548.5461,5700.0518,50298.0351,43837.8006,55851.3254,818.6996,-588.119,26296.2878
56991.756,28347.1048,54109.32,42529.7767,36953.1959,39544.4334,5696.252,50289.8097,43830.8716,55851.7277,811.1447,-597.5068,26293.1585
56971.9076,28339.8628,54109.2306,42513.8623,36926.1056,39532.8999,5691.9158,50267.5921,43812.3643,55846.7656,792.0116,-611.0966,26286.453
56975.4392,28339.0582,54106.0567,42513.3258,36921.6353,39532.8104,5694.8215,50273.0459,43819.1146,55844.5752,789.3741,-612.2589,26285.8272
56999.0873,28353.2292,54107.219,42523.25,36945.9093,39542.5111,5698.7107,50299.1527,43837.89,55851.5489,803.1875,-599.2949,26289.3587
57011.8725,28358.236,54107.8001,42527.6756,36958.8733,39541.2147,5699.5153,50307.4229,43851.614,55862.9036,812.1729,-592.8576,26293.1585
57010.7549,28350.8599,54105.9226,42519.6737,36944.2105,39535.6715,5696.1179,50292.9389,43842.718,55858.478,806.2273,-598.3561,26289.0458
56992.2477,28341.3827,54104.6709,42503.4463,36917.4331,39533.481,5692.3628,50266.5639,43824.7472,55851.1466,790.3129,-614.3153,26280.9992
56986.481,28338.8346,54106.2355,42502.1052,36913.991,39532.4528,5696.2967,50264.0605,43824.7919,55850.9231,790.3129,-613.3765,26281.0886
57000.6967,28344.7355,54104.0003,42512.4317,36936.8792,39539.0689,5697.8613,50290.4356,43837.2642,55853.4265,804.618,-599.3843,26283.3685
57017.1475,28348.3118,54102.5698,42525.0381,36955.4311,39544.5228,5698.7107,50307.0205,43843.3439,55852.7112,815.5257,-588.8343,26283.7261
57002.1719,28344.959,54098.6359,42516.9468,36945.1046,39534.3751,5696.2073,50302.1479,43839.7676,55843.8599,809.0883,-599.3396,26276.5288
56975.1263,28344.8696,54101.944,42501.3006,36920.7412,39526.1943,5697.2802,50284.9817,43832.7491,55850.789,794.5597,-610.2473,26276.0371
56972.4441,28345.9872,54104.8944,42496.8749,36914.3039,39533.5257,5699.4259,50286.3675,43830.7822,55855.6616,795.3197,-608.5038,26281.1333
56987.2856,28354.8832,54104.358,42513.9964,36939.7849,39544.7463,5701.6164,50303.7572,43848.4848,55859.7296,813.2011,-589.3707,26286.0507
57001.6354,28356.3137,54105.9673,42523.2053,36959.6779,39549.2166,5704.2092,50322.175,43862.1193,55865.1835,823.4829,-581.5476,26291.8174
57001.2778,28350.3234,54106.012,42517.975,36952.0783,39542.5111,5702.3317,50315.1119,43855.7267,55865.6305,808.8201,-588.2084,26287.7941
56986.0339,28345.0484,54103.3745,42504.7874,36929.1455,39531.827,5695.2238,50286.4122,43836.6383,55856.8239,790.6258,-605.3299,26281.7144
56973.8299,28344.3332,54098.6359,42496.2491,36927.3573,39531.827,5692.7204,50279.3044,43833.7773,55852.8006,785.6637,-609.8002,26279.7922
56989.1632,28349.1164,54102.0781,42511.8059,36953.1959,39537.6831,5695.5367,50303.936,43850.5858,55862.8589,801.8017,-593.9305,26284.6649
57007.9833,28360.6052,54105.5202,42526.111,36974.6536,39542.6452,5697.6378,50323.8738,43861.0464,55868.8045,818.2079,-587.3591,26288.2411
56997.0757,28360.6946,54102.5698,42516.2762,36962.5837,39541.2147,5696.7437,50319.3587,43864.0416,55864.96,813.3352,-593.707,26283.8155
56981.0271,28350.4128,54103.0616,42501.3006,36938.0862,39540.9465,5696.2967,50293.9224,43849.3341,55861.6519,793.5315,-604.4805,26282.2956
56972.5335,28342.0533,54098.1889,42494.5056,36924.7645,39541.3935,5692.2287,50288.9603,43840.8405,55857.271,786.5578,-610.292,26279.524
56986.481,28351.754,54098.8594,42507.8273,36951.229,39546.5791,5691.6028,50317.4812,43857.2466,55864.96,804.8415,-597.1938,26284.039
56993.3206,28360.9182,54102.7486,42522.49,36967.3669,39549.9319,5695.805,50341.3975,43871.4623,55871.7102,815.0786,-587.9402,26287.2577
56991.9795,28353.855,54102.391,42519.9866,36953.0618,39546.892,5697.459,50330.1322,43858.9007,55861.8754,805.7803,-595.2716,26282.4297
56976.4227,28346.7472,54103.1957,42507.6485,36935.2251,39541.17,5693.2569,50305.0089,43842.0922,55856.5557,785.3955,-610.8731,26276.3947
56967.5267,28337.9853,54097.8312,42500.5406,36931.2018,39534.7774,5683.5115,50300.8068,43831.0951,55852.5771,781.4616,-621.5572,26269.9574
56990.1019,28339.3711,54092.5115,42514.4881,36950.3796,39538.7113,5678.3706,50321.3257,43839.1864,55853.2923,798.896,-614.1365,26269.9574
57002.8871,28346.5236,54094.702,42524.0099,36964.5506,39543.3158,5682.6621,50341.2634,43853.0445,55858.5227,809.2672,-607.6545,26275.7242
56988.0456,28341.8298,54094.702,42516.4104,36956.504,39544.4334,5685.702,50328.4782,43847.0095,55856.064,798.3595,-611.946,26276.0371
56969.3595,28333.649,54095.5961,42502.5523,36936.9686,39543.5393,5686.8643,50297.3646,43832.0786,55854.2311,783.8756,-622.0043,26274.3831
56970.7006,28335.2584,54093.8973,42506.218,36938.5332,39546.0427,5687.7583,50290.4803,43832.168,55851.1466,786.7813,-617.1316,26276.8418
56992.4265,28340.1757,54096.0878,42520.3443,36961.1979,39556.4586,5691.2005,50320.074,43855.0562,55864.0659,806.6297,-603.6311,26285.0225
57008.9668,28347.8647,54103.2404,42532.146,36981.1356,39561.2866,5696.5202,50350.1147,43865.338,55872.9619,817.4926,-593.8411,26291.5939
57003.6918,28346.9707,54109.0518,42528.5697,36970.4068,39556.2798,5699.56,50336.9272,43855.235,55872.4254,811.9941,-594.154,26289.9399
56989.029,28345.3614,54113.2092,42522.6688,36946.1328,39555.0281,5699.5153,50310.5968,43852.9104,55866.3458,799.343,-604.257,26288.3753
56989.8337,28339.8181,54114.9527,42515.8292,36936.6556,39556.1904,5693.391,50300.6279,43853.7151,55866.1669,790.1788,-607.3862,26286.4977
57015.1806,28347.3283,54116.562,42529.0614,36966.9199,39559.6325,5694.1509,50323.4267,43869.6295,55871.5761,807.2108,-595.1822,26288.6435
57026.7141,28352.3351,54118.9313,42540.6843,36984.4884,39562.4042,5700.0071,50344.7056,43883.9793,55873.1407,821.3371,-582.0841,26294.4102
57011.2467,28346.8813,54114.7292,42536.7504,36968.1269,39561.5548,5698.4872,50337.2848,43871.2835,55872.7831,808.7754,-594.3328,26290.4763
56984.0223,28334.5878,54109.3647,42518.0644,36937.0133,39552.6588,5693.6592,50309.9263,43847.5907,55858.7015,786.826,-615.0752,26280.5074
56983.5752,28333.1573,54113.5222,42514.0858,36931.2912,39550.6471,5691.1558,50309.1216,43847.546,55857.9415,783.8756,-614.7623,26279.8816
57007.8492,28340.4887,54113.8351,42525.5746,36969.468,39561.4207,5695.045,50334.1109,43871.3729,55877.6557,805.0203,-590.3989,26289.4034
57020.5003,28336.4654,54112.3599,42527.6756,36980.7333,39563.2982,5694.9109,50349.6677,43876.6479,55879.7121,817.6714,-582.3523,26290.6104
57009.5032,28334.5431,54113.9692,42521.7748,36961.8684,39558.6491,5691.1111,50348.2819,43871.2388,55872.7831,805.9591,-592.8129,26285.8272
56988.1797,28338.03,54115.6679,42514.6222,36941.5283,39561.0631,5690.6641,50328.0312,43855.9949,55864.5576,791.654,-601.6642,26285.3801
56992.203,28336.5995,54121.0771,42515.5163,36940.366,39560.616,5694.8215,50336.5695,43864.8909,55867.5528,793.0845,-598.2667,26291.728
57013.5713,28348.4012,54123.7146,42534.2917,36972.9996,39571.2107,5702.8681,50370.276,43885.1416,55874.1689,818.029,-578.6419,26300.2217
57034.4478,28361.4099,54125.7262,42549.625,36995.9772,39583.683,5710.4677,50395.4887,43897.5245,55879.9356,833.0941,-565.5885,26304.9155
57024.9707,28356.716,54128.2296,42542.6513,36988.0646,39581.269,5709.216,50381.1836,43893.5012,55879.1757,819.3702,-578.776,26299.9982
57008.5645,28349.2059,54126.8438,42533.2636,36958.2921,39575.5023,5705.0586,50355.792,43879.956,55876.9852,800.8182,-598.1326,26291.1916
57003.5577,28344.6461,54122.8205,42528.7485,36949.4408,39570.7637,5697.6378,50347.1196,43878.7043,55871.889,794.8726,-608.0568,26288.6435
57027.6976,28349.787,54117.1879,42534.4706,36967.5905,39572.5071,5694.1509,50362.7658,43888.3603,55872.8278,805.9591,-598.1773,26290.1634
57035.8336,28350.6364,54113.0751,42537.1975,36973.7595,39573.7141,5693.2122,50375.6404,43886.438,55871.9784,813.1117,-591.4718,26286.9
57022.3778,28353.5421,54114.5056,42533.3083,36958.6498,39568.305,5696.2967,50361.7823,43886.2145,55875.5994,809.9824,-591.8741,26287.1683
57002.1272,28346.9707,54114.9974,42516.7233,36931.3806,39557.5315,5693.7933,50337.0613,43867.1261,55868.8045,790.3129,-606.8051,26280.4627
56998.8638,28342.5003,54115.2209,42512.7,36927.8044,39561.5101,5694.9556,50323.1138,43861.717,55861.6072,791.3411,-607.8333,26284.1731
57026.1329,28350.3234,54116.1597,42531.0731,36962.539,39575.3235,5699.7389,50358.6531,43878.5702,55869.1621,814.8998,-590.8012,26292.935
57031.6762,28353.0951,54121.2112,42534.7388,36979.4369,39577.961,5703.2257,50380.8707,43895.1999,55879.131,825.6286,-576.7643,26298.3888
57027.3399,28352.3351,54130.733,42533.5765,36972.2843,39576.8881,5705.9526,50382.5247,43902.9336,55887.6693,818.6996,-580.1171,26302.9933
57010.9785,28346.7919,54130.0625,42521.6407,36945.5516,39566.3828,5702.8234,50366.3421,43884.6946,55874.2583,799.9688,-595.7633,26294.2761
57013.0348,28345.3614,54130.0178,42518.8243,36944.1658,39563.9688,5701.3482,50360.7541,43881.5206,55872.9619,796.0796,-595.4057,26292.0856
57034.1349,28353.8103,54131.4036,42535.3199,36975.4136,39572.8648,5708.456,50385.6093,43904.23,55884.6295,817.582,-576.9432,26302.7698
57042.0027,28356.2243,54129.4813,42545.0206,36991.7303,39579.5256,5713.1946,50400.1379,43918.401,55890.3962,828.8473,-566.3037,26308.7153
57034.9842,28352.0222,54128.1402,42542.8748,36971.7926,39576.5305,5711.8088,50389.3644,43909.8626,55883.2884,821.3818,-572.4281,26305.1838
57019.1592,28340.891,54130.0178,42532.6824,36940.6343,39575.0105,5708.769,50367.5491,43891.2213,55871.5761,804.8862,-592.8129,26296.3325
57008.028,28334.9901,54122.1499,42523.5629,36933.0347,39570.1379,5700.767,50362.9446,43886.3039,55865.6752,797.7784,-599.7866,26288.0176
57034.4478,28349.6529,54121.1218,42538.8962,36966.3388,39575.9493,5705.9973,50384.1341,43897.301,55870.7267,814.0504,-583.2464,26294.2761
57050.1834,28352.4245,54122.7311,42545.9146,36981.8509,39576.9328,5709.8418,50398.7521,43902.9783,55875.7335,822.5888,-575.5126,26295.4384
57034.1796,28349.0717,54124.4298,42539.2091,36965.4894,39570.1379,5710.9147,50388.6044,43891.6683,55873.5877,816.9115,-579.1336,26293.8738
57010.1738,28343.1709,54123.8934,42524.6358,36942.6012,39564.3264,5710.8253,50356.3285,43883.0405,55871.889,800.1029,-597.775,26291.5492
57008.6092,28342.9474,54125.7262,42523.9205,36943.6741,39569.5567,5712.1664,50348.0136,43887.6897,55876.1358,797.4654,-598.7585,26292.8456
57029.3516,28355.4643,54127.7379,42538.7621,36967.4116,39578.6315,5717.9332,50382.4353,43902.7548,55885.7471,819.1466,-580.1618,26300.4005
57035.8336,28366.9978,54131.7165,42546.4511,36987.8411,39582.2525,5720.1684,50415.8288,43922.4243,55890.4409,828.8473,-568.9859,26303.6638
57028.234,28374.1057,54129.8389,42547.7028,36987.1706,39587.2146,5722.3588,50410.7326,43913.7071,55887.0882,820.6666,-575.1997,26299.9535
57016.9687,28373.0328,54132.7894,42543.143,36969.2445,39586.1864,5723.8787,50388.3809,43905.884,55890.9327,812.7987,-581.1006,26304.5579
57011.9619,28365.0756,54136.3209,42537.9574,36958.0239,39584.9794,5725.1751,50384.894,43907.7169,55893.6149,814.3634,-580.7877,26306.3908
57026.7141,28369.0095,54134.2646,42543.3666,36976.6653,39585.3817,5727.1421,50407.8269,43917.7305,55898.8899,827.8191,-569.3883,26305.2285
57030.5139,28369.8142,54135.3822,42549.3568,36983.3708,39580.3303,5724.2364,50416.0076,43917.7752,55900.0522,834.9717,-563.0851,26305.005
57017.5946,28359.8006,54131.2248,42544.663,36967.6352,39577.6033,5716.5027,50401.6131,43915.6294,55890.7539,829.4284,-572.8751,26303.038
57000.2049,28350.6364,54122.9993,42530.5367,36940.9919,39566.4275,5709.2607,50373.8075,43888.852,55875.6441,806.2273,-588.3873,26295.9749
56989.3867,28341.8298,54119.1101,42521.3724,36934.2864,39559.6325,5702.5552,50365.8056,43887.6897,55873.0513,800.3265,-592.9917,26293.7397
57010.8443,28350.994,54123.804,42538.4939,36962.8966,39569.6461,5708.6796,50391.376,43905.6605,55879.4886,817.4479,-582.4417,26297.316
57027.2505,28358.5042,54125.5027,42551.145,36987.1259,39577.1116,5715.0722,50416.9464,43919.608,55886.06,832.2895,-571.3999,26300.7581
57011.6043,28348.3118,54119.6018,42542.3384,36965.8023,39569.1097,5709.3501,50402.4625,43914.8247,55883.3331,820.3536,-575.8256,26293.7397
56983.2623,28335.6607,54119.5124,42526.558,36935.0463,39556.2798,5701.527,50378.6355,43896.4516,55874.8394,795.8114,-598.7138,26285.1119
56981.5636,28335.6607,54122.2841,42523.8758,36934.4652,39560.9736,5705.9973,50377.2944,43899.7149,55878.5498,795.7667,-597.5068,26288.3753
57004.1388,28345.0484,54120.9877,42531.5648,36955.0288,39565.8016,5709.216,50402.5519,43912.9472,55877.2981,813.8269,-584.2298,26293.6056
57011.2914,28353.4527,54121.8817,42541.042,36970.675,39568.0815,5710.87,50421.5509,43920.9938,55877.8346,823.4829,-574.8421,26296.7348
57002.7977,28348.2224,54122.9993,42534.5153,36961.1531,39565.2652,5708.1878,50406.7987,43916.9705,55876.8511,815.3915,-580.6088,26296.1984
56991.6666,28342.3662,54122.5523,42524.9934,36935.7616,39561.823,5706.0868,50368.7114,43902.0395,55868.268,796.8396,-592.5,26292.5327
56990.2807,28339.3264,54122.2394,42525.9769,36930.4419,39561.5548,5708.3666,50367.8173,43895.7363,55873.8559,795.7667,-594.5116,26291.1469
57010.3973,28346.5236,54122.4629,42536.4375,36951.0502,39570.6296,5705.9526,50396.651,43909.1921,55873.2748,810.653,-581.4582,26295.6172
57029.7092,28351.1281,54120.5853,42542.4725,36972.0608,39580.0173,5703.7622,50412.9678,43913.7518,55870.4138,822.5888,-579.983,26298.5677
57015.5829,28347.5071,54116.7855,42530.939,36957.4428,39570.6743,5698.5319,50400.2273,43905.0794,55868.5809,818.2526,-588.2084,26293.8291
56998.0145,28339.9522,54118.0819,42518.422,36935.6275,39561.5548,5695.045,50370.4548,43885.5886,55858.478,797.2419,-604.4805,26284.4861
56999.6238,28335.9289,54117.7243,42516.3656,36928.8325,39563.8794,5693.2569,50369.069,43887.2427,55860.3108,793.4421,-604.257,26286.8553
57028.2787,28350.0105,54125.1451,42536.2587,36958.0686,39574.8317,5696.8778,50408.6763,43906.1522,55872.3807,812.9776,-586.5097,26297.8971
57044.4614,28363.6004,54129.7942,42546.4064,36976.5311,39584.9794,5700.2306,50435.5431,43913.9754,55882.3943,826.9697,-579.983,26302.1886
57025.9541,28358.1465,54128.0061,42539.7009,36958.7839,39582.8336,5694.5533,50416.097,43907.9404,55877.5216,815.9727,-588.1637,26296.556
57010.8443,28355.5984,54127.112,42528.7485,36935.6275,39579.8832,5695.3132,50390.3031,43894.7976,55874.3924,800.2818,-597.7303,26293.2032
57014.6441,28358.4595,54132.2976,42532.6377,36940.679,39584.9347,5701.8399,50396.9193,43905.884,55877.8346,807.6578,-588.8343,26300.3558
57046.6518,28374.4186,54141.1936,42544.1712,36966.1152,39598.3458,5707.9643,50433.6208,43923.0502,55885.6577,828.5791,-565.4991,26313.4986
57056.2184,28383.1805,54145.0828,42556.9564,36982.3426,39603.3078,5712.9264,50449.7588,43934.9413,55890.128,842.2136,-552.3115,26318.4607
57028.4575,28372.094,54137.2597,42545.0653,36964.5953,39590.2097,5708.0984,50428.3905,43920.4574,55878.9968,828.3108,-564.6497,26314.2139
57001.4119,28358.7277,54126.8438,42523.5629,36937.6391,39572.9542,5704.4327,50399.2438,43887.6897,55864.4235,812.307,-583.7828,26304.4685
56995.1534,28348.1777,54120.183,42516.9021,36931.9618,39574.2059,5702.5999,50384.9834,43868.3331,55853.7841,802.1593,-589.2366,26298.21
57001.1437,28351.2175,54119.0654,42524.3676,36955.6099,39573.8035,5704.5221,50407.3352,43876.6479,55866.9716,816.5985,-575.9597,26303.8427
57001.8589,28360.6946,54114.5056,42532.146,36973.983,39575.2341,5707.6961,50422.5343,43877.8102,55871.7102,828.3556,-568.0025,26305.4073
56991.3089,28361.3652,54116.7855,42526.3792,36966.8305,39570.4061,5711.183,50396.4275,43863.5498,55868.0892,817.8502,-575.3338,26302.6804
56960.0165,28348.3118,54111.5105,42510.1072,36933.2582,39552.0329,5703.8516,50346.8066,43840.7511,55852.5324,793.9339,-595.6292,26290.9681
56957.379,28346.5683,54109.2306,42503.6252,36927.6702,39546.6238,5701.8846,50332.4568,43825.9989,55850.4313,789.24,-602.2006,26288.9117
56981.2059,28352.6927,54110.7506,42506.2627,36948.055,39548.859,5706.2209,50341.4869,43831.0057,55857.8521,808.6413,-588.5214,26295.2596
56990.7278,28362.5275,54112.941,42521.596,36973.3125,39559.5431,5713.8652,50350.9641,43839.097,55863.6189,821.0689,-575.0656,26300.4005
56979.4178,28367.7578,54115.4891,42523.5182,36964.193,39561.6442,5723.0741,50343.2304,43828.994,55869.922,816.8221,-577.2114,26302.6804
56958.6754,28369.6353,54121.3006,42508.6766,36940.6343,39555.2516,5727.9021,50311.8932,43823.6296,55867.3292,804.5733,-590.4436,26303.485
56958.2283,28380.1407,54128.0508,42513.594,36948.055,39563.5664,5736.3957,50295.3082,43824.6578,55869.6538,813.961,-581.1453,26311.2634
56982.3682,28392.7917,54134.3987,42525.6193,36974.5195,39573.2224,5743.7718,50324.8572,43832.3021,55874.0795,832.8706,-567.466,26318.0137
56994.3488,28399.7208,54136.2762,42531.8331,36983.7284,39572.5518,5747.1693,50337.8659,43841.2875,55879.6227,838.3691,-558.7041,26318.2372
56987.375,28396.2339,54136.5445,42528.7485,36966.8752,39564.8628,5745.9176,50322.3091,43831.408,55875.7782,831.3954,-566.6614,26316.8961
56955.5908,28385.2369,54134.3093,42516.9468,36934.3758,39552.1671,5743.1012,50284.4006,43810.308,55867.1951,815.3468,-579.4913,26312.8728
56941.8669,28374.7762,54123.7146,42508.4978,36923.0211,39546.2662,5734.5182,50261.6912,43797.4781,55854.5887,806.7191,-589.6837,26305.7649
56955.1885,28369.0989,54115.0868,42512.4764,36934.6887,39545.5062,5725.4434,50259.3219,43796.2711,55850.3419,814.8998,-583.4252,26302.1439
56964.7104,28370.3059,54111.4658,42516.9915,36944.3446,39540.723,5721.7777,50266.9662,43800.965,55856.064,817.6714,-581.2347,26301.2946
56952.4169,28364.1815,54105.3414,42504.6533,36925.8821,39536.9232,5716.3686,50247.1179,43790.6384,55846.8997,802.5616,-591.0248,26292.2645
56932.6133,28359.5771,54102.6592,42494.908,36903.3515,39531.6035,5713.0605,50223.6038,43776.4674,55833.3546,784.725,-603.8994,26285.5589
56933.3285,28359.1747,54105.7438,42504.6533,36903.9327,39530.7094,5718.0673,50223.2462,43774.9028,55832.684,788.7483,-598.4455,26291.728
56953.5792,28365.0309,54107.2637,42519.8525,36923.334,39537.6831,5722.2247,50239.6077,43792.2478,55840.6413,812.3964,-583.6487,26296.0643
56966.7667,28370.44,54108.426,42531.7436,36935.7616,39541.6617,5722.627,50251.0518,43798.7298,55840.7754,825.271,-576.4514,26301.6522
56955.8591,28368.1154,54115.4891,42524.457,36926.4632,39538.6666,5727.3209,50246.9838,43793.2312,55838.8084,817.2244,-579.4913,26301.831
56943.9232,28369.5012,54122.9099,42516.768,36900.8482,39544.1204,5731.6124,50222.4416,43786.6598,55838.0932,807.1661,-590.5777,26299.8194
56952.2381,28377.369,54132.4764,42525.2169,36907.2407,39551.72,5741.179,50220.8322,43798.0592,55845.8716,818.5208,-582.2182,26307.6872
56973.8299,28388.4555,54139.4055,42537.9574,36942.1095,39565.0864,5747.1246,50243.9886,43820.6792,55856.4216,838.1009,-561.9675,26316.6726
56977.7191,28391.6295,54138.869,42540.1926,36951.5866,39557.8444,5741.7601,50250.4259,43820.9027,55858.165,845.0747,-559.2406,26313.8562
56970.7006,28389.7966,54146.8263,42538.7621,36929.6819,39550.3789,5744.1741,50230.4435,43814.5995,55860.0873,839.2632,-566.8402,26315.9573
56948.9747,28379.8724,54144.3229,42526.1557,36905.7208,39549.9319,5741.2237,50200.358,43798.551,55858.3438,821.3818,-577.8372,26312.6045
56956.619,28376.0279,54143.6076,42523.6523,36904.9162,39551.0942,5737.7368,50196.1112,43784.5141,55856.064,820.8007,-579.223,26311.7552
56976.7356,28368.2048,54135.9186,42524.2782,36926.1056,39546.0874,5730.4054,50216.9877,43790.5937,55857.718,828.3108,-571.534,26311.7105
56984.8716,28360.0241,54126.8885,42527.3627,36934.1969,39539.1583,5722.6717,50224.8555,43796.0923,55850.5207,827.5509,-569.7459,26305.9437
56981.9212,28353.9891,54121.3453,42527.0051,36922.3505,39534.5539,5717.9332,50214.7526,43787.688,55846.3186,818.2079,-581.5476,26299.2382
56956.3955,28336.6442,54113.9692,42508.6766,36891.1475,39524.8085,5711.0488,50186.947,43762.967,55841.2671,795.6326,-600.9042,26287.3918
56949.8688,28337.27,54109.0518,42499.5124,36882.2515,39519.3994,5704.388,50170.5855,43758.4966,55835.7239,788.5695,-608.5038,26281.8038
56967.169,28343.305,54105.3414,42499.736,36903.6645,39519.6676,5701.08,50185.6059,43776.0651,55837.2438,800.0582,-597.9985,26283.9496
56978.7472,28342.0086,54102.8827,42505.6815,36919.0872,39521.1875,5698.7107,50200.9392,43788.9844,55838.719,812.0388,-588.3873,26284.2625
56974.858,28341.4721,54103.598,42501.3453,36909.61,39523.6462,5701.2588,50203.3085,43791.2643,55837.2438,808.0602,-591.4271,26285.0225
56963.7716,28338.03,54106.8166,42495.1762,36890.4769,39525.345,5704.9692,50189.7633,43785.3187,55835.6345,793.9786,-599.876,26284.7543
56972.4441,28346.0766,54114.4162,42495.3103,36885.4254,39531.6929,5709.4395,50191.2385,43790.6384,55840.373,788.7483,-596.9703,26291.8174
57002.4848,28365.612,54127.112,42516.4998,36914.8403,39545.9086,5724.8175,50225.6602,43818.9358,55855.7957,816.1068,-574.7974,26306.1672
57013.3924,28367.2214,54130.4648,42525.3958,36939.0696,39550.7813,5732.283,50243.7204,43829.5305,55866.0775,831.8424,-560.8499,26312.2916
56998.8638,28363.198,54134.1752,42523.0265,36935.0463,39550.3789,5735.0099,50239.4736,43825.6413,55869.1174,824.6899,-564.2027,26316.1808
56983.5305,28356.6266,54141.5513,42514.7563,36899.5517,39539.7395,5733.2665,50216.7642,43815.2701,55871.0396,808.5966,-575.6021,26313.6327
56982.8153,28358.3254,54141.6854,42514.2646,36892.7121,39534.5092,5734.697,50201.2968,43814.2419,55870.9949,804.2157,-580.6535,26312.381
57008.028,28361.7228,54138.7349,42522.9818,36916.4944,39542.6452,5731.836,50227.9848,43827.4741,55876.5829,820.8901,-567.8684,26314.2139
57026.4459,28361.9463,54132.3423,42527.1392,36933.9734,39546.6238,5726.6951,50244.6145,43829.5752,55871.9337,824.9134,-567.5554,26310.5929
57018.0416,28362.2593,54127.3803,42522.4453,36926.2397,39544.1204,5721.7777,50235.9867,43819.7404,55868.5809,817.8502,-578.8654,26303.6638
56991.2195,28362.304,54121.39,42510.9565,36905.8102,39533.4363,5713.6863,50214.3055,43802.6637,55862.0989,799.9241,-592.8129,26291.281
56980.5801,28356.8054,54116.6961,42509.3472,36893.3827,39529.6812,5711.183,50217.8371,43795.9135,55854.544,793.2186,-599.7419,26287.8835
56995.5558,28356.8054,54106.8166,42525.0381,36918.4613,39532.3634,5711.4065,50244.6145,43814.823,55855.9299,809.4013,-588.2531,26287.5259
57013.616,28364.0027,54106.5037,42534.2917,36941.6177,39540.0524,5714.2228,50254.9857,43828.6811,55862.9483,823.3488,-572.6069,26289.4034
57006.9104,28370.5294,54107.4425,42532.4142,36937.9073,39540.4994,5715.698,50251.9011,43819.3828,55857.5839,817.9843,-579.0889,26287.6153
56987.0621,28370.0824,54109.32,42523.5629,36915.1086,39541.2147,5711.8535,50229.9964,43806.9105,55849.6714,802.2487,-595.1375,26286.9
56982.2341,28369.0989,54111.5105,42518.2879,36912.4264,39543.9416,5706.8914,50222.7992,43803.3342,55842.0718,801.6676,-598.7138,26287.2577
57005.7929,28374.0163,54112.0023,42525.4852,36932.9453,39557.7997,5708.1431,50250.6495,43821.2156,55844.3069,817.582,-587.1803,26292.3986
57025.2836,28377.7267,54111.6446,42541.4443,36950.4243,39571.5237,5713.8205,50271.2131,43842.6286,55854.8123,828.445,-572.9198,26299.6405
57022.0202,28377.5926,54115.9362,42539.7903,36945.9987,39573.2671,5716.0556,50261.6018,43843.4333,55856.6451,823.2594,-574.8421,26301.071
56994.617,28365.165,54117.1432,42526.9157,36918.6848,39566.651,5709.7971,50248.1908,43826.7142,55849.6714,808.5072,-588.5661,26296.6454
56982.2341,28360.6946,54112.2705,42519.0479,36904.5585,39559.9455,5705.4162,50244.7486,43820.411,55845.4692,797.2419,-594.8246,26292.0856
57009.5032,28366.9084,54117.769,42532.6377,36926.5974,39563.2982,5706.6232,50269.9167,43838.0688,55847.8832,813.8716,-584.8557,26295.8407
57025.4177,28368.6072,54123.2228,42537.1081,36951.7207,39567.858,5707.4726,50281.316,43853.4915,55858.9697,822.2312,-574.4845,26299.5958
57004.2729,28359.7112,54117.9031,42521.0148,36937.4156,39563.1641,5704.5668,50267.6815,43848.2612,55854.8123,808.5519,-582.2182,26291.3704
56992.6947,28353.7209,54117.9925,42511.8506,36914.3039,39558.1573,5704.6562,50252.4376,43841.4216,55850.2525,795.722,-593.9305,26287.4365
56987.4644,28357.1631,54120.1383,42505.905,36908.8054,39555.0728,5705.9079,50244.2122,43834.7608,55851.7724,791.4752,-601.4407,26284.2625
57008.788,28362.9298,54118.7525,42512.7447,36932.0512,39556.0116,5710.9594,50268.5755,43844.2379,55854.4993,807.3002,-587.4038,26287.1236
57024.7024,28368.2942,54117.5008,42525.4405,36964.4612,39558.515,5714.491,50291.9108,43849.2894,55856.064,821.4712,-579.3571,26292.2645
57014.2418,28369.5906,54119.6465,42524.3676,36956.6828,39557.1291,5719.9895,50285.0711,43848.9765,55858.6121,820.5771,-582.5758,26297.1371
56990.8619,28364.8521,54120.4065,42516.4998,36930.0395,39549.4401,5720.8836,50257.2656,43829.754,55848.3303,806.0485,-594.8246,26289.627
56981.6977,28352.5586,54115.6679,42503.1781,36918.3272,39540.9465,5712.9264,50245.2403,43816.6112,55844.0387,796.7055,-604.2123,26283.1002
57002.5295,28361.2758,54114.3715,42510.1519,36948.9491,39547.7861,5714.7145,50274.6105,43838.5606,55850.476,809.8036,-584.498,26287.5706
57016.4323,28374.2398,54117.9478,42529.3744,36974.4301,39557.7997,5724.4599,50297.1858,43853.268,55861.3837,826.7462,-566.259,26298.6124
57008.6092,28373.5693,54118.8419,42522.8924,36958.4709,39555.6092,5723.5211,50287.3063,43849.8259,55861.2049,821.203,-575.0656,26300.2217
56993.7229,28373.3904,54116.8302,42505.5027,36933.7052,39547.5179,5717.5308,50262.5406,43835.029,55855.4381,803.7686,-588.7002,26294.7232
56987.7326,28369.5906,54116.2044,42503.3122,36927.6702,39545.7745,5719.5872,50260.4395,43830.4245,55847.3468,800.55,-589.9072,26295.4831
57008.1621,28376.475,54123.6699,42520.0313,36960.125,39555.5198,5727.2762,50296.2023,43851.7481,55868.0892,820.2642,-573.2328,26304.3791
57021.3944,28382.8229,54123.4016,42531.386,36979.4369,39563.7006,5731.6571,50321.1915,43864.3992,55877.3875,832.7365,-564.8732,26309.8329
57009.0562,28379.2019,54121.837,42529.1061,36967.9034,39558.2467,5732.5065,50305.3218,43867.2155,55874.3924,827.9532,-568.9412,26307.4636
56989.5655,28370.5741,54119.7807,42510.3754,36941.2601,39549.8872,5727.455,50272.5542,43848.0824,55868.2233,807.7919,-587.4485,26299.1041
56977.0932,28362.1699,54118.529,42508.0955,36930.8889,39548.5461,5720.0789,50259.6349,43839.6335,55870.1009,799.8794,-595.9868,26294.4102
56991.8454,28367.3555,54118.4396,42520.6572,36954.1794,39552.927,5716.9944,50289.318,43853.7151,55875.8229,814.1845,-587.1356,26295.1255
57004.3623,28366.6402,54116.6067,42527.0498,36969.7362,39552.1671,5716.3686,50298.3481,43857.0678,55877.924,817.4032,-586.3756,26295.7513
56993.3653,28355.822,54111.734,42521.5065,36957.8898,39545.3274,5712.837,50279.3938,43847.2331,55870.235,804.8862,-596.2551,26287.9282
56965.3809,28345.2272,54107.9342,42505.2345,36921.7694,39535.4927,5704.9692,50251.1412,43830.0222,55855.2593,785.7978,-613.6,26275.5454
56954.5627,28339.0582,54103.9109,42494.2374,36914.0804,39529.3236,5696.8778,50233.9303,43823.719,55849.4031,778.4218,-621.3784,26268.9739
56971.7288,28339.7287,54098.9935,42500.0936,36938.1756,39529.1001,5693.1227,50249.666,43830.514,55848.4197,791.4305,-609.8449,26272.282
56983.7093,28344.1991,54098.7253,42516.1868,36954.09,39535.5821,5695.8944,50274.8787,43835.0737,55850.8784,807.3896,-596.7915,26275.2771
