FC3,FCz,FC4,C5,C3,C1,Cz,C2,C4,C6,CP3,CPz,CP4
51691.2639,24376.3179,50863.3554,37773.7284,33483.3115,35208.9107,4616.037,48569.3961,44054.5678,54698.7355,-3663.3611,-3529.3847,22022.7689
51702.5739,24377.1672,50860.7179,37779.6292,33503.7857,35214.901,4611.3431,48592.9549,44068.2024,54697.9755,-3657.2367,-3521.3828,22021.2936
51713.7945,24382.9787,50861.4331,37792.0121,33520.1919,35224.1546,4614.8747,48610.0316,44075.2208,54702.4012,-3645.2562,-3513.2021,22023.797
51704.6303,24374.6638,50858.9298,37788.8829,33509.1949,35218.1196,4610.6726,48604.4437,44071.5998,54698.4673,-3651.157,-3521.4722,22017.0021
51686.4359,24365.4549,50859.8685,37776.0082,33485.9043,35208.6425,4604.5035,48583.8801,44061.8098,54689.616,-3668.6361,-3536.4926,22010.9224
51680.6692,24357.1848,50855.577,37766.8887,33474.3708,35203.7698,4600.6143,48574.7159,44060.5134,54687.2914,-3675.6098,-3540.7841,22005.2004
51699.4447,24359.5988,50852.6266,37775.6506,33491.6711,35208.106,4599.8991,48597.157,44070.214,54693.4158,-3671.7206,-3531.2176,22005.7815
51710.2182,24365.3655,50853.3865,37783.429,33508.9713,35208.1954,4600.3014,48619.5534,44079.9594,54697.9755,-3657.952,-3519.9523,22011.5036
51703.6021,24359.5541,50851.509,37775.6953,33502.0423,35205.9603,4596.6357,48610.2104,44075.6232,54693.2369,-3663.6293,-3523.3498,22011.5036
51678.2999,24352.8485,50851.509,37761.2114,33478.9306,35197.3325,4592.8806,48585.8917,44063.8214,54685.6821,-3683.12,-3536.0456,22006.4074
51680.1327,24358.1682,50854.2806,37759.6021,33478.2153,35200.6406,4599.6308,48591.122,44063.4638,54690.7336,-3674.7158,-3533.0951,22009.7154
51705.7031,24368.2265,50856.6499,37771.4932,33500.2095,35204.9768,4606.0681,48617.8547,44085.7708,54701.82,-3658.4437,-3521.0252,22019.0585
51720.0977,24386.4655,50857.991,37782.8479,33524.5728,35208.6872,4612.5501,48637.2113,44094.7115,54708.4808,-3644.0939,-3510.3858,22028.0886
51719.4718,24387.5384,50863.4448,37782.4903,33523.2764,35210.7882,4618.2275,48639.223,44092.4764,54709.5537,-3644.7197,-3511.0116,22031.1731
51703.6915,24380.2965,50865.2329,37773.3707,33505.3056,35206.9885,4617.6016,48618.8829,44080.4958,54705.4857,-3657.639,-3520.8017,22027.6415
51703.6468,24378.2848,50860.7626,37768.6769,33494.8003,35203.0993,4616.5735,48616.7371,44076.5619,54701.4624,-3660.4106,-3523.7074,22024.9146
51719.6506,24391.1147,50860.5391,37777.707,33512.4135,35210.6094,4619.5686,48631.9363,44088.2295,54708.0785,-3644.3174,-3508.2847,22027.9545
51729.7089,24395.7192,50859.1086,37786.0218,33528.4621,35213.0681,4622.3849,48645.3474,44096.0526,54714.0241,-3633.4544,-3499.7016,22029.0273
51721.2152,24393.5287,50858.8403,37781.0597,33526.4951,35205.1556,4620.6862,48633.3221,44089.7048,54708.2573,-3641.5011,-3511.0116,22024.1994
51699.1317,24386.4655,50855.6217,37767.8722,33502.6681,35195.902,4617.3334,48607.3494,44070.2587,54698.7802,-3665.328,-3527.7307,22017.0468
51690.9063,24378.8213,50853.7441,37758.5292,33486.4408,35190.7164,4613.2207,48596.4417,44067.5318,54695.5168,-3673.1511,-3532.961,22013.247
51701.7245,24378.553,50853.1183,37762.6419,33504.5904,35195.4997,4611.0302,48616.2007,44074.2373,54699.3613,-3663.4058,-3528.7589,22014.1411
51712.6769,24378.3742,50856.9181,37770.1521,33520.8178,35202.3393,4612.7737,48634.395,44086.2179,54708.9279,-3652.364,-3516.7783,22018.7455
51710.3523,24374.8426,50854.5041,37766.2182,33508.8819,35196.9749,4610.9855,48626.1696,44083.3122,54706.8268,-3664.1657,-3520.6676,22016.3763
51696.5389,24369.4782,50855.3088,37759.5127,33487.2901,35191.1634,4608.8398,48601.7168,44071.6445,54701.9988,-3677.6215,-3534.3468,22013.5599
51695.019,24366.6172,50862.1037,37759.0209,33485.949,35191.3869,4610.1362,48600.1521,44071.1528,54701.6859,-3675.2969,-3533.408,22020.9807
51706.1949,24372.0263,50864.473,37769.8839,33503.2046,35193.7562,4616.3499,48617.0053,44088.9895,54705.0387,-3660.8577,-3514.9008,22025.4511
51713.4815,24376.6308,50866.574,37781.2833,33519.2978,35203.0993,4620.105,48631.3105,44097.9302,54713.2194,-3648.0725,-3508.1953,22026.5687
51702.7974,24371.0428,50864.2942,37773.4154,33502.0423,35199.8806,4616.1264,48614.949,44085.9497,54707.408,-3655.2697,-3518.7006,22020.2208
51683.7537,24367.4666,50861.3437,37766.5311,33489.5253,35195.9914,4614.4724,48591.9267,44070.0352,54700.3448,-3667.0268,-3530.9047,22015.7504
51678.0317,24362.7727,50856.024,37767.5146,33488.4524,35197.8689,4612.0137,48583.4777,44064.1791,54693.8628,-3668.949,-3530.8599,22014.0517
51692.158,24360.761,50853.0736,37775.3824,33506.7809,35202.6075,4614.2042,48601.8956,44071.0634,54697.8861,-3657.639,-3519.8182,22016.5104
51696.1813,24350.3898,50849.1397,37776.4553,33505.4845,35198.6289,4610.3597,48609.8528,44076.0702,54695.5615,-3656.9238,-3517.583,22013.5599
51692.605,24346.6794,50849.542,37780.9703,33505.5739,35196.8855,4611.2537,48599.2134,44074.4609,54689.8395,-3658.0414,-3522.5004,22009.1343
51678.0317,24347.0371,50849.8102,37772.1637,33488.7207,35189.7329,4610.9855,48571.8548,44060.5134,54681.6587,-3671.8547,-3536.5373,22006.4968
51674.1425,24346.59,50849.3632,37764.43,33480.0929,35187.3636,4607.2304,48567.6974,44059.2617,54683.2681,-3674.6711,-3540.4712,22006.1392
51691.2639,24349.1381,50851.0619,37773.5049,33503.741,35196.0808,4610.9855,48589.8703,44076.0255,54693.0581,-3660.2318,-3522.9474,22013.9623
51702.0822,24356.693,50853.3865,37784.5466,33523.0529,35199.8359,4615.7241,48609.6293,44081.524,54698.7802,-3643.6468,-3510.2069,22023.2159
51695.2425,24357.8106,50856.4264,37773.5049,33511.9218,35199.4783,4614.4724,48608.4223,44074.3268,54701.0154,-3652.0511,-3517.6724,22023.4394
51681.0715,24351.7309,50854.4147,37758.1716,33483.7586,35185.8437,4611.1196,48593.9831,44061.2733,54694.6675,-3669.2619,-3530.7705,22018.8349
51679.7751,24348.4229,50851.0172,37753.8353,33485.1891,35184.8155,4610.4044,48589.2892,44057.5629,54689.9289,-3672.4359,-3533.6763,22019.5502
51703.5574,24354.8602,50852.1348,37765.2794,33508.2114,35195.6785,4614.3383,48609.1375,44072.9856,54699.4507,-3657.639,-3519.7735,22024.2888
51714.3756,24362.1022,50856.2028,37771.225,33522.4271,35204.9321,4619.9709,48623.7109,44082.6863,54708.0785,-3651.157,-3509.6258,22027.0157
51696.3601,24360.4928,50854.0571,37761.5243,33509.9995,35198.2266,4614.4724,48617.8994,44075.8914,54704.5022,-3657.9072,-3516.0184,22023.5735
51682.7255,24350.4345,50853.3418,37756.9199,33494.2639,35189.5541,4608.8845,48598.0064,44060.0216,54695.6509,-3668.4573,-3529.7871,22019.1032
51675.9306,24344.0866,50846.9939,37750.3484,33486.262,35183.4297,4602.5813,48582.4496,44056.6689,54686.6208,-3678.0238,-3536.7161,22010.1178
51687.2406,24346.3665,50846.4575,37753.0754,33504.1881,35189.6435,4602.2683,48592.4631,44064.939,54691.0912,-3663.9869,-3529.5188,22010.8777
51701.7245,24350.8369,50849.542,37759.7362,33515.811,35193.4433,4605.6211,48611.1939,44072.628,54695.9639,-3651.8723,-3522.0981,22014.0517
51703.8703,24356.4695,50850.4808,37762.9548,33511.43,35196.7961,4611.969,48608.7352,44070.7505,54696.8132,-3653.3028,-3523.5733,22013.5599
51685.5866,24347.1712,50851.1513,37751.8237,33485.8596,35191.6999,4609.0633,48587.0093,44060.0216,54688.1855,-3669.3066,-3535.4197,22007.7038
51688.6711,24345.2489,50850.1232,37748.3368,33480.8081,35194.8291,4607.0069,48586.2494,44058.6805,54690.063,-3674.1346,-3533.9445,22008.9555
51697.3883,24347.7076,50847.5304,37758.708,33503.1152,35198.0031,4604.7717,48607.0812,44071.6445,54696.1427,-3660.5895,-3521.6957,22013.3811
51712.4534,24355.8884,50845.0717,37763.4019,33513.844,35197.9136,4607.1857,48625.1861,44074.6397,54699.2719,-3654.8227,-3516.5548,22014.5434
51705.9267,24359.1964,50848.1562,37761.6584,33501.4164,35197.2878,4609.8679,48625.4543,44077.3219,54702.8035,-3662.8246,-3521.651,22014.9457
51693.6779,24353.6979,50853.0289,37754.5953,33480.5846,35188.9729,4604.9505,48600.5545,44072.7621,54697.2603,-3673.777,-3531.0388,22012.8
51693.9014,24350.971,50847.4857,37747.4874,33477.2766,35186.7378,4599.4967,48593.6701,44068.4706,54684.5645,-3677.398,-3538.5936,22009.7601
51710.4864,24356.0672,50845.921,37756.0258,33498.0637,35192.728,4602.4472,48619.777,44076.6513,54693.5499,-3665.0598,-3524.9591,22014.8563
51727.2949,24362.9515,50851.0619,37766.7546,33512.4582,35201.5793,4608.4374,48636.7643,44087.6037,54699.6295,-3653.0793,-3515.3925,22019.5949
51710.4417,24356.6483,50849.1397,37753.8353,33493.8169,35193.0857,4602.3577,48619.5534,44077.5007,54695.1145,-3664.6575,-3527.9542,22010.6989
51685.5866,24347.7076,50844.8035,37740.1561,33472.1357,35185.8437,4595.9204,48594.1172,44066.8166,54686.8891,-3682.4048,-3545.925,22003.9487
51686.7936,24352.1333,50845.6528,37750.7508,33470.124,35190.627,4598.3791,48589.5127,44070.7952,54688.7219,-3677.6215,-3544.271,22006.9885
51703.3339,24359.6882,50844.8482,37769.0792,33497.259,35196.3043,4605.9787,48615.1278,44086.8884,54696.4556,-3664.0763,-3524.4226,22009.8943
51706.7313,24363.5774,50842.7918,37772.0296,33515.6769,35192.6386,4605.7105,48634.7973,44098.2431,54702.3565,-3657.6837,-3515.9737,22009.0449
51698.3271,24360.9399,50845.1164,37759.5127,33505.9762,35186.7825,4601.5084,48627.2424,44086.7543,54697.2156,-3666.6691,-3528.1777,22008.1955
51685.6313,24355.8437,50846.5916,37748.7838,33483.0433,35187.6318,4600.2567,48608.914,44081.1217,54693.7734,-3683.12,-3540.2477,22006.9885
51688.8946,24362.1022,50848.7821,37756.4728,33485.949,35195.7679,4604.4141,48620.4475,44082.8204,54700.4342,-3677.398,-3537.2078,22009.0896
51702.0375,24368.003,50851.7325,37769.4815,33512.3688,35202.831,4608.6162,48641.9052,44097.5279,54707.1844,-3661.2153,-3523.7074,22014.4987
51714.7332,24368.9418,50853.7889,37781.6409,33526.6739,35206.899,4612.4607,48663.3629,44109.419,54709.4196,-3655.0909,-3515.7502,22018.3879
51714.018,24368.2265,50855.3982,37777.5729,33517.4203,35204.9768,4613.7124,48652.9469,44106.9603,54708.2573,-3661.3047,-3520.8017,22019.0585
51696.7177,24365.9019,50851.3749,37763.1336,33488.6312,35198.0925,4609.4656,48624.3814,44093.6387,54701.7753,-3676.0569,-3532.6928,22011.7718
51692.3368,24358.3918,50852.1795,37756.0705,33481.6128,35196.9749,4606.2022,48617.6759,44086.9778,54698.199,-3680.3037,-3534.168,22007.9273
51712.9898,24362.4598,50855.1747,37763.7595,33499.2707,35202.831,4610.5385,48644.7215,44100.3889,54704.9046,-3667.8314,-3523.5733,22012.1294
51718.846,24361.2528,50851.8219,37768.1851,33505.3951,35199.5677,4607.6328,48654.4669,44099.0478,54699.1378,-3662.9587,-3520.0864,22010.9224
51709.19,24354.8602,50849.1844,37764.2959,33496.9461,35193.2645,4604.727,48646.5096,44094.8009,54691.27,-3671.9888,-3529.4294,22002.9652
51694.6167,24348.3782,50848.0221,37761.7031,33480.8081,35188.9729,4603.2071,48632.3833,44079.7806,54685.3691,-3678.0685,-3538.9066,22000.1042
51688.1347,24343.5502,50842.9259,37756.6963,33476.606,35187.1401,4599.1391,48613.2503,44076.2937,54682.9104,-3680.4825,-3542.4829,21996.4385
51703.0656,24349.1381,50841.0931,37768.0957,33500.5224,35194.1586,4599.8991,48627.6895,44087.3802,54687.6043,-3668.9937,-3529.8318,21996.8855
51708.7877,24348.3782,50838.4556,37770.465,33509.4631,35193.4433,4596.6357,48646.3308,44089.973,54691.7617,-3665.7751,-3528.0883,21997.8243
51699.5341,24347.2606,50840.8248,37766.397,33497.6614,35194.4715,4598.8262,48637.9713,44087.3355,54691.1806,-3670.3348,-3532.7375,22002.0711
51694.3932,24347.9759,50845.1164,37757.5904,33481.3893,35189.5094,4605.3529,48627.466,44083.7592,54693.2817,-3678.7838,-3535.6879,22006.318
51706.1055,24353.9214,50851.6878,37762.6866,33486.8431,35195.1867,4611.6561,48626.6166,44086.5755,54696.7685,-3673.5535,-3528.4013,22013.1129
51720.9023,24356.5142,50854.1465,37769.1239,33500.6118,35202.0711,4612.5501,48651.1588,44098.7349,54699.8978,-3657.2814,-3513.515,22018.8349
51727.7867,24356.3354,50850.7937,37773.6837,33514.3805,35205.5132,4611.7455,48663.3629,44106.7368,54700.5683,-3652.6769,-3506.273,22019.5502
51720.1871,24351.7309,50846.9939,37765.7712,33504.0987,35197.8689,4603.9224,48654.1986,44097.1255,54698.2884,-3666.6244,-3519.1923,22014.2305
51703.8703,24349.9428,50847.3516,37758.1716,33488.4077,35194.3374,4600.3461,48641.7264,44087.0672,54691.4041,-3678.7838,-3528.4907,22012.6659
51702.8421,24352.5803,50849.8996,37761.1667,33483.9374,35199.21,4604.5482,48636.9431,44091.4482,54691.3594,-3676.0122,-3529.8318,22011.593
51725.4621,24363.8903,50853.6547,37776.3212,33510.8042,35210.7882,4614.0701,48660.8148,44111.833,54705.4857,-3651.4699,-3513.4703,22017.0915
51732.5699,24371.5346,50854.9958,37778.154,33522.9635,35207.8378,4612.2819,48671.4542,44118.8067,54710.716,-3648.5195,-3512.7997,22015.4375
51728.6807,24369.1206,50857.1416,37772.2532,33513.6652,35204.1274,4608.3033,48666.805,44108.7037,54704.7257,-3658.0414,-3521.6957,22012.1741
51709.9947,24364.5608,50859.645,37758.9762,33491.2688,35200.7747,4605.7999,48650.8012,44098.6902,54700.4342,-3674.5816,-3533.5869,22008.6873
51705.2561,24366.349,50860.4944,37757.501,33490.2853,35200.4617,4609.5997,48657.9984,44098.2431,54700.3448,-3676.9509,-3529.6082,22009.0449
51718.1754,24372.1604,50862.8637,37766.3523,33508.7478,35203.9933,4610.2256,48684.5076,44113.3529,54704.0552,-3664.6128,-3516.9572,22013.2917
51732.1676,24378.106,50865.0094,37783.7867,33531.8148,35215.3033,4616.7076,48695.1023,44125.4228,54714.784,-3650.9335,-3508.5082,22019.8631
51720.6341,24370.5064,50861.5673,37780.2998,33519.8343,35207.3908,4616.037,48686.9663,44120.5949,54711.5207,-3655.8509,-3516.1525,22017.9856
51701.9928,24360.8057,50852.3136,37763.0889,33488.9889,35197.9136,4606.2022,48661.3512,44106.0215,54696.1874,-3674.0452,-3528.0436,22012.4424
51696.7624,24364.4267,50847.0833,37757.6351,33480.4505,35197.6901,4599.005,48657.3279,44100.4783,54691.8064,-3676.5039,-3530.2788,22011.7718
51709.8159,24371.0876,50848.8268,37768.364,33500.9247,35204.5298,4602.1342,48673.3317,44109.0614,54699.1378,-3662.9587,-3519.2817,22016.6892
51721.4388,24374.0827,50851.3749,37778.8246,33516.1239,35209.0895,4607.4986,48690.4532,44112.9953,54701.9094,-3650.6206,-3511.3692,22021.383
51717.2813,24368.3606,50849.8996,37773.1472,33504.501,35208.4637,4603.1624,48687.5027,44107.6756,54697.2156,-3655.3144,-3516.4654,22016.7786
51695.5107,24360.314,50846.1893,37760.675,33487.7819,35203.9039,4599.3626,48662.1112,44096.1421,54690.2865,-3673.4641,-3526.0767,22011.1012
51694.0355,24365.9914,50847.888,37760.0044,33486.7984,35203.0993,4602.9389,48660.9042,44094.7562,54693.4158,-3672.0335,-3523.9309,22011.2354
51714.3756,24376.6308,50855.0406,37771.0909,33506.9597,35210.833,4609.3315,48683.9265,44115.6775,54703.6976,-3658.1755,-3510.8775,22018.7008
51722.8693,24381.2352,50862.1484,37781.6856,33522.4271,35219.2819,4614.2042,48701.1373,44132.3072,54715.0522,-3645.6585,-3503.0097,22023.35
51714.5991,24373.9039,50861.7908,37771.8955,33505.6186,35210.9224,4608.4374,48687.5921,44119.6561,54706.7821,-3656.1638,-3512.3974,22018.6561
51692.6497,24364.6055,50853.5653,37756.4728,33480.0482,35197.6901,4602.5813,48660.9042,44108.0779,54696.098,-3673.9558,-3528.7589,22011.1907
51687.5982,24362.1916,50852.716,37763.4466,33479.4223,35198.8971,4602.4472,48663.8099,44102.2664,54693.9522,-3678.4261,-3533.0057,22008.1508
51705.122,24366.8407,50852.403,37772.7002,33502.087,35205.2003,4602.1342,48685.804,44107.6308,54698.8249,-3669.3513,-3523.618,22011.1907
51724.6574,24373.8145,50851.0172,37777.1705,33518.3591,35207.6143,4603.9671,48704.8477,44112.28,54702.2223,-3663.227,-3515.2584,22013.3364
51714.4203,24366.0361,50848.335,37763.8936,33503.8304,35198.5395,4599.9438,48695.4153,44104.2781,54698.7355,-3676.9509,-3524.7356,22008.6426
51692.605,24357.9,50851.6431,37759.8256,33485.6808,35193.0857,4600.3908,48669.979,44096.0526,54696.8579,-3687.4115,-3539.7112,22005.3345
51693.0968,24357.8553,50851.5984,37760.7644,33481.7469,35194.4268,4599.6755,48663.0052,44093.1022,54691.0912,-3689.6467,-3538.7725,22003.3228
51713.7051,24368.6736,50854.2359,37774.1307,33507.6749,35203.0098,4604.4588,48685.7146,44109.1508,54702.4459,-3670.8713,-3525.4955,22007.1226
51724.4339,24368.0477,50854.1912,37781.9985,33520.2813,35202.831,4604.1459,48696.0411,44107.6308,54703.8317,-3664.2551,-3518.9241,22009.939
51715.0462,24364.7844,50849.9444,37773.0131,33498.3319,35197.6454,4600.5696,48683.39,44100.0313,54700.7471,-3673.5982,-3529.653,22005.2898
51704.3173,24363.3538,50852.8948,37771.8508,33481.1658,35200.1041,4607.1857,48661.9323,44100.5677,54700.3895,-3677.9344,-3535.5091,22006.9885
51706.2843,24368.5395,50860.7179,37773.639,33483.3562,35205.245,4611.7902,48662.3347,44104.591,54703.1611,-3673.1511,-3528.0883,22012.2188
51719.4271,24374.6638,50857.2757,37780.2551,33500.0753,35203.2781,4609.555,48681.8701,44118.315,54709.1961,-3663.9422,-3516.4207,22014.2752
51727.3396,24377.8825,50855.577,37785.8877,33515.7216,35209.7154,4611.6114,48695.147,44120.5502,54711.9677,-3656.2979,-3511.548,22016.3763
51717.3707,24375.7814,50861.5673,37779.4504,33507.1385,35207.6143,4609.8232,48693.5824,44112.4141,54711.0289,-3659.8742,-3515.9737,22016.3763
51702.8421,24367.0195,50858.7062,37769.3921,33488.1395,35204.1721,4607.8563,48677.5339,44101.8641,54705.441,-3672.3465,-3530.0553,22013.1129
51701.7692,24366.0361,50859.7344,37770.6885,33491.8499,35208.1507,4611.969,48684.4182,44109.6425,54709.7325,-3674.8052,-3530.6364,22015.8398
51715.0462,24372.6969,50861.5226,37779.9869,33511.6982,35213.2022,4613.3101,48709.7204,44128.3286,54716.4828,-3658.1308,-3517.7618,22019.5949
51727.6525,24375.0215,50862.7743,37789.911,33522.4718,35215.1245,4614.0254,48718.7505,44136.0623,54722.7859,-3649.6371,-3506.7648,22021.0254
51723.0928,24369.3888,50858.0804,37784.0102,33506.7362,35208.6425,4611.6561,48705.6077,44121.936,54718.5838,-3665.7751,-3516.1078,22016.1974
51698.7741,24349.4511,50850.1232,37767.9169,33479.02,35194.8738,4601.6872,48677.5786,44103.7416,54707.8103,-3689.5573,-3534.5703,22006.3627
51687.1959,24343.5502,50846.0999,37760.3173,33473.2085,35189.9564,4598.6027,48675.4775,44100.9253,54700.613,-3693.0889,-3539.2642,22004.0828
51704.6303,24352.5803,50846.0999,37776.9023,33501.0141,35195.7232,4603.0283,48696.2646,44112.8165,54708.0338,-3672.4359,-3525.272,22007.8826
51716.6108,24356.1566,50843.4623,37791.118,33516.3474,35196.4384,4600.5696,48704.356,44115.8563,54708.8385,-3662.3776,-3518.4771,22008.1061
51713.4815,24349.9428,50844.8035,37783.5184,33501.6847,35194.6503,4595.5628,48689.1121,44109.7766,54703.2505,-3670.2454,-3526.6131,22006.0498
51699.1764,24341.4491,50843.7306,37769.1686,33473.5215,35181.9992,4589.3937,48664.5699,44092.9681,54687.5149,-3687.9033,-3544.8074,21996.9302
51699.3999,24343.4608,50843.1047,37770.9121,33470.9287,35179.9428,4593.0594,48664.2122,44092.5658,54687.9619,-3686.1598,-3543.0193,22001.1771
51713.258,24352.9379,50847.2621,37781.5068,33492.744,35193.3986,4596.0099,48687.5921,44113.6658,54701.2836,-3672.2571,-3526.4343,22007.6591
51728.8148,24362.6386,50848.4691,37786.2006,33499.4048,35205.9603,4598.3344,48696.7564,44118.8961,54708.8832,-3662.914,-3520.9805,22010.3413
51730.4689,24367.6901,50855.2641,37788.3911,33502.7575,35211.727,4603.7436,48698.2316,44117.3762,54707.5868,-3661.9306,-3522.5898,22012.0847
51722.5564,24372.4734,50856.3817,37780.6574,33487.7819,35210.4306,4604.1459,48683.3453,44106.4239,54703.3399,-3670.1113,-3532.8716,22010.3413
51724.4339,24375.0215,50853.3865,37775.8294,33481.9257,35211.6823,4602.626,48682.0042,44108.3908,54706.4692,-3672.6594,-3535.7773,22009.939
51738.2473,24383.8727,50856.2475,37788.7487,33498.9578,35219.2372,4602.4919,48701.7184,44120.7737,54711.9677,-3661.3047,-3519.3264,22013.9176
51741.4212,24381.9505,50855.13,37793.5767,33511.2959,35220.8465,4600.4802,48714.3248,44125.0652,54711.4313,-3658.0861,-3509.4917,22017.0915
51729.0384,24372.3392,50853.8336,37784.0549,33503.0705,35219.4607,4598.0662,48706.5017,44121.9807,54702.9823,-3666.1327,-3516.4654,22015.5269
51707.1337,24366.7066,50853.5206,37767.3358,33484.6526,35217.9408,4596.0993,48684.9993,44107.0497,54700.6577,-3679.1414,-3526.1661,22014.9457
51709.2794,24365.6784,50859.1086,37771.1803,33487.5584,35220.2654,4602.1342,48689.425,44113.0847,54701.1048,-3672.4806,-3523.7521,22021.5172
51726.4009,24369.8359,50863.7577,37781.2386,33510.7148,35219.9078,4609.555,48711.5085,44120.6843,54709.5984,-3654.1075,-3508.1506,22023.7523
51726.8032,24372.5181,50865.5459,37782.4008,33523.6788,35218.2537,4608.0798,48724.9643,44121.0866,54711.9677,-3651.4252,-3506.3177,22023.9758
51709.7712,24367.556,50858.6168,37771.672,33505.4398,35207.7484,4601.0613,48707.6193,44100.3442,54701.1942,-3664.3893,-3524.3779,22016.868
51686.1677,24361.3869,50854.1912,37755.7129,33484.8315,35192.8622,4597.8874,48679.1432,44082.4628,54695.9639,-3686.9198,-3540.4265,22008.3296
51684.6478,24362.7727,50854.5488,37747.5768,33487.5137,35188.9282,4599.8991,48665.151,44077.903,54693.6393,-3688.0374,-3538.996,22008.9108
51704.7197,24371.4005,50857.3204,37759.7809,33511.5194,35197.4219,4608.9292,48680.9313,44088.9895,54699.9872,-3664.7469,-3519.3264,22016.9574
51705.7478,24372.071,50859.5556,37765.1453,33517.0627,35197.3772,4608.0798,48686.3405,44093.4598,54703.3846,-3658.7566,-3511.2798,22017.8515
51694.4826,24373.3674,50859.8685,37760.3173,33512.4582,35189.2859,4609.9126,48666.0004,44088.0954,54699.1825,-3671.9888,-3517.9853,22016.5104
51677.4952,24377.9272,50865.5906,37754.6847,33499.0919,35191.6552,4615.3218,48637.0772,44067.9342,54697.5732,-3679.3649,-3525.1379,22018.7902
51674.2319,24380.4753,50869.7033,37754.4612,33499.0472,35195.902,4618.451,48625.1414,44056.6242,54695.9192,-3676.5039,-3524.6909,22021.1148
51688.5817,24385.8844,50872.609,37759.2891,33515.1851,35203.3675,4623.3684,48634.395,44061.6757,54696.992,-3663.1823,-3512.308,22024.2441
51698.193,24391.07,50875.6042,37770.3309,33532.7089,35208.1507,4627.4364,48640.877,44074.4162,54701.8647,-3645.1668,-3502.0709,22030.8155
51690.0122,24398.8484,50879.2698,37772.3873,33525.2434,35205.1556,4630.4315,48631.3552,44061.4522,54700.8365,-3648.4748,-3508.8211,22030.5026
51674.5448,24402.6482,50878.8228,37762.4631,33506.4232,35200.1041,4630.7445,48603.0579,44042.8108,54697.0814,-3669.4407,-3525.272,22021.5172
51668.9122,24401.7541,50877.1688,37754.4612,33503.9645,35199.5677,4627.2129,48581.1085,44038.8322,54692.3876,-3672.4806,-3531.4411,22018.6561
51680.9821,24402.2012,50875.2465,37760.8985,33522.293,35204.1274,4634.1419,48598.8557,44052.6903,54700.4342,-3656.6108,-3511.6822,22026.9263
51695.2425,24409.622,50876.677,37777.3046,33539.3697,35212.934,4642.3674,48605.7848,44061.0051,54707.7656,-3640.3835,-3501.6686,22033.2742
51681.1609,24404.5258,50871.9385,37767.6487,33523.4106,35210.5647,4637.4947,48584.5059,44049.6504,54694.8463,-3650.5312,-3511.861,22028.2674
51659.6586,24396.6579,50869.9268,37756.4728,33500.2095,35206.8096,4632.5326,48559.0696,44037.8934,54686.3526,-3665.1939,-3522.9027,22021.6513
51653.8471,24390.4889,50864.92,37751.5554,33486.6643,35202.6522,4628.8669,48546.8209,44030.3832,54683.9386,-3668.7702,-3527.8648,22019.282
51676.8247,24395.2721,50861.5226,37769.8839,33511.5641,35209.0448,4631.862,48559.4273,44035.1665,54689.6607,-3652.7663,-3515.4372,22023.797
51691.1298,24400.1001,50863.6236,37779.9869,33531.4125,35210.7882,4635.6171,48573.2406,44045.4036,54695.1592,-3642.2163,-3510.2963,22028.1333
51677.6741,24400.0554,50867.781,37772.5661,33516.4815,35210.6541,4638.0758,48562.9141,44038.6087,54692.2982,-3648.4301,-3512.8891,22024.9146
51661.3126,24395.0039,50868.4963,37760.5408,33488.8101,35201.9817,4639.3722,48536.0026,44022.6495,54685.0115,-3659.3825,-3522.7239,22021.1595
51656.127,24387.002,50868.7645,37755.2211,33487.1113,35194.8291,4636.1983,48528.2242,44018.7603,54680.5859,-3662.914,-3524.3332,22023.2606
51669.091,24393.037,50865.5459,37759.7362,33512.8158,35200.4617,4636.9582,48536.2262,44030.6515,54687.1126,-3652.1405,-3513.2021,22027.3286
51677.227,24399.2954,50864.4283,37763.3125,33522.1142,35205.1556,4636.8241,48536.0473,44047.9964,54692.2535,-3643.5127,-3501.3556,22031.2625
51666.8558,24389.7289,50862.819,37762.5972,33507.6749,35199.7465,4632.9796,48520.0882,44035.5241,54687.6043,-3647.6701,-3508.7764,22027.7309
51654.8753,24377.6143,50860.6732,37754.1035,33487.5137,35193.5327,4624.8883,48493.132,44016.704,54679.2001,-3669.0831,-3526.0767,22019.2373
51663.056,24379.4471,50860.6285,37755.3105,33494.1298,35195.5444,4624.8436,48492.2379,44017.3298,54676.7414,-3670.1113,-3525.8979,22021.5619
51688.1347,24389.5948,50864.8753,37766.3076,33516.705,35201.2217,4630.2974,48513.6956,44034.5854,54688.7219,-3652.7663,-3511.3245,22025.317
51699.7576,24401.2177,50869.3904,37775.6953,33526.6739,35207.9272,4636.1089,48529.9677,44051.2598,54696.6791,-3639.6235,-3502.7862,22027.9545
51695.3766,24399.519,50870.9103,37769.0345,33518.2697,35208.9107,4635.0807,48521.1611,44039.4133,54689.9289,-3648.8771,-3510.0728,22025.317
51681.7868,24390.8465,50871.3573,37757.8586,33497.9743,35206.0944,4633.6502,48501.6704,44029.3998,54684.8774,-3660.5448,-3523.3945,22019.9972
51685.8548,24397.6414,50874.1289,37765.1006,33498.2425,35212.8893,4639.4616,48506.3642,44030.562,54687.3361,-3654.331,-3518.2536,22024.5123
51701.6351,24406.448,50878.2864,37772.9237,33515.9898,35212.3082,4644.3343,48525.1397,44046.3424,54697.9308,-3638.7295,-3503.6802,22032.693
51712.1404,24407.7891,50874.9783,37778.5563,33525.1987,35211.9952,4643.3955,48542.887,44063.1509,54700.2107,-3632.6498,-3497.8241,22033.453
51712.1851,24404.2575,50870.508,37776.8576,33522.6059,35214.2751,4641.6074,48538.7743,44058.9041,54697.0814,-3637.2989,-3501.3556,22033.1401
51699.7576,24401.2177,50869.9268,37763.5807,33508.7925,35214.0069,4641.4733,48530.0571,44052.5115,54696.6344,-3649.2795,-3513.6491,22032.3801
51698.4165,24396.4344,50867.8257,37757.6351,33505.8868,35213.4258,4641.7415,48535.0639,44053.7632,54698.4673,-3652.3193,-3515.0796,22031.4413
51713.4368,24394.6016,50865.4118,37763.7148,33518.4932,35213.1128,4642.725,48543.2446,44056.6242,54697.6179,-3646.1502,-3507.48,22033.4977
51720.3212,24388.1643,50867.1999,37769.7051,33525.0646,35216.0633,4640.9369,48547.1785,44058.7699,54696.0086,-3639.8023,-3500.551,22034.9729
51705.4349,24380.2071,50866.127,37769.3474,33519.119,35213.0681,4641.1157,48536.852,44052.9585,54694.0863,-3644.8985,-3505.7813,22031.3966
51676.333,24365.2761,50861.2096,37758.9762,33494.6662,35199.0759,4634.9019,48513.025,44037.5805,54685.5032,-3661.7517,-3526.0767,22023.35
51673.5166,24366.6172,50858.6615,37759.155,33494.845,35195.902,4629.6716,48515.7967,44040.9333,54687.0232,-3659.1589,-3523.9309,22024.557
51688.09,24369.0759,50856.1134,37762.7313,33508.8372,35194.9632,4626.4529,48527.5984,44051.8856,54690.1971,-3648.6536,-3513.7385,22025.5405
51694.3485,24364.5608,50854.1465,37764.6089,33515.811,35192.8622,4626.8106,48535.5109,44051.8856,54690.3312,-3641.367,-3508.7764,22024.1547
51690.1016,24360.4034,50849.2291,37761.4349,33503.1599,35193.3986,4620.6862,48525.0056,44041.1568,54687.8278,-3648.3854,-3518.79,22019.1926
51675.7965,24358.1235,50846.1893,37752.9413,33479.2882,35190.9399,4617.0652,48514.2767,44033.3337,54682.1058,-3661.7965,-3533.0951,22016.1974
51672.9802,24352.0886,50842.3448,37749.0968,33472.3592,35189.0624,4613.8018,48513.9638,44035.0771,54678.7083,-3665.5962,-3532.2458,22013.7388
51688.7605,24360.0905,50843.0153,37760.9879,33496.4544,35195.8573,4618.3616,48530.4147,44046.8788,54687.8278,-3648.8324,-3516.7783,22022.0983
51699.5341,24374.6638,50847.7092,37772.2532,33512.2794,35204.5745,4622.519,48548.6984,44057.7418,54696.9026,-3632.918,-3508.6423,22029.6979
51688.4923,24379.76,50845.9657,37770.4203,33505.8421,35201.2217,4622.6978,48544.6751,44057.0265,54693.6393,-3637.5672,-3514.6773,22026.7475
51676.7353,24370.9534,50845.4293,37764.6983,33487.7819,35195.455,4620.4627,48529.5653,44047.8176,54690.3312,-3650.1288,-3524.3779,22022.0089
51677.7635,24361.5657,50839.9755,37766.1288,33477.1872,35198.316,4614.8747,48517.3613,44046.1636,54683.581,-3662.6011,-3530.4129,22016.7786
51689.2076,24365.7678,50834.3875,37771.1356,33494.1745,35197.6007,4609.0633,48536.9861,44043.7049,54679.6918,-3665.1939,-3527.1496,22014.0517
51686.883,24365.9019,50824.9998,37772.0743,33508.9713,35197.109,4606.3811,48544.8986,44053.182,54678.8871,-3658.3543,-3518.8794,22014.3646
51673.1143,24354.0108,50819.0542,37759.4233,33495.5156,35196.1255,4602.9389,48543.0211,44043.9284,54675.6238,-3668.3232,-3526.479,22008.6873
51653.4448,24343.9078,50813.064,37742.6594,33470.0346,35193.3986,4596.3675,48530.5935,44032.6184,54668.0689,-3679.0073,-3540.8735,22003.3228
51648.7509,24339.661,50810.5606,37745.1181,33475.1308,35194.5609,4594.8923,48522.0999,44031.769,54668.963,-3679.6331,-3541.6782,22004.8428
51661.6255,24340.0633,50809.6665,37756.3834,33494.3086,35194.4715,4595.4734,48540.7859,44038.2957,54667.6219,-3666.1774,-3532.6928,22004.6639
51661.5361,24329.6027,50806.5373,37756.0258,33494.9344,35191.7893,4589.8408,48550.8442,44041.1121,54667.4877,-3665.9092,-3528.6248,22001.6241
51662.4302,24324.5512,50807.8784,37751.779,33483.4009,35185.7543,4590.6454,48542.9764,44036.4182,54665.789,-3675.4757,-3540.1583,22000.73
51642.8947,24314.0459,50802.8716,37733.3611,33454.3437,35167.7388,4584.3422,48524.3797,44022.9625,54659.4411,-3695.9499,-3555.7598,21993.1304
51635.0716,24308.6815,50803.6315,37730.5895,33453.6731,35165.9507,4583.4929,48521.3846,44021.8896,54657.34,-3693.0442,-3556.3409,21993.1304
51652.9083,24316.9516,50804.7938,37738.7255,33482.4175,35169.6163,4586.1304,48541.0541,44036.3288,54662.3021,-3677.3086,-3543.6898,21996.3938
51664.5312,24318.7398,50801.754,37735.5516,33491.2688,35169.6163,4584.8787,48547.7149,44041.5591,54666.2807,-3673.8217,-3540.2477,21996.7067
51651.2543,24307.1616,50799.1612,37728.2649,33479.1541,35164.386,4579.0672,48531.0405,44029.9362,54660.8716,-3682.3153,-3548.1155,21989.7777
51629.3943,24299.7408,50794.2885,37715.7032,33455.3719,35153.4337,4576.2062,48509.0464,44015.1393,54651.7074,-3698.3192,-3559.6043,21985.5756
51618.889,24292.9012,50790.444,37709.8024,33448.6663,35147.4881,4574.5969,48503.4585,44005.4387,54647.55,-3703.3707,-3565.1028,21983.2063
51630.8695,24292.767,50789.6394,37709.2659,33466.2795,35146.0576,4572.317,48518.9706,44012.4124,54653.2273,-3694.3853,-3559.0231,21981.9993
51638.8267,24292.4988,50786.1972,37706.4049,33472.8956,35143.5542,4569.903,48528.2689,44020.1908,54660.961,-3689.5573,-3552.8541,21985.665
51632.8365,24292.2753,50782.4868,37711.4564,33462.9714,35144.5824,4572.2276,48524.8268,44021.6213,54662.928,-3692.1501,-3552.5858,21986.9167
51620.543,24293.527,50784.0961,37706.9861,33451.885,35143.8224,4575.938,48503.7267,44011.0713,54657.7424,-3703.9965,-3562.9123,21986.1567
51617.682,24289.2355,50783.0679,37697.0619,33450.4545,35138.1004,4573.2111,48501.9833,44007.3609,54650.3663,-3708.3328,-3566.3545,21982.2228
51633.1494,24297.8632,50789.237,37709.0871,33472.8956,35147.9352,4580.1401,48531.13,44026.6281,54662.8833,-3691.1219,-3552.9882,21989.3754
51639.1397,24305.1499,50793.4839,37715.2115,33485.4126,35153.4337,4582.1965,48536.9414,44043.5708,54674.3274,-3683.3882,-3543.9581,21995.1868
51635.1163,24304.6135,50793.0815,37710.16,33473.6556,35154.5066,4583.5823,48536.092,44036.6864,54668.4712,-3685.5787,-3549.546,21997.3773
51622.7335,24301.5289,50793.8415,37715.6138,33461.3621,35154.7301,4586.4433,48523.7539,44025.7341,54665.2973,-3693.1336,-3557.8609,21996.9749
51624.8792,24295.8963,50794.065,37713.6916,33461.6303,35156.2947,4590.109,48520.714,44034.4065,54665.6996,-3694.877,-3559.3808,21998.9866
51637.7985,24303.8088,50794.1544,37718.9666,33482.6857,35162.0615,4594.7134,48536.9861,44044.1519,54672.8522,-3678.8285,-3543.5557,22004.5298
51641.4195,24302.2889,50792.5451,37724.0628,33489.0783,35163.3132,4592.1654,48540.8753,44042.9449,54670.4382,-3674.5816,-3537.342,22004.1722
51626.8909,24298.1762,50792.0533,37715.7927,33476.606,35160.8098,4588.4103,48537.612,44034.4065,54666.0572,-3687.1433,-3546.4615,21998.7631
51612.2282,24295.5387,50790.8463,37705.6003,33451.9744,35160.6309,4580.2742,48516.5119,44016.2122,54655.6413,-3696.3969,-3558.442,21991.6105
51617.1902,24291.113,50788.4324,37707.3437,33448.2193,35162.0615,4577.3238,48510.4769,44017.6874,54657.2059,-3695.9499,-3554.6869,21992.3705
51630.9142,24287.3579,50783.0232,37712.9316,33466.3242,35160.4521,4579.6484,48527.5984,44029.7574,54663.0174,-3684.9976,-3544.6286,21992.6834
51634.3564,24280.0713,50780.3857,37723.0346,33473.4768,35162.5532,4578.799,48536.0473,44035.2112,54662.3915,-3673.6429,-3542.7958,21993.2646
51625.1922,24277.8808,50777.48,37710.4282,33454.6566,35154.4619,4576.4297,48518.6577,44027.6116,54660.6928,-3680.706,-3552.8541,21985.3073
51606.5061,24268.6272,50775.1554,37690.9822,33429.4438,35144.3142,4569.8136,48505.4702,44014.1112,54654.9708,-3705.4271,-3572.0319,21978.8253
51610.44,24265.5426,50773.9931,37702.7392,33439.7256,35152.8525,4571.87,48502.9221,44013.0383,54651.5286,-3700.5544,-3566.3992,21980.9711
51628.2767,24269.9236,50773.8143,37709.2659,33461.6303,35155.8477,4571.1994,48513.5615,44022.5154,54653.4061,-3684.9529,-3547.9367,21987.0061
51631.5401,24272.1587,50771.3109,37709.8918,33470.8393,35148.114,4567.6231,48528.8054,44020.7273,54652.6015,-3682.3153,-3550.753,21985.4414
51624.7451,24277.1655,50774.4849,37708.6848,33460.1551,35147.1752,4565.6115,48527.1066,44010.4902,54650.1875,-3692.3736,-3561.1689,21983.8321
51608.5178,24275.6456,50774.7531,37707.2096,33442.8102,35149.4998,4567.9808,48505.8278,43997.7944,54646.0301,-3700.4203,-3564.7005,21983.5639
51605.2991,24270.2365,50775.066,37702.7839,33436.8199,35154.0148,4567.802,48502.6538,44006.601,54644.6443,-3700.5544,-3557.3691,21987.2296
51620.9453,24271.1753,50777.8376,37706.6731,33458.6799,35159.0216,4572.6746,48528.7607,44019.6544,54652.6015,-3680.3931,-3542.7064,21990.0906
51638.6926,24278.149,50779.2234,37711.0094,33470.2134,35164.2519,4575.9827,48543.334,44028.9974,54657.8318,-3672.6594,-3536.9396,21992.9516
51632.6576,24281.8594,50783.6491,37706.5837,33457.4729,35160.8545,4579.6931,48530.37,44021.2637,54660.8269,-3680.0355,-3547.7579,21992.147
51622.7335,24280.2948,50784.4985,37699.0736,33439.368,35161.4356,4582.1518,48513.2486,44016.0781,54663.4644,-3690.0043,-3551.3341,21992.147
51623.0464,24276.1374,50780.0728,37690.4458,33438.2504,35157.3229,4576.3403,48515.5284,44020.5932,54662.3915,-3695.6817,-3550.3954,21991.2082
51626.8909,24271.8011,50773.1438,37686.1542,33454.8354,35152.5843,4566.282,48525.8549,44022.9177,54658.6365,-3693.3571,-3550.6189,21984.5921
51639.1844,24278.8643,50771.8474,37693.0833,33471.9121,35150.8409,4567.0867,48536.9414,44027.7904,54657.4295,-3688.6185,-3549.7695,21985.0838
51637.575,24286.4192,50774.3508,37698.2242,33458.5905,35149.2763,4575.5357,48533.5886,44033.0207,54660.6481,-3691.2113,-3550.6189,21985.352
51614.3292,24281.6359,50774.4402,37685.8413,33427.2087,35144.8506,4571.0653,48511.1475,44025.6,54654.8367,-3708.4222,-3563.5829,21980.7476
51617.7714,24293.3482,50782.308,37695.3632,33441.9608,35155.7583,4579.6931,48517.853,44025.9129,54659.5305,-3700.8226,-3556.9221,21987.2743
51641.1066,24309.2626,50788.4771,37706.7178,33469.4088,35166.1295,4586.5327,48552.9453,44048.4881,54672.3157,-3683.4329,-3540.1583,21995.7232
51651.299,24308.0556,50791.0699,37709.1765,33476.6507,35167.3365,4587.6503,48568.4127,44055.0596,54680.8988,-3677.3533,-3532.5587,21998.4055
51643.6994,24308.5474,50793.8415,37705.332,33468.4253,35166.1295,4588.2761,48564.0317,44042.5873,54678.4401,-3686.1151,-3536.1797,21997.0644
51631.8977,24305.0605,50795.272,37695.2738,33453.539,35163.7602,4589.8855,48546.1503,44033.0207,54672.9863,-3697.291,-3544.1369,21999.9254
51636.681,24306.1334,50796.5684,37702.6498,33455.0142,35170.1528,4594.2217,48546.6868,44043.6155,54676.2943,-3689.1103,-3540.1136,22007.3462
51647.0969,24304.3453,50795.2273,37712.0823,33470.7499,35172.8797,4592.9253,48564.2105,44058.8146,54683.8939,-3676.3251,-3529.7871,22009.626
51649.9132,24302.87,50792.8133,37711.367,33477.9471,35168.6329,4589.8408,48565.1046,44058.8146,54682.7763,-3672.9276,-3525.6296,22006.2286
51636.9045,24294.287,50791.7851,37702.6498,33468.9617,35162.1509,4585.5939,48552.677,44044.8672,54673.3886,-3684.774,-3540.65,21998.4055
51624.7451,24292.3647,50790.1758,37694.5585,33451.885,35162.2403,4584.5658,48543.0211,44028.7292,54665.9678,-3698.1851,-3553.4352,21995.5891
51623.4934,24288.4308,50785.4372,37694.5585,33439.5021,35157.6358,4578.352,48542.127,44030.1597,54657.7871,-3703.0131,-3556.6539,21991.5211
51635.5634,24289.2355,50779.7152,37702.8286,33458.1435,35159.0216,4573.7922,48553.2582,44041.6038,54661.1398,-3692.2395,-3553.0776,21988.5707
51635.474,24285.6592,50778.9552,37704.5274,33465.3407,35156.2053,4569.8583,48567.2504,44043.9284,54663.7774,-3694.2512,-3553.9716,21986.2461
51618.9337,24281.6359,50778.9552,37699.9229,33450.678,35152.4949,4566.2373,48563.7635,44035.0771,54665.1185,-3699.4815,-3557.682,21986.7378
51606.2826,24284.4969,50781.9057,37706.8967,33442.1843,35155.7583,4571.2888,48547.6255,44031.322,54659.8881,-3702.8342,-3562.1971,21988.5707
51612.8093,24287.9838,50784.3196,37714.1386,33450.4098,35163.5814,4580.2295,48542.7976,44034.0936,54666.6384,-3699.5262,-3554.2399,21994.4715
51638.1115,24296.9692,50791.0699,37724.4204,33471.8674,35170.7786,4587.0245,48560.7684,44054.389,54679.3342,-3679.0967,-3530.9494,22002.4288
51649.332,24302.7806,50795.719,37732.6459,33478.3494,35170.9127,4586.9797,48573.7324,44063.0615,54683.5363,-3672.6147,-3524.4226,22003.4122
51645.577,24308.3686,50799.8317,37735.0152,33474.3708,35173.4608,4590.7795,48581.9131,44057.0712,54682.4634,-3680.3484,-3534.5256,22003.6805
51632.2106,24305.9099,50802.2904,37722.4088,33454.2096,35172.835,4588.1867,48561.7965,44042.0508,54679.1106,-3692.016,-3549.6354,22000.1936
51635.3846,24306.8933,50805.7326,37718.3855,33452.8685,35175.9642,4587.1139,48563.5847,44042.6767,54677.7695,-3695.2347,-3545.7462,21998.7184
51654.5624,24314.1353,50804.7044,37730.6789,33479.5564,35182.8039,4591.6736,48590.3174,44057.0712,54684.5645,-3679.2755,-3529.8765,22003.7699
51659.1668,24316.3258,50808.2807,37741.1395,33497.1696,35186.2907,4593.1041,48601.5826,44064.4026,54686.6655,-3671.5865,-3527.0154,22004.2169
51654.0259,24323.5677,50810.4265,37729.7401,33484.9656,35181.6863,4596.3675,48594.1619,44063.4638,54687.9619,-3679.2755,-3533.7657,22000.3724
51643.7441,24323.4336,50809.9794,37720.4865,33466.2348,35181.1051,4597.2615,48583.1648,44053.9867,54682.5975,-3695.9499,-3543.2428,21995.8574
51648.7956,24325.3559,50815.0756,37723.5264,33463.3738,35183.832,4602.3577,48582.0025,44062.3462,54691.4488,-3686.294,-3533.8998,22004.7981
51673.159,24338.9904,50821.6918,37737.608,33490.4641,35191.074,4604.5482,48605.5613,44079.7359,54702.2223,-3665.2833,-3515.5714,22017.9856
51691.2639,24342.9691,50821.7365,37749.6332,33510.7595,35197.4219,4607.0069,48618.0335,44091.0012,54706.8268,-3656.3426,-3511.0563,22021.7407
51673.7849,24331.6591,50816.9085,37736.9374,33503.9198,35188.6153,4602.4024,48608.1541,44081.3899,54701.82,-3669.4407,-3524.7356,22017.628
51658.9433,24327.6805,50821.5576,37728.9802,33488.5865,35186.5143,4603.2071,48586.6964,44069.1411,54696.1874,-3679.9014,-3533.8998,22017.1809
51665.6041,24335.6377,50826.2515,37733.2717,33487.7372,35194.6503,4606.5152,48588.5739,44075.6679,54699.3613,-3674.3581,-3526.1214,22019.5949
51683.7984,24341.628,50825.4468,37738.2785,33507.809,35198.763,4610.002,48607.1706,44085.4132,54706.6927,-3662.4223,-3515.7055,22021.4278
51694.4826,24345.8748,50826.028,37745.297,33522.9635,35200.9535,4612.5501,48616.7818,44096.902,54712.9512,-3651.6488,-3509.6258,22025.3617
51692.7838,24348.7805,50828.6655,37746.4592,33514.3358,35200.3723,4615.9476,48610.4339,44099.8524,54713.9794,-3654.3757,-3508.2847,22024.7805
51681.1609,24343.3267,50826.2068,37732.8694,33483.848,35193.9797,4610.8514,48596.6206,44082.9545,54704.9493,-3671.4524,-3522.9474,22019.2373
51675.3048,24342.522,50825.9833,37730.5448,33478.1706,35191.7893,4607.2304,48603.5049,44076.9196,54699.5401,-3674.984,-3527.239,22015.9292
51679.7751,24341.0915,50825.3574,37734.6575,33495.0686,35187.4977,4603.1624,48617.6759,44085.8155,54702.2223,-3669.1725,-3521.3381,22013.6493
51690.9957,24346.143,50827.235,37740.1561,33509.6866,35192.6386,4604.4588,48630.9528,44095.5609,54704.5916,-3665.328,-3516.4654,22012.6659
51684.6031,24344.3549,50826.2068,37735.5069,33493.6827,35194.2033,4606.0681,48625.1414,44094.2198,54701.1942,-3674.0005,-3522.411,22008.1508
51675.7965,24340.2869,50832.3312,37739.4408,33478.7518,35196.349,4612.1925,48612.088,44086.9778,54701.5518,-3680.9295,-3529.8318,22009.939
51680.6692,24341.315,50834.7005,37740.1561,33479.1541,35198.5842,4611.3431,48607.3047,44086.1285,54703.8317,-3677.1744,-3526.2108,22013.8282
51702.261,24343.5502,50830.9454,37749.2309,33501.2823,35203.0993,4607.4986,48628.4047,44097.7961,54706.6033,-3664.1657,-3517.136,22015.7057
51704.2726,24349.0934,50831.3477,37755.4893,33511.2065,35203.3675,4607.7222,48640.8323,44102.0429,54707.2738,-3657.9967,-3512.7997,22015.7504
51692.4262,24355.7096,50832.5994,37754.5953,33500.7459,35200.1488,4607.2751,48634.2609,44100.8359,54702.6694,-3663.5399,-3515.3925,22020.1761
51677.6294,24351.9098,50832.063,37743.2853,33474.1473,35196.5725,4608.8398,48621.4757,44093.9963,54701.2389,-3681.5554,-3526.1661,22017.5833
51679.0152,24351.2392,50834.2534,37743.2853,33475.3543,35197.2878,4610.0467,48635.7361,44090.6882,54704.234,-3681.1978,-3526.032,22017.628
51695.6449,24362.8621,50838.545,37758.9762,33504.501,35203.9933,4616.3052,48655.0927,44108.2567,54710.4478,-3660.1871,-3510.4305,22021.7407
51702.3951,24362.4598,50839.0814,37760.1385,33508.9266,35200.9982,4614.2042,48661.1277,44111.0283,54708.7491,-3661.5282,-3513.2468,22017.7174
51694.9296,24356.6036,50836.7121,37747.9792,33492.3416,35189.9564,4608.6162,48647.6719,44096.5891,54702.0435,-3680.1696,-3527.686,22009.2684
51691.6215,24355.486,50836.0416,37742.3912,33478.3942,35191.521,4604.8164,48624.292,44090.0624,54698.3331,-3693.4912,-3535.6879,22003.7252
51694.3038,24356.9613,50839.752,37749.812,33485.4126,35203.8145,4610.9855,48629.0753,44094.9798,54703.1611,-3682.8965,-3528.8483,22006.9885
51710.1288,24364.2479,50845.7869,37764.1171,33509.1501,35211.1012,4618.4063,48650.3541,44113.8893,54709.9113,-3665.7304,-3508.5976,22014.0517
51713.1239,24365.589,50843.2388,37764.2959,33513.9781,35209.9836,4615.3218,48668.5932,44116.1245,54711.7442,-3665.1045,-3506.4071,22013.8282
51704.9879,24365.142,50845.921,37760.4961,33505.7527,35211.4141,4616.9311,48666.4921,44108.1673,54711.8336,-3670.8713,-3512.3974,22016.0186
51690.951,24356.8271,50847.0386,37749.0073,33484.0715,35203.5463,4612.9078,48637.3454,44091.3141,54706.4692,-3687.5457,-3528.0436,22011.3248
51692.158,24357.8553,50844.1329,37749.4097,33477.9024,35199.8806,4608.0798,48631.6234,44092.9234,54703.1611,-3687.188,-3530.3235,22009.6707
51709.4582,24370.1935,50845.6975,37767.6934,33509.9548,35209.0895,4611.7455,48670.0237,44115.8116,54717.1086,-3668.2338,-3511.7716,22017.5385
51714.0627,24371.624,50842.7918,37773.2813,33523.3212,35213.4258,4612.9972,48681.289,44124.0817,54722.2495,-3665.3727,-3510.9669,22016.8233
51705.7031,24373.0992,50844.267,37773.4601,33510.5807,35205.7815,4614.4277,48666.1792,44113.2188,54720.9978,-3676.7274,-3518.0748,22013.247
51692.1133,24371.9369,50850.3467,37770.5544,33491.0899,35201.8028,4615.9029,48659.6525,44104.144,54719.4332,-3685.3105,-3526.3896,22013.3811
51699.3105,24378.6871,50855.2641,37770.2862,33489.5253,35204.9321,4620.4627,48665.4639,44103.384,54718.9862,-3679.5884,-3526.1214,22013.9623
51716.2979,24391.6065,50860.8967,37783.1161,33517.2862,35214.9904,4628.554,48686.4746,44116.7057,54723.0989,-3663.8081,-3509.1788,22020.8019
51719.293,24386.9126,50860.7626,37788.7934,33526.0928,35215.8397,4631.0574,48694.3424,44125.8699,54723.0095,-3658.4437,-3507.48,22019.4161
51704.8985,24378.866,50858.885,37778.4222,33508.9713,35215.3033,4626.8553,48677.1315,44120.6843,54720.9531,-3667.9655,-3514.722,22013.9176
51690.3251,24367.9136,50858.5721,37771.9402,33492.2522,35213.0234,4622.2955,48663.497,44101.73,54714.6946,-3681.3766,-3526.0767,22010.833
51692.8285,24370.2382,50856.2475,37770.9121,33489.5253,35214.4092,4620.6862,48660.4571,44100.1207,54710.5819,-3677.4427,-3526.032,22014.0964
51704.4067,24364.5608,50850.9278,37774.1754,33503.0258,35211.4141,4616.0817,48671.2754,44114.9622,54712.6383,-3663.7187,-3516.4207,22016.0633
51712.5875,24366.6619,50854.0571,37781.5068,33518.7167,35210.9224,4615.4559,48675.3434,44126.4957,54716.8851,-3655.8509,-3508.8211,22018.2091
51702.261,24370.1488,50854.9064,37778.5563,33509.8207,35202.7863,4612.6395,48667.0285,44123.9029,54713.577,-3663.3164,-3515.2584,22018.5667
51689.9228,24362.4598,50849.095,37766.6205,33486.2173,35192.6386,4607.3198,48643.3357,44109.7766,54705.7092,-3677.6662,-3529.3847,22010.7436
51686.7489,24350.7028,50840.5119,37762.6419,33483.9374,35193.488,4603.2518,48641.8158,44099.0031,54703.9211,-3680.5272,-3530.9494,22008.732
51698.8635,24355.8437,50843.9988,37764.8771,33506.6468,35196.7514,4603.1177,48662.6923,44119.522,54716.6616,-3669.3066,-3519.4606,22013.9176
51700.7411,24362.728,50845.2505,37773.9519,33524.2152,35206.1391,4609.2868,48682.8089,44135.1682,54724.6635,-3658.4884,-3509.8493,22017.4491
51703.3339,24367.0642,50847.7539,37774.8013,33512.5029,35213.8281,4616.4393,48676.461,44130.0273,54724.6188,-3663.0481,-3513.2468,22018.5667
51689.297,24367.7348,50851.2855,37764.1618,33489.8829,35207.3908,4617.1099,48664.0334,44118.9408,54721.1766,-3678.605,-3524.6909,22014.8116
51690.5934,24367.6454,50852.8054,37761.0326,33493.5486,35202.384,4616.7076,48664.4357,44121.8466,54718.4497,-3677.6215,-3523.1262,22015.1246
51706.6866,24371.2664,50853.0289,37772.9684,33517.8673,35204.3957,4616.7076,48683.5688,44135.5705,54722.0707,-3663.1823,-3509.2235,22014.2752
51712.0957,24377.6143,50854.1018,37781.2833,33530.5184,35206.1391,4618.4957,48691.1684,44136.8222,54721.9366,-3655.4933,-3503.1438,22017.1362
51706.5972,24372.6075,50855.7111,37773.9519,33514.6934,35206.0497,4617.4228,48682.5407,44126.4957,54716.6616,-3661.1706,-3512.755,22016.0633
51693.4097,24357.8553,50849.1397,37756.6516,33488.6312,35201.2664,4607.9904,48664.2569,44111.5201,54709.2855,-3678.8285,-3526.7025,22009.2684
51686.9724,24363.5774,50852.403,37763.5807,33493.1016,35206.4073,4612.1925,48674.3599,44115.9904,54709.4196,-3673.2852,-3520.3546,22013.1576
51709.6817,24374.9768,50855.8005,37786.0665,33521.8012,35221.6065,4618.451,48693.8506,44125.6464,54715.6334,-3655.538,-3503.0097,22019.9525
51720.0977,24386.1973,50853.7441,37787.1841,33530.7866,35221.0701,4611.7902,48696.7564,44128.3286,54717.3321,-3653.124,-3506.4071,22017.4044
51715.1803,24386.3761,50860.8073,37781.2833,33517.7779,35219.0137,4611.8796,48681.1548,44127.4345,54719.0309,-3659.5613,-3518.8794,22014.7669
51703.9597,24378.7766,50858.5721,37766.9781,33491.8499,35213.4258,4610.002,48664.1675,44114.5599,54708.7044,-3675.878,-3532.7375,22010.7436
51703.5574,24381.8164,50854.2806,37760.362,33491.1793,35212.6211,4608.5268,48661.53,44113.5317,54706.7821,-3675.1181,-3528.133,22012.5765
51718.3989,24389.5054,50855.5323,37770.3756,33516.7944,35222.0088,4609.5103,48686.4299,44119.6561,54711.6101,-3656.6108,-3510.2963,22019.1926
51734.7157,24392.4111,50861.299,37780.2551,33531.3231,35228.7591,4610.6726,48710.1674,44124.9758,54709.2855,-3650.4418,-3504.0826,22024.5123
51722.1987,24385.8844,50859.5556,37772.7002,33515.1851,35222.9476,4607.2304,48695.0129,44115.1857,54705.2622,-3659.8742,-3514.5432,22023.1265
51699.9364,24371.0428,50855.4429,37758.8868,33486.1279,35217.1361,4603.2071,48663.3629,44098.3325,54698.8696,-3672.8829,-3528.2671,22014.8563
51703.1103,24371.3111,50854.9511,37761.4796,33495.3368,35221.1595,4607.3645,48668.4144,44100.4783,54699.1378,-3671.0948,-3521.4275,22016.421
51717.1919,24371.8475,50853.0289,37775.1142,33526.6292,35227.5521,4616.037,48688.7097,44109.2849,54710.0455,-3650.5312,-3503.7249,22023.5288
51722.8693,24372.5628,50857.7228,37774.8013,33537.2239,35225.451,4620.7309,48703.3725,44113.2188,54712.9512,-3646.0608,-3491.2527,22029.3403
51708.3406,24372.7416,50860.7626,37767.0228,33530.876,35224.0652,4625.6483,48697.6951,44116.3927,54713.2194,-3647.6254,-3492.4597,22036.314
51691.8004,24364.7844,50858.2145,37756.9646,33513.9781,35220.9806,4629.2245,48678.9197,44105.0828,54711.2525,-3659.9189,-3503.6802,22038.1021
51687.2406,24360.0458,50861.9696,37750.4379,33509.4631,35215.9739,4634.589,48668.9508,44102.4899,54714.7393,-3658.8013,-3504.619,22040.5608
51693.4544,24366.9748,50862.3719,37759.8256,33537.4475,35218.4772,4640.311,48687.9051,44106.1556,54719.5226,-3644.0045,-3487.8105,22046.0147
51700.1152,24373.5015,50864.8306,37770.6885,33548.981,35219.9972,4643.2614,48691.4366,44109.7766,54725.7364,-3637.2095,-3483.2507,22047.8475
51687.5535,24372.5181,50862.819,37760.8091,33532.6642,35216.4656,4643.4402,48666.6262,44093.9963,54720.4614,-3650.8441,-3496.2147,22041.7231
51671.8179,24368.6289,50862.1484,37745.5652,33514.2463,35205.3791,4640.9369,48628.0471,44076.4278,54711.0289,-3667.4738,-3510.6093,22036.9846
51669.091,24370.2382,50860.8967,37735.1493,33515.1404,35205.1556,4638.8358,48618.5253,44069.1411,54708.8385,-3669.8431,-3513.4703,22032.1566
51679.8645,24383.1128,50862.4613,37742.883,33537.4027,35209.9389,4639.9981,48633.5456,44078.6183,54712.7277,-3653.124,-3501.1321,22034.7494
51684.9607,24391.6512,50861.7908,37747.1298,33548.7574,35209.2683,4641.6968,48635.8702,44077.456,54714.5605,-3648.7877,-3499.0758,22034.5259
51681.6527,24396.0768,50857.8569,37741.2289,33531.7701,35199.97,4641.7862,48612.4903,44060.3793,54707.3185,-3656.9238,-3511.0563,22027.7756
51673.0696,24396.3897,50858.5721,37732.7353,33517.5097,35198.0925,4639.9087,48583.433,44043.079,54697.3497,-3670.7819,-3519.7735,22020.5784
51671.1473,24396.6132,50855.3982,37728.9355,33515.9451,35201.8923,4639.7299,48574.537,44042.9896,54697.6626,-3672.2124,-3520.1311,22021.7854
51677.1376,24403.5423,50856.9628,37734.5234,33531.2337,35204.7086,4640.8027,48588.8422,44050.1422,54703.787,-3657.4602,-3509.7152,22025.764
51677.1823,24402.3353,50857.9016,37735.6857,33533.8265,35200.8641,4639.9087,48588.5739,44049.2481,54704.9493,-3654.0627,-3507.033,22024.4229
51664.1736,24398.4461,50854.9958,37738.2338,33518.4038,35195.7232,4636.243,48569.7091,44043.0343,54696.1874,-3667.0715,-3519.4159,22021.5619
51648.3486,24398.4461,50857.7228,37736.7139,33505.8868,35196.0361,4638.2099,48545.0327,44036.2394,54689.0348,-3671.5418,-3528.2671,22019.6396
51657.1552,24405.5539,50865.7247,37737.5633,33510.8042,35204.4851,4643.5297,48546.1056,44036.6417,54697.0367,-3667.742,-3521.1146,22025.3617
51675.7965,24403.3635,50865.1435,37744.6711,33533.2006,35207.4802,4644.1555,48558.5779,44047.3258,54703.5635,-3652.7663,-3505.4237,22029.5638
51681.295,24404.8834,50861.4331,37753.2989,33542.4542,35211.1012,4643.932,48566.1328,44048.8011,54706.648,-3641.6352,-3502.1603,22033.3636
51668.4651,24398.6696,50854.4147,37746.4592,33522.3824,35204.4404,4640.0428,48555.7169,44031.0985,54697.4838,-3652.6322,-3514.5879,22028.3121
51647.7674,24394.1545,50851.8666,37738.5914,33493.3698,35196.8855,4637.5841,48530.5488,44020.9955,54682.7763,-3669.1278,-3529.1612,22022.59
51648.3039,24392.1876,50854.817,37741.4972,33492.5652,35201.4005,4640.5345,48520.1776,44026.1364,54686.2632,-3664.8363,-3525.1826,22027.0157
51665.8723,24397.2838,50857.1863,37759.155,33520.5495,35212.3529,4648.447,48541.6353,44042.4532,54693.9969,-3640.607,-3506.7201,22033.8106
51674.6789,24392.3664,50855.5323,37759.6468,33522.8294,35210.3859,4645.4966,48545.0327,44041.1121,54689.7948,-3637.2989,-3503.6802,22031.9331
51661.8043,24387.1361,50850.7937,37748.3815,33505.1715,35203.2334,4636.243,48527.2408,44026.3599,54685.3691,-3646.9549,-3510.6987,22027.5968
51647.6333,24382.9787,50852.1795,37735.8198,33488.8101,35198.3607,4634.9913,48505.8278,44016.4804,54679.4236,-3657.639,-3521.8298,22026.4345
51652.0143,24387.3149,50855.9793,37741.9889,33494.0404,35202.7416,4639.4616,48498.407,44018.1345,54680.8094,-3654.2416,-3518.5218,22027.3733
51666.4535,24386.5997,50858.2145,37750.8849,33514.9169,35209.2683,4643.0379,48514.9026,44025.4658,54688.3643,-3642.5292,-3503.4567,22032.3801
51670.4768,24386.5997,50856.4264,37751.1084,33516.0345,35205.245,4643.3508,48525.0503,44029.9809,54689.9289,-3642.3057,-3500.1487,22033.006
51659.3903,24385.348,50854.0124,37740.9607,33496.4544,35194.6056,4640.4898,48504.2185,44019.7885,54682.4187,-3654.1522,-3507.7035,22026.6581
51652.8189,24381.1011,50853.163,37742.7489,33482.3281,35193.5774,4637.897,48479.1398,44007.2715,54673.0757,-3664.434,-3517.3148,22025.0487
51656.1717,24375.3791,50845.5634,37738.5914,33477.4554,35189.2859,4635.5724,48474.4906,44011.5184,54669.4547,-3669.396,-3523.9756,22022.3218
51670.7003,24382.4869,50847.441,37749.812,33500.433,35193.3986,4634.3654,48490.0028,44032.8419,54675.1767,-3650.3077,-3513.4256,22029.9214
51681.2503,24386.8232,50851.5537,37758.0822,33515.4533,35198.3607,4634.7678,48507.1242,44040.7097,54679.8706,-3642.0375,-3505.6472,22033.9894
51666.5429,24376.3179,50849.542,37745.6099,33495.5603,35195.7232,4629.3139,48490.6733,44030.0703,54676.9649,-3655.6721,-3513.8726,22029.2956
51651.8801,24373.5015,50848.9609,37735.8645,33473.4768,35189.42,4628.0175,48473.1495,44015.9887,54672.9863,-3668.949,-3521.9193,22026.4792
51664.5759,24374.9321,50849.8549,37735.7304,33481.881,35189.1518,4629.1798,48478.201,44018.8944,54677.4566,-3667.8761,-3516.6889,22027.9992
51681.608,24377.659,50848.4691,37741.7654,33502.4893,35202.2052,4632.3091,48501.4468,44036.9993,54684.5198,-3651.157,-3506.8542,22032.8271
51690.9063,24385.5268,50847.6645,37751.466,33513.5758,35208.419,4633.7843,48517.9871,44041.1121,54693.5946,-3645.7032,-3501.8921,22033.5871
51691.9792,24385.9291,50848.335,37748.9179,33504.501,35206.6755,4633.6949,48515.2602,44040.218,54689.1689,-3650.5759,-3509.4917,22030.6814
51677.3164,24384.2304,50850.749,37738.8149,33491.4923,35202.5181,4635.4383,48502.1621,44029.7127,54683.134,-3664.3893,-3522.3663,22028.8932
51679.3281,24381.4141,50851.0172,37739.4855,33494.8897,35206.8543,4637.9417,48510.8793,44035.5688,54688.1855,-3657.3708,-3515.7949,22031.486
51693.2756,24383.6492,50853.163,37749.1415,33514.2463,35212.8446,4643.172,48528.9395,44048.667,54699.9872,-3638.6847,-3503.7696,22035.6435
51698.2824,24379.313,50851.956,37756.2493,33522.6059,35209.1789,4641.8309,48533.4992,44052.1538,54703.3399,-3633.5438,-3501.4451,22035.7776
51693.2756,24379.8941,50857.1863,37759.1997,33523.7235,35199.97,4643.3061,48522.5469,44047.0576,54700.4789,-3635.8237,-3500.2828,22037.7445
51673.5613,24371.1323,50858.6615,37747.3086,33504.1434,35198.9418,4641.5627,48497.6023,44034.4959,54692.9687,-3649.4583,-3511.4586,22034.2577
51682.7703,24372.2945,50861.3437,37746.2357,33501.5059,35203.591,4640.4898,48492.3273,44031.322,54689.2583,-3651.9617,-3507.2565,22036.3587
51701.8586,24390.3995,50864.5624,37757.2775,33522.4271,35211.5035,4640.1322,48519.82,44048.0411,54696.4109,-3640.8305,-3494.1137,22041.4549
51710.3523,24397.2391,50863.4448,37758.261,33536.8216,35211.28,4641.2945,48541.4565,44054.3443,54702.9376,-3636.7178,-3493.5325,22039.5327
51694.7508,24394.2887,50860.4497,37752.986,33524.394,35206.8543,4638.344,48543.4681,44045.5824,54699.3613,-3647.849,-3506.4518,22037.2528
51678.0317,24391.9194,50858.8403,37749.5885,33505.9315,35201.4899,4636.9135,48519.3729,44043.1237,54694.4439,-3659.4719,-3516.3313,22032.9612
51679.641,24395.0039,50857.4098,37751.1531,33499.3154,35201.2664,4635.8854,48519.5071,44041.7826,54688.409,-3663.2717,-3515.0349,22029.6979
51701.948,24399.519,50858.3933,37756.0258,33524.4387,35206.2732,4635.2148,48540.4283,44048.7117,54693.1028,-3653.8839,-3502.6073,22032.4248
51711.0229,24397.1944,50861.2096,37760.8985,33537.5816,35211.0565,4635.1254,48552.677,44054.5231,54696.7685,-3642.8422,-3494.1137,22034.9729
51697.5224,24395.3168,50857.4098,37758.6633,33523.1423,35208.106,4630.6551,48541.8588,44042.9449,54688.8113,-3647.4913,-3506.1389,22030.3684
51682.4573,24388.7901,50850.9278,37745.0734,33490.777,35197.7795,4625.6483,48514.4109,44024.7506,54675.7132,-3669.3513,-3525.272,22022.6347
51688.0006,24389.0584,50850.1232,37745.3864,33493.2357,35200.4617,4620.3732,48516.1543,44028.8633,54674.7297,-3671.2289,-3523.9309,22017.4938
51704.9432,24395.4509,50853.3418,37755.847,33514.2463,35205.5579,4621.8932,48539.5342,44043.3025,54679.8706,-3659.8295,-3513.2915,22019.5502
51710.3523,24394.3334,50853.2524,37760.4067,33518.4932,35205.7815,4619.4345,48545.6586,44051.9303,54684.8327,-3653.7051,-3511.1904,22021.9642
51693.812,24391.9641,50850.5255,37749.6779,33500.9694,35203.2781,4615.8135,48539.3554,44040.7097,54677.6354,-3661.707,-3518.4324,22017.5385
51676.333,24383.2022,50849.5867,37745.6546,33485.7702,35200.1488,4618.6745,48532.3817,44034.0936,54672.9416,-3673.6876,-3530.1894,22014.6328
51685.0501,24381.5929,50848.2903,37744.4923,33488.1395,35199.1206,4616.2605,48530.9064,44035.2112,54673.3439,-3674.5816,-3531.8434,22013.247
51697.5224,24386.9126,50849.8996,37752.0025,33507.7643,35201.0429,4616.1264,48546.0162,44046.3424,54678.1719,-3664.8363,-3520.1758,22014.3646
51706.8207,24390.8465,50851.5537,37757.7692,33516.9286,35199.1653,4616.9758,48564.7917,44056.8477,54681.4799,-3659.7401,-3517.4936,22012.6212
51696.4942,24392.9476,50858.3486,37757.1434,33512.5923,35197.4219,4625.2012,48563.1377,44051.3939,54682.4634,-3663.7187,-3523.618,22015.0352
51693.9461,24387.9855,50859.2427,37750.7508,33498.0637,35196.6619,4632.7114,48546.1503,44044.9566,54681.4799,-3670.2007,-3524.9591,22020.4443
51698.4612,24389.0136,50857.5886,37742.883,33502.534,35198.0031,4630.968,48539.8918,44047.9517,54685.9056,-3675.5204,-3521.3828,22022.4559
51704.8985,24392.3664,50853.5206,37742.8383,33522.6506,35195.5444,4628.2858,48554.2417,44066.2354,54694.6675,-3664.7469,-3512.308,22023.8417
51713.258,24392.7687,50849.6761,37751.6001,33524.7517,35195.0526,4629.3586,48568.815,44074.1032,54700.2554,-3652.5875,-3505.6919,22027.3286
51698.7294,24383.2022,50850.9725,37746.0122,33509.016,35185.9331,4627.7046,48553.0347,44064.3132,54695.5168,-3662.8693,-3516.6442,22023.0818
51680.088,24371.3558,50851.9113,37731.2601,33481.7022,35178.0653,4624.1283,48530.37,44054.6572,54690.3759,-3679.7225,-3525.5402,22021.2936
51682.8597,24367.0195,50851.956,37723.8393,33480.0929,35175.1149,4623.0555,48532.024,44051.8856,54692.1641,-3679.2755,-3524.6909,22022.2771
51704.9879,24379.313,50857.991,37744.5817,33513.6652,35184.1897,4632.8902,48558.2203,44071.5551,54705.441,-3662.6011,-3505.7366,22032.0672
51712.811,24387.6278,50861.9696,37759.2444,33531.9936,35196.9749,4636.4218,48580.0803,44080.9429,54710.1349,-3651.6935,-3495.276,22035.4199
51706.4184,24391.07,50861.7908,37752.9413,33520.4601,35195.6338,4640.6686,48574.7159,44077.2325,54706.5139,-3655.225,-3503.5461,22033.9447
51694.0355,24384.141,50859.0192,37741.2736,33502.087,35190.5376,4638.7464,48550.4866,44064.1344,54701.1048,-3670.603,-3517.7171,22027.8203
51688.8052,24376.8543,50852.1795,37743.777,33508.3455,35190.627,4634.0972,48545.6586,44059.3511,54699.6742,-3671.8994,-3515.9737,22021.7854
51695.9578,24379.0448,50848.6927,37751.779,33530.6972,35194.6503,4632.3985,48565.9987,44069.2753,54700.0319,-3661.4835,-3507.4353,22019.1926
51699.1764,24377.346,50847.888,37755.7129,33531.9042,35190.8058,4629.1798,48578.0686,44070.8846,54699.4507,-3659.9189,-3504.4849,22014.9457
51684.916,24379.9835,50850.3914,37750.4379,33517.8226,35191.9681,4630.4315,48560.4554,44065.0731,54700.2107,-3668.2338,-3508.687,22015.7504
51673.5613,24380.4753,50852.0901,37739.7984,33496.6332,35188.9729,4629.6716,48546.5974,44050.4998,54690.063,-3679.5884,-3526.1661,22012.8447
51674.813,24380.073,50846.8151,37738.055,33489.7935,35183.0274,4624.0389,48542.4399,44042.0955,54687.6043,-3678.605,-3530.4129,22008.8214
51685.4078,24383.7833,50846.1446,37749.9014,33508.569,35187.7213,4624.2625,48554.4205,44048.0858,54694.3992,-3665.7751,-3518.8794,22013.5152
51694.259,24388.7901,50847.8433,37751.3319,33521.3095,35191.6105,4626.2741,48563.9423,44061.7204,54694.7569,-3659.4719,-3514.7667,22017.7621
51687.7323,24385.1244,50851.2408,37744.6711,33514.5593,35196.1255,4626.9447,48563.0035,44060.6028,54691.9405,-3667.2503,-3516.7783,22016.6445
51670.0745,24385.8844,50857.0969,37737.8315,33497.7955,35193.7115,4629.9845,48557.4156,44057.7418,54691.3147,-3675.0734,-3522.5898,22017.8068
51669.1804,24382.0846,50856.024,37744.984,33500.2542,35196.0808,4632.1303,48553.6158,44055.5513,54693.4158,-3670.4689,-3519.4606,22019.1032
51693.9908,24389.0136,50859.0192,37767.6487,33524.6623,35207.0332,4638.1205,48577.3981,44067.7553,54698.3331,-3653.571,-3506.0495,22026.2557
51702.9762,24393.484,50862.4166,37771.8061,33535.0335,35209.4471,4640.6239,48585.1318,44080.4958,54699.6742,-3647.8937,-3499.5675,22031.5307
51693.9908,24390.623,50860.9861,37760.8091,33518.4038,35206.6308,4633.6055,48566.7586,44072.9409,54694.2204,-3659.1142,-3510.2963,22022.9924
51676.8247,24382.4422,50856.4264,37751.466,33495.0238,35198.3607,4631.3703,48545.2563,44054.6572,54684.2068,-3677.1297,-3525.8085,22014.0517
51680.3116,24386.1973,50857.4098,37755.1764,33496.9908,35198.4054,4634.4548,48557.9967,44052.1985,54685.2797,-3670.4689,-3522.6345,22017.628
51694.3485,24393.0817,50857.991,37763.3125,33511.6088,35202.8757,4634.5443,48578.7392,44066.8166,54695.2933,-3657.5943,-3509.894,22023.4394
51701.8586,24397.2838,50859.3321,37770.1521,33523.8576,35206.3626,4636.8688,48581.8237,44076.2043,54698.5567,-3648.3407,-3503.0544,22026.7028
51696.8071,24392.1876,50858.3933,37772.7896,33519.0743,35205.1556,4637.3606,48567.2951,44063.3744,54697.3497,-3653.0793,-3503.2779,22024.8699
51683.4408,24379.2236,50858.3039,37760.2726,33498.2872,35196.6172,4632.9349,48542.127,44059.7087,54693.5499,-3662.2882,-3516.1972,22022.6347
51683.4408,24378.1954,50855.6217,37757.5904,33499.1813,35198.8524,4629.8057,48549.3243,44065.2519,54691.3147,-3663.7187,-3516.0184,22019.9525
51701.9928,24384.3198,50853.7441,37767.4699,33517.4203,35204.5745,4625.7377,48563.3165,44074.3715,54699.1825,-3652.5875,-3503.2779,22020.8466
51712.8557,24387.449,50857.4992,37772.7896,33530.0267,35203.9486,4626.1847,48575.4758,44080.1829,54701.82,-3647.7149,-3496.5277,22023.9758
51701.6351,24380.0282,50855.8005,37754.9529,33521.8906,35194.4268,4626.2741,48565.9093,44074.8632,54700.9259,-3660.6789,-3511.6374,22022.0089
51690.5487,24371.8922,50858.1698,37743.8664,33504.948,35191.6999,4626.8106,48552.4982,44063.732,54698.0202,-3677.9344,-3524.065,22017.0915
51696.3601,24371.9816,50857.0969,37747.0851,33505.5739,35196.2149,4629.2692,48549.6819,44069.7223,54699.6742,-3674.4475,-3519.237,22019.6396
51712.811,24376.9437,50858.6168,37753.2542,33519.6108,35197.2431,4627.9281,48566.7139,44079.0653,54704.5022,-3660.053,-3505.7366,22021.2042
51721.26,24381.6376,50859.1533,37762.8654,33526.4057,35194.2033,4626.4082,48582.0025,44083.6698,54708.6149,-3655.225,-3504.7084,22023.4841
51709.2347,24376.0496,50854.5041,37751.2872,33508.7478,35187.9448,4622.519,48567.1163,44075.0867,54703.6976,-3668.1443,-3514.5879,22020.3996
51691.4874,24370.5958,50854.9958,37740.6925,33489.3465,35184.145,4622.8766,48552.1853,44061.4522,54695.1592,-3680.4378,-3526.3896,22014.4987
51690.8169,24369.657,50853.2524,37743.1065,33495.2474,35184.9049,4625.1565,48559.6955,44065.0731,54699.1378,-3677.5321,-3521.0699,22018.2091
51705.7478,24377.7484,50855.9346,37756.0258,33516.8839,35194.1139,4628.1517,48577.3534,44085.5026,54708.7938,-3656.0297,-3504.9319,22026.9263
51716.432,24380.7435,50860.3156,37765.1006,33535.257,35201.1323,4631.3703,48592.3737,44098.6007,54718.8967,-3643.8257,-3495.0525,22034.7494
51706.9995,24370.4617,50859.3321,37759.8256,33521.3095,35198.316,4631.8173,48583.7907,44090.867,54717.4662,-3653.3475,-3504.0379,22031.6201
51694.572,24367.2431,50862.3272,37755.4446,33504.054,35198.5842,4631.2362,48563.54,44084.1615,54713.3088,-3665.9986,-3517.136,22026.3898
51694.6614,24368.1371,50861.5226,37758.3057,33506.5126,35200.7747,4629.8057,48570.9161,44091.7164,54717.5556,-3662.4223,-3514.4091,22026.7922
51702.8421,24372.6522,50859.7344,37765.0112,33528.8644,35206.3626,4629.3139,48593.7148,44096.9914,54718.1815,-3651.6488,-3502.8309,22025.0934
51710.4417,24383.9622,50866.3505,37775.0695,33547.3716,35207.7037,4636.3771,48606.7235,44099.8077,54720.0143,-3645.1668,-3496.3489,22029.2509
51698.8188,24378.7318,50864.4283,37767.8275,33531.8148,35198.0478,4630.8786,48589.2892,44090.5094,54711.8336,-3659.1589,-3509.1341,22023.1265
51682.4126,24374.3062,50863.8024,37752.0025,33506.915,35192.9516,4624.486,48569.1726,44075.8467,54704.8151,-3672.9723,-3522.5004,22019.2373
51689.8781,24376.4967,50868.0493,37759.6468,33511.8771,35204.3062,4630.3868,48585.4,44080.2723,54704.5469,-3665.7304,-3515.5267,22025.8981
51711.8275,24386.6444,50866.9764,37771.8955,33528.5962,35211.4588,4632.9796,48617.2736,44090.5541,54712.1912,-3650.3077,-3503.0544,22031.4413
51711.2464,24384.9903,50863.3554,37774.1307,33534.3629,35212.2188,4631.1915,48620.224,44090.867,54715.9016,-3647.089,-3498.9864,22030.6814
51702.6186,24383.9175,50863.1319,37774.086,33528.2385,35213.0234,4636.2877,48606.813,44089.8836,54717.7792,-3650.9335,-3500.7745,22035.107
51690.9957,24378.7766,50862.4166,37762.2396,33508.122,35209.626,4634.8572,48589.8703,44083.8486,54710.3137,-3667.6079,-3509.6705,22033.6318
51691.2639,24370.864,50860.3156,37758.0822,33506.7362,35205.9603,4629.6716,48592.4631,44085.592,54707.4974,-3666.7585,-3511.8163,22030.8155
51709.1006,24376.139,50861.7461,37769.1239,33526.3163,35211.3694,4633.6055,48621.0287,44101.8194,54718.1368,-3650.7994,-3500.2381,22036.5375
51714.7779,24386.1526,50863.3107,37778.0646,33537.4922,35218.3431,4638.2546,48634.7526,44111.8777,54719.8355,-3640.9199,-3489.8669,22038.9515
51701.1881,24378.0166,50859.8685,37774.846,33520.5048,35208.0613,4635.5724,48613.6079,44097.7514,54708.8385,-3651.4699,-3503.2779,22032.0672
51679.9539,24364.0244,50855.3535,37759.1997,33497.4825,35196.7514,4630.1186,48589.9597,44075.042,54699.719,-3669.2172,-3518.79,22024.557
51675.9306,24356.6036,50852.0007,37755.6235,33504.1881,35196.5725,4621.9826,48586.607,44073.6562,54698.4226,-3673.5982,-3520.0417,22019.8631
51688.09,24359.7329,50849.0056,37764.7877,33523.3659,35199.4783,4615.7688,48603.7731,44078.0371,54701.7306,-3665.4174,-3514.0961,22019.1032
51694.259,24353.9661,50845.5634,37764.8324,33518.8061,35197.0196,4611.209,48612.8032,44089.8836,54703.6976,-3660.6789,-3513.5597,22016.0633
51679.8198,24351.6862,50841.5401,37755.5788,33500.7459,35190.4035,4607.4092,48607.1706,44083.3569,54695.0698,-3672.9276,-3524.9144,22008.5531
51667.5711,24346.5453,50840.7354,37746.1463,33479.5117,35191.2528,4608.4821,48587.9034,44071.4657,54689.1689,-3687.6351,-3534.928,22007.6591
51678.3893,24346.6794,50840.8695,37753.2542,33491.2241,35193.5327,4608.4821,48593.8489,44073.6562,54690.51,-3686.294,-3531.3517,22009.8943
51695.8237,24351.9992,50845.6528,37768.6322,33515.0063,35199.6124,4608.795,48615.0831,44085.1003,54697.752,-3667.6526,-3515.7949,22015.214
51701.8139,24359.6882,50844.3564,37768.0063,33524.6176,35199.0759,4612.7737,48622.4145,44093.9516,54701.7753,-3661.6623,-3508.5082,22019.5055
51696.1813,24360.0905,50846.5916,37762.1055,33511.2959,35194.1139,4617.8699,48616.9606,44090.3306,54697.8861,-3667.295,-3511.9504,22018.522
51682.4126,24356.8271,50850.4808,37759.155,33497.1249,35194.3374,4621.4014,48602.4767,44082.6863,54690.8677,-3673.3747,-3517.7618,22018.2538
51685.1842,24357.4083,50852.5819,37763.0442,33503.9645,35201.3111,4621.5802,48606.6788,44083.2227,54694.5781,-3668.5467,-3513.4703,22019.1032
51704.9879,24358.6153,50850.7043,37770.2415,33519.2978,35205.8262,4619.8368,48619.8664,44096.0974,54700.8365,-3656.0297,-3504.4849,22023.1712
51712.9451,24362.6386,50847.3068,37773.7284,33528.8644,35207.9272,4620.2838,48637.569,44101.9982,54705.3516,-3644.7644,-3496.1253,22025.8981
51703.1997,24364.5608,50847.5751,37769.1686,33520.3707,35206.005,4620.0156,48632.2939,44099.0031,54706.2904,-3651.2017,-3500.5957,22022.3665
51689.0287,24358.1682,50846.0999,37757.2775,33496.365,35196.8855,4616.3499,48611.4621,44086.3967,54700.166,-3670.7819,-3517.8959,22017.0915
51694.7955,24358.8388,50847.4857,37752.0025,33503.2046,35198.5395,4616.2158,48612.0433,44086.0838,54701.5965,-3674.8946,-3517.8065,22016.868
51713.1686,24361.2081,50847.3963,37762.6419,33525.3775,35205.8262,4619.8368,48636.1831,44098.6902,54707.408,-3657.2367,-3506.8989,22022.7689
51718.1754,24365.9019,50849.2291,37768.5875,33532.7983,35206.9438,4619.7474,48651.0694,44107.3626,54712.2359,-3651.2911,-3504.0379,22027.9992
51705.3455,24367.7348,50849.5867,37762.4184,33515.7216,35200.1935,4621.7144,48638.1501,44101.9982,54711.2525,-3661.9306,-3511.861,22025.6746
51692.7391,24360.4928,50850.1232,37751.1084,33497.259,35194.9632,4619.6133,48622.0121,44093.1916,54705.1728,-3676.6827,-3523.1709,22020.936
51697.2989,24355.3966,50851.4643,37749.2756,33496.5438,35196.2149,4617.5569,48627.6895,44098.1537,54704.3234,-3677.5768,-3519.6841,22021.9642
51711.3805,24360.4034,50848.1562,37759.1997,33521.3542,35206.0497,4615.0982,48648.9683,44099.8524,54705.5304,-3663.3164,-3506.8095,22026.9263
51715.2697,24365.0079,50843.9094,37771.4932,33528.1938,35206.899,4611.2984,48658.2667,44101.73,54703.2505,-3656.1191,-3503.6802,22027.6862
51701.6351,24357.453,50839.439,37763.536,33511.1171,35198.5842,4608.5268,48638.8654,44097.7961,54699.3166,-3664.1657,-3513.6491,22022.2324
51675.4389,24345.8748,50834.8793,37745.6099,33486.6643,35186.559,4606.8728,48612.2668,44083.3569,54691.4935,-3678.0685,-3529.8318,22012.7553
51670.5215,24339.2587,50831.6159,37738.6361,33482.7304,35181.6416,4601.5084,48609.3611,44072.8515,54684.2515,-3685.6234,-3533.0057,22006.8991
51685.0948,24335.2801,50829.5149,37751.019,33504.0987,35184.1897,4599.7202,48629.3882,44083.1333,54685.5032,-3672.3912,-3523.2604,22008.732
51696.6283,24345.0254,50834.2981,37758.1269,33522.4271,35193.6668,4602.4919,48645.3921,44094.5327,54687.3808,-3663.2717,-3517.136,22013.1576
51694.8402,24347.1265,50839.3049,37752.1366,33519.119,35197.0196,4606.7387,48635.5573,44093.6834,54685.2797,-3667.0715,-3520.757,22013.5599
51679.5963,24340.2869,50841.3613,37748.1133,33500.8353,35200.0147,4610.6279,48615.9772,44091.18,54683.9386,-3675.7439,-3527.9542,22013.5599
51686.5253,24346.59,50845.6081,37757.054,33495.9626,35203.9486,4614.2042,48621.6992,44094.9798,54686.1291,-3671.6312,-3521.5616,22017.5833
51703.5127,24358.3918,50848.6927,37767.4252,33518.3144,35207.659,4616.7076,48646.4649,44110.4919,54692.6558,-3655.1356,-3505.4684,22018.6561
51709.0112,24361.2081,50848.7821,37774.8013,33535.8381,35210.9671,4620.9097,48653.1705,44120.5502,54695.338,-3648.743,-3503.2332,22021.7407
51700.1152,24362.4151,50850.3467,37769.4368,33525.1093,35209.4024,4624.0836,48643.6486,44116.9292,54699.6742,-3652.4087,-3507.3459,22023.5288
51684.8713,24361.6551,50855.8899,37765.9053,33504.8586,35210.833,4626.1847,48630.0141,44105.8427,54697.8861,-3659.606,-3514.1855,22025.8981
51683.9772,24357.0954,50856.3817,37763.6254,33499.9412,35206.9438,4623.9942,48638.7759,44106.6027,54696.0533,-3661.5729,-3515.1243,22024.557
51708.2512,24365.2314,50855.6664,37775.74,33523.9917,35210.4306,4624.2625,48661.8876,44119.9243,54702.9376,-3649.5477,-3502.0262,22026.7475
51705.4349,24364.8738,50847.9327,37771.8955,33527.3445,35207.5249,4621.2673,48660.3677,44126.9875,54706.0668,-3651.6935,-3502.8309,22026.5687
51689.5652,24359.5988,50846.681,37759.4233,33513.844,35198.5395,4617.9146,48646.5096,44121.0419,54704.7704,-3666.6244,-3513.068,22021.6513
51682.815,24359.3305,50853.5206,37759.3786,33507.5408,35198.8077,4622.072,48630.4611,44112.4141,54701.2836,-3673.5982,-3517.8512,22021.2936
51688.1347,24358.5706,50855.5323,37762.5078,33512.5029,35201.3558,4622.4743,48642.5757,44111.5201,54698.2884,-3666.8479,-3512.4421,22024.557
51703.468,24365.1867,50858.3039,37773.8178,33531.4125,35209.9836,4628.4199,48666.2686,44129.6697,54706.9609,-3651.2464,-3495.0972,22035.3752
51713.5262,24371.177,50862.6401,37779.1375,33540.2191,35217.8961,4633.829,48682.0042,44136.0623,54713.3535,-3644.2727,-3488.5705,22039.8009
51695.2872,24361.7445,50860.7626,37770.3756,33519.8343,35210.0283,4630.8339,48668.5038,44126.7192,54707.4974,-3651.7829,-3498.5393,22038.9068
51679.641,24356.3801,50857.0969,37759.5574,33499.4942,35200.9088,4627.8834,48640.2959,44107.2732,54697.9755,-3667.6526,-3511.6374,22030.8602
51683.4408,24357.7659,50857.7675,37759.3786,33498.019,35202.831,4627.4364,48642.2181,44111.5201,54700.2554,-3668.8596,-3509.8046,22027.7756
51697.7459,24358.9729,50853.4759,37767.5146,33517.3309,35205.2897,4626.2741,48660.0548,44122.383,54703.6082,-3653.2581,-3500.2828,22027.2392
51706.9995,24361.8339,50852.2242,37773.8178,33528.4621,35205.8709,4626.6764,48668.5932,44122.1595,54699.0484,-3646.9996,-3499.3887,22023.797
51698.3718,24355.1731,50854.1465,37769.4368,33515.4086,35204.1274,4629.2245,48657.6408,44111.2965,54698.6461,-3652.0511,-3504.5743,22020.3102
51679.8645,24349.4511,50850.0338,37761.4349,33497.7955,35199.9253,4624.3966,48645.1238,44094.1304,54693.6393,-3667.0715,-3519.237,22014.2305
51682.4573,24349.9428,50846.1446,37758.0822,33499.6283,35196.3937,4620.4627,48650.3094,44099.3607,54693.3711,-3668.0996,-3519.997,22011.3695
51698.1483,24355.6201,50843.1047,37771.2697,33520.3707,35201.6687,4621.1779,48680.5737,44117.1974,54700.1213,-3649.2348,-3504.3508,22017.3597
51705.6584,24357.9447,50845.6081,37774.4883,33534.9441,35205.9156,4623.1449,48695.2364,44122.0254,54705.2622,-3643.4233,-3497.69,22020.3102
51697.3883,24349.0487,50843.7753,37770.1968,33520.1025,35199.7018,4618.8086,48672.6612,44108.5696,54698.2437,-3655.4486,-3507.7929,22014.7222
51677.3611,24334.2072,50842.7918,37758.0374,33498.8236,35190.8952,4613.2207,48645.3474,44092.1187,54689.616,-3671.81,-3525.8085,22012.1294
51674.5001,24332.5084,50843.7753,37753.9247,33496.812,35188.8388,4611.3878,48652.187,44093.4598,54689.9289,-3671.2289,-3524.4673,22014.1411
51701.2775,24337.7388,50845.7869,37765.6817,33516.3921,35197.6901,4616.797,48671.3648,44110.9389,54697.6626,-3656.5214,-3504.8872,22022.7689
51710.0394,24344.2208,50845.027,37767.8275,33526.0481,35201.6687,4622.4296,48687.9498,44117.3315,54702.8035,-3647.1337,-3497.7347,22025.5852
51689.2523,24345.6513,50844.1329,37754.9082,33509.2843,35191.4316,4618.8533,48675.5669,44104.5016,54696.9026,-3662.7799,-3510.8775,22017.7174
51684.8266,24344.5784,50845.027,37752.0025,33505.5292,35194.2927,4621.6249,48657.1938,44102.0429,54690.3759,-3674.4475,-3517.4489,22015.0352
51689.2523,24349.0934,50848.0668,37755.1317,33507.4067,35199.5677,4622.6978,48662.7817,44102.5794,54691.8958,-3667.3844,-3510.9669,22018.5667
51703.7362,24360.2246,50845.2058,37754.6847,33521.2648,35202.7863,4617.9593,48687.1898,44111.2071,54689.9289,-3656.7003,-3502.205,22018.8797
51716.5214,24371.2664,50849.4973,37767.5146,33535.4805,35211.4141,4622.4296,48706.6358,44118.4491,54696.7685,-3649.4136,-3493.8902,22024.4676
51707.7595,24364.9185,50848.4691,37765.2794,33531.9042,35212.9787,4620.9544,48692.4648,44113.2635,54694.1757,-3656.2532,-3499.6569,22022.903
51690.9063,24363.3538,50851.509,37752.673,33506.1103,35206.7649,4617.6016,48668.0567,44101.1488,54685.6821,-3674.1346,-3513.2021,22016.2868
51701.0987,24367.7795,50857.1863,37754.1035,33503.2046,35211.5929,4617.8699,48671.4989,44099.2266,54689.616,-3667.1162,-3509.6258,22021.1148
51721.0811,24373.4121,50857.8569,37769.1239,33524.8858,35222.3665,4624.3072,48691.7049,44112.3694,54694.891,-3647.6254,-3494.1584,22027.7756
51723.5845,24373.1886,50858.6168,37768.1404,33535.6593,35223.037,4623.6813,48695.0129,44116.5268,54699.3166,-3643.2892,-3490.7609,22030.0555
51707.3125,24368.5842,50860.3156,37764.8771,33524.6623,35223.9758,4627.4364,48681.8254,44109.7319,54698.1096,-3650.3077,-3500.551,22028.8932
51687.6429,24361.074,50856.2922,37754.0141,33502.534,35211.7717,4626.2294,48663.0052,44091.8952,54690.3312,-3664.0316,-3515.5714,22025.1381
51682.2338,24354.8155,50855.0406,37741.4078,33491.3582,35205.2897,4623.9048,48659.9654,44087.0225,54689.9736,-3670.1113,-3516.0631,22022.5453
51690.5487,24358.2129,50855.6217,37753.1201,33513.3076,35211.5929,4625.6036,48678.2044,44099.8077,54696.9026,-3656.0297,-3499.9251,22028.1333
51697.2095,24364.7844,50864.8306,37764.0724,33533.4688,35213.4258,4632.9796,48685.2676,44114.247,54706.0668,-3644.3621,-3491.9679,22036.7163
51677.8082,24359.7776,50862.1037,37756.9199,33523.3212,35201.937,4630.968,48664.704,44104.7251,54701.5965,-3654.778,-3504.3061,22035.2858
51652.2378,24351.5521,50858.5274,37742.3912,33496.9014,35187.8107,4625.6483,48635.5126,44078.7077,54692.2982,-3672.9276,-3519.997,22026.7028
51643.7441,24345.3383,50852.1348,37737.1609,33489.3465,35182.4462,4619.4792,48627.2871,44073.4774,54691.1806,-3676.5486,-3519.7288,22025.3617
51665.7829,24356.2907,50850.2573,37746.0569,33514.0228,35189.2859,4621.0438,48645.5262,44076.9643,54695.0251,-3658.6225,-3507.3459,22028.4909
51677.4505,24364.0244,50851.5984,37758.0822,33529.5796,35191.8787,4625.9612,48648.9236,44078.8418,54697.5285,-3651.3358,-3505.826,22028.8038
51664.3077,24358.0341,50852.4477,37754.1929,33525.5563,35184.7708,4631.9962,48621.1181,44071.0634,54696.6344,-3660.7236,-3517.9406,22026.5239
51646.5157,24353.6532,50856.6499,37744.5817,33503.8304,35180.6581,4634.6784,48593.7148,44061.7204,54695.785,-3667.4291,-3522.2322,22026.3004
51651.7013,24366.2596,50859.4662,37747.7556,33508.6584,35186.0225,4638.1652,48588.3504,44059.3511,54691.27,-3664.6128,-3517.0466,22029.5638
51661.3126,24376.0943,50853.5206,37758.2163,33530.6525,35190.7611,4636.3771,48600.1968,44066.5931,54696.098,-3654.9121,-3507.7929,22032.2013
51664.5312,24381.0564,50850.8831,37759.915,33541.0684,35192.0575,4637.3159,48592.5078,44070.8399,54699.1378,-3650.3077,-3503.4567,22027.4627
51654.5177,24382.8446,50855.13,37756.294,33525.1987,35189.1518,4638.0758,48580.8849,44058.457,54691.4935,-3656.2979,-3512.3974,22021.5172
51636.0104,24380.52,50852.8501,37746.9957,33493.7721,35182.938,4633.8737,48556.9239,44039.9945,54682.3293,-3675.9228,-3526.3896,22015.3034
51636.9492,24377.4354,50850.3914,37747.1745,33499.673,35182.938,4631.8173,48550.1289,44030.7409,54675.445,-3679.2308,-3524.825,22014.8563
51653.5789,24386.3761,50855.0853,37758.3057,33530.0714,35190.5823,4638.5229,48577.3087,44038.0275,54687.3808,-3656.6108,-3504.8425,22025.4511
51652.8636,24390.0418,50854.0124,37760.7644,33537.3133,35191.7893,4640.1322,48582.3154,44039.9051,54688.3196,-3648.4301,-3500.998,22025.2723
51651.8801,24388.1196,50854.9511,37762.5525,33526.4504,35193.2198,4641.4733,48559.6955,44033.0207,54683.5363,-3653.6157,-3511.0116,22024.6017
51638.0668,24383.381,50854.9511,37752.8965,33507.9879,35193.3092,4641.7415,48540.8753,44015.7652,54676.0708,-3667.3844,-3520.9358,22024.6464
51636.681,24382.5316,50854.7723,37751.7343,33512.6817,35195.3655,4643.0379,48543.781,44021.666,54678.0825,-3661.7517,-3515.3031,22026.5239
51661.7596,24390.8465,50858.8403,37771.8955,33543.7506,35205.4685,4649.4305,48563.8082,44040.4415,54682.374,-3639.1765,-3500.8192,22034.9282
51671.9073,24395.0933,50857.6334,37782.7585,33553.8089,35210.6541,4655.2867,48575.8334,44047.6388,54681.7482,-3637.2542,-3496.3936,22034.3024
51660.0609,24393.6181,50858.9745,37776.1871,33533.8265,35203.2781,4655.5102,48567.2504,44040.4415,54676.1155,-3646.7314,-3501.7133,22029.4744
51645.7558,24380.7882,50858.4827,37762.1055,33512.4582,35195.902,4650.414,48541.4565,44033.0654,54668.8735,-3656.9238,-3512.8891,22022.903
51644.37,24374.6638,50857.4098,37756.3834,33509.329,35194.8738,4644.6919,48533.8122,44035.2112,54667.3089,-3661.3941,-3510.9669,22021.9642
51660.7314,24379.2683,50858.438,37760.0491,33529.4455,35197.556,4640.7133,48547.4914,44048.2646,54670.7064,-3650.8888,-3501.2662,22023.8864
51666.2747,24380.967,50857.8569,37770.4203,33535.6593,35203.0545,4639.5063,48545.5692,44047.3258,54675.1767,-3646.0161,-3498.6734,22022.59
51653.9365,24373.5909,50855.3088,37765.4582,33520.2366,35193.9797,4636.8241,48525.095,44033.5125,54672.8075,-3652.6769,-3509.3129,22018.3879
51636.8598,24360.3587,50849.6314,37746.6828,33494.9791,35182.4462,4626.6317,48496.3953,44018.0004,54659.307,-3671.3183,-3530.7705,22006.5415
51643.8335,24356.7824,50848.3797,37743.9559,33498.8236,35182.0886,4626.0953,48502.5644,44016.0334,54659.6199,-3667.2056,-3528.7142,22009.179
51663.5478,24366.349,50853.1183,37755.6235,33523.2764,35189.6435,4631.2362,48527.0172,44031.9031,54670.1252,-3648.1619,-3511.9504,22018.4773
51674.7683,24374.7532,50854.9511,37761.6584,33535.8381,35193.1304,4634.1419,48529.5206,44037.5358,54674.9532,-3643.7362,-3505.6919,22022.3665
51674.1872,24376.4073,50854.37,37761.5243,33520.5495,35195.2761,4637.4947,48517.3166,44028.5951,54669.41,-3650.0841,-3508.2847,22022.8583
51663.5925,24371.177,50855.7558,37747.8451,33502.3105,35192.1022,4636.6453,48496.9765,44027.1646,54667.2195,-3660.9471,-3518.7006,22019.5055
51670.2533,24373.4121,50859.9579,37746.191,33502.7128,35194.1139,4639.4616,48496.2612,44030.1597,54668.6947,-3657.0132,-3518.8794,22023.1265
51696.986,24380.8329,50864.473,37767.0676,33528.6409,35202.4287,4648.1788,48520.5352,44042.2744,54675.5791,-3641.4117,-3501.6686,22034.1682
51700.9199,24380.6541,50864.1154,37765.19,33527.4339,35200.3276,4642.8591,48526.4361,44039.4133,54673.8803,-3640.9646,-3499.7463,22032.7377
51690.1463,24376.0943,50861.5226,37757.5904,33515.5427,35199.8806,4642.1885,48513.2486,44033.6466,54675.8026,-3647.8937,-3510.0728,22028.1333
51679.5069,24378.4636,50865.0988,37758.4845,33499.7624,35205.2897,4644.6919,48503.5926,44029.668,54676.1155,-3654.7333,-3517.3595,22030.1896
51674.0084,24377.3907,50861.5226,37756.0705,33492.3416,35201.5793,4638.7464,48510.4769,44037.7593,54675.7132,-3661.6623,-3516.1078,22026.4345
51690.0122,24381.4588,50859.7791,37764.43,33512.9499,35202.4287,4637.9417,48533.7228,44049.8292,54685.235,-3648.4748,-3501.8474,22028.2227
51698.0588,24379.4471,50857.8122,37764.743,33522.5612,35198.8971,4637.897,48536.9414,44051.4386,54684.8327,-3646.3737,-3501.3556,22026.3451
51685.676,24369.3441,50855.3088,37751.6001,33506.4679,35191.074,4634.3654,48520.8482,44041.7826,54678.6636,-3659.606,-3513.2915,22020.6231
51668.1075,24362.7727,50859.5109,37744.1794,33495.0238,35185.1732,4635.1254,48501.5363,44030.7409,54672.1816,-3670.6924,-3521.5616,22018.6561
51668.3757,24366.4384,50859.6897,37745.6099,33499.5389,35184.8155,4637.7182,48505.9172,44030.2044,54669.2312,-3665.1939,-3519.6394,22018.075
51681.9656,24372.6969,50857.8569,37755.3552,33516.4368,35190.3141,4637.897,48528.6713,44048.9799,54672.9416,-3649.5924,-3506.9883,22018.6561
51701.4563,24375.8708,50861.3437,37765.0112,33529.8926,35203.0098,4642.8144,48541.8588,44056.4454,54679.2448,-3642.4845,-3496.8406,22020.7572
51690.3698,24366.0361,50855.6217,37750.8849,33508.7478,35197.9136,4636.3771,48520.9823,44040.978,54670.6617,-3659.8742,-3510.9669,22012.04
51677.7188,24369.7912,50861.5673,37762.0608,33497.6166,35204.9321,4636.8241,48505.8725,44036.9993,54669.1418,-3662.1094,-3513.5597,22011.7271
51689.1181,24380.1177,50870.5974,37770.7332,33510.1336,35215.5268,4646.5248,48519.7753,44049.8292,54679.4683,-3655.4933,-3508.1506,22019.729
51704.675,24391.6959,50865.5459,37777.0364,33536.5534,35216.9126,4647.553,48548.162,44057.8759,54686.1291,-3642.0375,-3499.344,22023.0371
51700.0705,24392.3217,50862.9531,37778.2881,33543.5271,35208.5531,4643.932,48556.3427,44058.9935,54686.3526,-3640.607,-3498.7628,22023.5735
51687.1512,24396.2556,50863.0872,37782.982,33535.4805,35209.7154,4649.967,48544.1387,44057.5629,54687.6043,-3648.1619,-3503.8143,22027.8203
51681.295,24398.9378,50869.1221,37783.5184,33523.2764,35212.0847,4653.275,48532.4264,44057.2053,54691.2253,-3651.3805,-3506.7648,22031.3519
51691.4427,24401.8435,50870.6868,37784.8595,33531.3678,35218.7902,4654.035,48541.4565,44057.4288,54691.4488,-3643.2445,-3502.8309,22035.6435
51711.3805,24400.5024,50869.5245,37787.8547,33542.946,35224.0205,4651.7551,48564.0764,44070.8399,54696.2321,-3630.4146,-3489.9116,22038.728
51717.3707,24400.2789,50869.3904,37792.8168,33545.3153,35228.8932,4650.0117,48571.0502,44078.4842,54700.166,-3625.4078,-3486.3353,22040.2032
51695.6896,24394.9592,50863.9812,37783.1608,33523.9023,35219.1925,4641.4733,48555.6275,44072.2704,54685.6374,-3640.16,-3499.2099,22032.693
51678.6575,24386.3761,50860.4497,37769.6604,33501.4164,35212.8446,4634.5443,48542.887,44054.3443,54677.4119,-3657.9072,-3513.515,22025.8534
51679.5516,24382.0846,50859.1086,37767.6487,33505.5739,35216.7338,4631.7726,48550.9336,44054.836,54682.4187,-3657.8178,-3508.8658,22024.9146
51696.9413,24385.348,50857.5439,37776.947,33519.2531,35219.1925,4630.1186,48571.8548,44061.8098,54684.5645,-3646.4632,-3499.8804,22025.2723
51705.5243,24386.5103,50854.1912,37780.7468,33520.2813,35212.1741,4632.0856,48587.9034,44068.5153,54684.788,-3645.0773,-3498.7628,22024.2888
51693.6779,24380.6541,50851.8219,37773.6837,33508.0326,35203.4569,4630.2974,48578.3368,44055.4619,54676.5178,-3662.8246,-3506.1836,22019.0138
51674.1425,24370.7746,50852.9395,37767.3805,33498.9578,35198.4948,4629.9845,48547.9832,44042.632,54666.9066,-3674.0452,-3518.2089,22011.8165
51685.0054,24375.1109,50857.8569,37770.5991,33505.0821,35199.5677,4634.7231,48553.437,44050.0975,54677.7695,-3667.6526,-3512.6209,22013.1129
51698.5059,24385.795,50856.6052,37776.9917,33518.0461,35197.7348,4633.0243,48571.0055,44059.8875,54683.2681,-3654.018,-3503.9485,22016.1974
51704.5856,24385.035,50854.5935,37779.9869,33523.4106,35197.7795,4631.5491,48579.2756,44068.2918,54688.2749,-3653.3028,-3503.8143,22014.007
51684.469,24377.8378,50851.8219,37762.7313,33510.6701,35185.9778,4630.7892,48561.7518,44055.1937,54681.4799,-3673.1511,-3515.3031,22006.005
51666.9899,24369.21,50849.0056,37747.7556,33488.0054,35178.7806,4628.2411,48544.1387,44037.3123,54673.8356,-3686.4281,-3529.4741,22001.7582
51676.7353,24368.2712,50847.888,37753.0754,33502.1317,35180.5687,4628.554,48550.1736,44045.1801,54676.1155,-3678.0238,-3527.5072,22003.7699
51695.6002,24372.2498,50848.7821,37764.5642,33528.4621,35187.5424,4631.0127,48572.5254,44054.2102,54682.2846,-3662.0647,-3513.5597,22009.7154
51690.3251,24371.4005,50847.441,37765.637,33525.7351,35189.7776,4628.5093,48568.5915,44060.111,54682.1505,-3658.1308,-3512.2186,22012.6212
51673.5613,24363.3538,50844.3564,37758.1716,33504.5457,35184.1003,4626.0953,48545.1221,44057.3394,54677.6354,-3665.2833,-3519.7288,22011.1907
51659.1668,24353.4297,50846.3681,37749.365,33484.5632,35174.6231,4624.7542,48528.3583,44044.8225,54675.9814,-3677.0403,-3528.2671,22007.0332
51661.402,24360.314,50851.1961,37754.6847,33495.1133,35181.3734,4629.761,48546.8209,44052.5562,54683.7598,-3668.0996,-3519.8182,22013.1129
51683.5302,24369.3441,50851.7325,37767.4699,33519.119,35192.6386,4633.9184,48571.8101,44072.0916,54688.4537,-3649.95,-3503.9485,22019.282
51685.4078,24368.6736,50855.7558,37766.9781,33523.5447,35192.8174,4635.3489,48575.0735,44077.7242,54695.2933,-3645.9267,-3500.1487,22020.8466
51673.919,24364.0244,50857.0522,37758.3057,33509.2396,35192.6833,4635.796,48566.1328,44070.7952,54695.6509,-3659.6507,-3507.5247,22020.7125
51663.5925,24361.0293,50858.3933,37756.294,33493.1016,35194.6056,4638.4782,48549.1455,44067.6212,54693.1028,-3669.8878,-3514.8114,22022.5006
51668.8675,24373.0545,50860.4497,37762.6419,33508.6584,35201.0429,4641.6074,48558.6673,44072.181,54697.9755,-3663.674,-3505.2449,22027.6862
51685.4972,24376.3626,50860.1815,37767.7381,33530.3396,35205.6921,4641.8756,48583.7907,44085.4132,54701.4624,-3649.2795,-3491.5656,22030.3684
51687.0171,24363.3091,50854.3253,37764.3853,33534.6758,35198.316,4640.0875,48590.4068,44085.0556,54695.338,-3650.7547,-3495.723,22024.8252
51679.9539,24359.9564,50855.9793,37760.4067,33520.2813,35197.6901,4639.7746,48566.401,44069.5435,54685.0115,-3661.1706,-3508.0612,22019.6396
51666.4535,24361.7445,50853.5653,37746.3251,33495.8285,35195.8573,4636.0642,48540.2048,44050.768,54675.7132,-3676.5039,-3522.1428,22012.8
51661.9384,24357.4083,50847.3516,37744.4476,33495.4709,35185.6202,4632.3538,48541.5012,44048.8011,54675.2661,-3672.0335,-3524.3332,22008.1955
51668.2416,24354.4132,50843.1941,37753.1648,33517.1521,35184.9049,4627.8387,48557.7732,44056.043,54673.3439,-3660.1424,-3517.4936,22007.1226
51678.881,24356.1566,50843.8647,37761.2114,33526.0034,35195.5891,4629.0904,48565.3728,44064.8496,54677.7695,-3652.9005,-3510.2069,22009.5813
51666.8558,24347.7523,50840.7354,37754.7741,33506.3338,35192.9069,4627.8387,48551.2018,44059.8875,54674.8638,-3662.9587,-3515.3478,22009.8048
51639.5867,24332.8661,50834.0746,37738.0103,33484.1609,35180.6581,4621.6249,48527.5984,44043.5261,54665.029,-3679.0073,-3526.2555,22006.8097
51633.5964,24322.9419,50826.9221,37744.3582,33486.4408,35177.9759,4618.451,48529.6994,44048.3987,54669.0524,-3677.8003,-3523.7968,22005.4686
51646.1134,24323.7466,50824.0163,37758.708,33506.5573,35181.1498,4620.6415,48538.819,44060.7816,54678.3507,-3663.4058,-3515.929,22008.732
51656.127,24325.3112,50821.647,37762.5525,33511.3406,35180.8816,4618.898,48545.4351,44059.7087,54675.4897,-3659.1142,-3513.8726,22008.419
51645.7111,24321.4667,50818.2496,37752.4495,33500.4777,35174.5337,4617.9146,48536.5391,44045.5377,54668.4712,-3672.9276,-3522.1428,22004.351
51623.0911,24312.7495,50813.8239,37737.6974,33473.9238,35167.6047,4610.762,48516.5119,44025.6894,54661.1398,-3691.7031,-3536.0903,21999.2101
51620.6324,24303.3171,50808.996,37736.0433,33473.6556,35164.5648,4604.2353,48512.6674,44021.2637,54657.2059,-3692.5524,-3534.5256,21997.5561
51642.3136,24309.4862,50815.2992,37756.1599,33503.3387,35174.042,4608.6609,48537.612,44043.0343,54669.1418,-3667.5185,-3517.2254,22004.0828
51649.2873,24310.5143,50814.5392,37755.6682,33510.0889,35171.3151,4608.795,48539.0425,44049.1587,54668.6053,-3665.2833,-3517.5383,22001.1324
51634.4905,24302.0207,50810.3818,37739.0832,33486.4408,35165.1907,4605.2188,48518.5236,44037.1782,54661.9892,-3683.9247,-3530.2788,21997.1538
51620.096,24289.906,50802.9163,37728.8461,33473.9238,35162.6873,4602.1789,48498.1835,44023.9459,54651.9309,-3697.7381,-3543.7346,21995.1421
51621.75,24287.0897,50796.5684,37720.0842,33469.1852,35157.904,4595.3393,48502.5197,44027.701,54654.5237,-3699.1239,-3543.4216,21994.2927
51632.5235,24290.3531,50791.9192,37722.7664,33488.8995,35160.8992,4594.9817,48514.232,44035.1665,54660.6481,-3688.2609,-3531.5305,21995.8127
51630.4225,24284.8992,50792.858,37723.6158,33497.4825,35160.1392,4595.1158,48519.9988,44036.8205,54660.9163,-3682.8965,-3532.3352,21994.5163
51614.7763,24283.2005,50791.6063,37717.0444,33478.7965,35153.2549,4589.8408,48510.5664,44026.1364,54656.8483,-3693.8936,-3542.8405,21990.94
51601.5887,24281.2783,50792.5004,37708.7295,33461.8986,35148.2481,4588.0079,48498.9434,44020.772,54652.0203,-3706.6787,-3547.3108,21989.6436
51611.0212,24284.4969,50795.3167,37708.2378,33465.9666,35145.6106,4590.2431,48506.2301,44028.7292,54655.5072,-3702.0743,-3541.3653,21992.594
51629.5731,24294.2423,50795.8531,37717.3573,33488.8995,35145.6106,4590.6454,48532.1134,44038.6087,54662.481,-3685.8469,-3531.5305,21995.2315
51630.5566,24292.7223,50795.4061,37719.1454,33486.7537,35143.8224,4587.5609,48534.9298,44038.1616,54661.8998,-3687.8586,-3537.2078,21991.4317
51620.1407,24295.941,50790.444,37709.4001,33469.4088,35134.5241,4583.0458,48515.0814,44032.2608,54656.8483,-3700.8673,-3545.7909,21985.1285
51613.3904,24290.5766,50789.8182,37704.7509,33459.7975,35131.3055,4584.5658,48507.8841,44031.1879,54649.964,-3711.6408,-3552.4517,21982.9381
51619.5148,24285.4357,50787.7171,37708.953,33460.4681,35135.9546,4585.4151,48514.9473,44035.2112,54654.3896,-3706.6787,-3550.8424,21982.7145
51636.9939,24288.699,50785.8396,37721.0677,33483.7586,35145.0741,4583.8058,48531.8899,44041.8273,54658.7706,-3690.8984,-3536.4479,21984.458
51635.6081,24290.8001,50791.8298,37722.0511,33493.8616,35148.2928,4583.8952,48543.2893,44046.8341,54665.4314,-3685.3999,-3529.4294,21989.1965
51620.3642,24285.2122,50788.7006,37708.2378,33478.1706,35140.6932,4577.6814,48529.5653,44039.8157,54662.7492,-3705.6506,-3545.8356,21982.7592
51618.129,24287.4026,50788.7006,37709.3107,33463.5079,35136.7593,4577.9049,48512.6227,44029.0421,54656.6248,-3716.7817,-3562.6441,21976.3219
51624.8792,24290.9342,50793.0368,37713.6022,33468.2018,35144.3142,4583.6717,48524.7821,44034.7195,54660.4246,-3706.7235,-3554.1505,21981.5075
51645.8452,24303.4512,50797.0154,37727.952,33494.2192,35156.9653,4592.2101,48557.6838,44052.5562,54671.1534,-3683.0753,-3535.0174,21990.3141
51646.7392,24301.5736,50797.2836,37730.1872,33501.3717,35156.0712,4589.0808,48566.848,44052.1091,54663.1962,-3682.9412,-3536.1797,21987.9895
51634.3564,24295.0469,50795.0038,37719.503,33479.8247,35146.9964,4580.6766,48543.781,44037.3123,54656.893,-3698.4086,-3549.8589,21978.423
51628.1873,24295.7622,50799.0718,37715.3456,33465.5195,35145.7,4579.7825,48530.6382,44023.2754,54652.825,-3707.9304,-3559.7831,21978.1995
51630.2884,24299.1596,50803.8551,37721.8723,33475.4884,35152.629,4588.1867,48544.3622,44033.8701,54659.754,-3699.2133,-3545.2992,21985.5309
51652.3272,24309.5309,50806.7608,37740.8713,33503.8304,35169.0799,4600.659,48574.1347,44057.7865,54676.5625,-3680.7954,-3522.9027,21995.5891
51664.8442,24321.6455,50809.6665,37745.3417,33513.4417,35172.7456,4605.3082,48584.7741,44061.0498,54683.9386,-3675.1628,-3520.5781,22000.9983
51656.7975,24325.6241,50810.1135,37737.8315,33499.1813,35167.56,4601.9554,48572.2125,44047.9517,54677.2331,-3685.8469,-3533.5869,21998.0478
51642.9842,24315.9235,50810.2477,37729.5613,33484.9209,35161.3015,4603.4753,48554.197,44037.8487,54672.8969,-3701.1802,-3545.9697,21992.6834
51642.1795,24319.9915,50811.5441,37731.2154,33490.2853,35158.1722,4605.7105,48559.4273,44049.4269,54671.824,-3699.0345,-3538.9066,21995.3656
51656.3952,24328.8428,50813.0193,37743.6876,33509.6419,35165.4589,4605.6658,48577.2192,44057.5629,54676.2049,-3680.8401,-3524.1544,22001.6688
51661.5361,24329.1557,50815.3886,37745.7887,33515.3639,35173.7738,4608.8845,48591.5244,44063.5085,54680.4518,-3675.431,-3518.1195,22005.2004
51654.6071,24323.6572,50815.2544,37745.8334,33505.4398,35175.5172,4607.7222,48575.3864,44063.0168,54679.6471,-3682.9412,-3524.825,22003.8146
51634.3117,24317.3987,50811.4994,37736.2669,33483.5798,35168.9905,4602.7601,48558.6673,44055.7748,54675.7579,-3694.6535,-3533.4527,21999.3889
51638.5585,24313.8224,50809.6665,37738.502,33482.9539,35166.9788,4601.8213,48571.8995,44055.4619,54677.0096,-3689.9149,-3532.2905,21997.5114
51659.3903,24321.1091,50812.0358,37752.986,33507.6749,35175.6066,4603.6988,48594.7877,44071.2869,54680.7647,-3674.5816,-3522.7686,22000.6853
51666.0511,24323.1207,50814.4945,37754.0141,33513.6205,35181.2392,4602.4919,48600.5545,44079.9147,54683.8492,-3673.8217,-3522.9027,22002.1158
51660.2844,24320.7961,50815.478,37744.4476,33495.3815,35174.8914,4602.0448,48592.5078,44070.7505,54679.9153,-3688.6632,-3534.6597,21996.3938
51647.8121,24315.834,50817.2214,37733.5846,33472.091,35167.5153,4600.1226,48572.2125,44060.2899,54670.2147,-3704.8906,-3548.1602,21988.2578
51654.5624,24314.0012,50816.685,37734.6128,33488.8548,35171.3151,4599.6755,48574.0453,44060.3793,54673.478,-3702.4766,-3543.8687,21989.4648
51676.4671,24326.6523,50819.2778,37751.3319,33518.1803,35179.9875,4605.2635,48603.0132,44071.4657,54685.4138,-3683.6118,-3527.1943,21998.0478
51677.1823,24331.2567,50815.8803,37753.7012,33520.2366,35181.1498,4603.7436,48615.1725,44076.8749,54685.2797,-3676.4592,-3521.8745,21997.1538
51659.7033,24331.4356,50815.8356,37755.3552,33498.6448,35183.5638,4602.0001,48601.985,44071.5551,54681.6587,-3683.88,-3528.0436,21995.7232
51645.6664,24320.7514,50815.7462,37748.8285,33483.6245,35179.7193,4601.7766,48574.4476,44061.4522,54675.4897,-3694.2512,-3538.2807,21996.0362
51661.5361,24320.215,50819.4119,37749.5885,33495.0238,35177.7971,4605.2188,48581.6896,44061.9886,54676.9202,-3692.4183,-3535.1515,21998.4949
51680.8927,24332.2402,50824.2846,37757.0987,33522.6059,35185.2179,4608.0798,48614.8149,44077.2772,54683.9386,-3677.5768,-3521.9193,22003.8146
51688.1347,24340.1527,50823.6587,37762.8654,33529.1326,35188.8388,4610.2256,48619.5534,44087.0225,54681.2117,-3669.8431,-3518.8347,22007.5697
51680.1327,24337.8282,50824.9104,37759.3786,33514.1569,35185.799,4612.2372,48611.0598,44085.5473,54678.7977,-3677.6215,-3523.5286,22006.8097
51665.8723,24333.8048,50831.1242,37751.4213,33493.9957,35186.6037,4613.8912,48603.3261,44080.6299,54681.1223,-3687.0986,-3528.9377,22004.5745
51674.9918,24337.8282,50832.9123,37758.9315,33496.9908,35194.7844,4616.8864,48604.6672,44085.3238,54682.1952,-3680.6613,-3522.5898,22008.4637
51702.5292,24351.2392,50834.6111,37775.5165,33522.293,35204.6192,4618.5851,48624.3814,44097.2149,54689.9289,-3661.5729,-3509.7599,22015.0799
51701.2775,24349.6746,50831.6159,37768.9004,33520.4154,35199.2995,4613.8912,48631.6681,44097.4832,54687.2467,-3663.5846,-3512.8444,22014.007
51688.4476,24339.5269,50831.9288,37758.3057,33499.6283,35194.248,4610.1809,48617.3183,44094.9798,54681.8823,-3677.845,-3522.0534,22006.4521
51679.194,24336.9341,50835.5051,37753.2542,33481.3446,35191.6999,4610.7173,48604.2202,44090.1518,54683.7598,-3687.4563,-3530.0553,22007.7038
51678.7469,24339.9292,50834.1193,37754.4165,33486.9325,35190.2246,4609.555,48609.0034,44086.799,54681.4799,-3689.1997,-3530.9941,22007.0332
51692.1133,24345.383,50833.8064,37757.501,33513.5311,35193.0857,4610.1809,48628.8518,44096.7679,54682.2846,-3680.7507,-3524.1097,22006.2286
51699.5341,24354.9496,50835.4157,37765.2347,33522.6059,35196.8408,4615.8135,48635.9149,44095.8738,54685.3244,-3670.8266,-3515.9737,22009.5366
51688.984,24353.072,50834.164,37761.7478,33513.9781,35191.3869,4616.3052,48623.8897,44087.2908,54684.9221,-3679.3202,-3522.7239,22004.8875
51674.5895,24346.9924,50837.2933,37754.2824,33494.8897,35185.8437,4614.4724,48609.3163,44077.6795,54680.8094,-3691.0772,-3529.6977,21999.523
51674.7683,24343.6843,50835.0581,37758.1716,33495.4262,35189.42,4615.8135,48615.4407,44080.6746,54684.5198,-3684.774,-3526.8366,22001.1771
51687.1065,24346.2324,50834.2981,37763.536,33512.9946,35191.8787,4618.898,48638.9995,44092.074,54691.717,-3673.4641,-3513.5597,22004.7534
51693.6779,24350.3898,50839.752,37768.9004,33519.0743,35199.4336,4621.312,48653.5728,44099.4501,54695.2039,-3668.7702,-3510.341,22005.9603
51677.9423,24350.211,50840.0649,37760.7644,33502.6234,35200.9982,4616.9311,48633.7692,44091.9399,54691.7617,-3678.8285,-3521.6957,22003.6358
51663.5031,24341.0468,50834.0746,37752.0472,33488.1395,35187.9448,4609.5997,48608.914,44080.3617,54682.5081,-3693.5359,-3537.6549,21998.8525
51670.6556,24342.7902,50834.6111,37747.398,33495.158,35181.284,4606.8281,48619.6876,44086.0838,54687.3808,-3689.7361,-3538.4148,21999.3889
51697.6118,24351.1051,50836.5333,37768.0063,33524.3493,35190.7164,4615.4112,48643.6039,44098.7349,54693.7287,-3671.5865,-3523.2604,22005.111
51702.2163,24349.4064,50834.0299,37773.4601,33536.0616,35189.1965,4618.2275,48651.6058,44103.6522,54696.2768,-3668.0102,-3517.8959,22005.5133
51683.6196,24344.6678,50830.9901,37766.5311,33514.0228,35184.145,4616.3499,48637.0772,44094.8009,54693.1028,-3680.9742,-3530.1,22001.3112
51664.2183,24331.4803,50828.1738,37756.4728,33488.9889,35177.2606,4608.1692,48617.7206,44082.0605,54687.9172,-3696.6205,-3543.511,21995.2762
51674.3213,24342.075,50834.4769,37763.5807,33505.1268,35185.039,4613.7571,48630.0141,44091.0012,54691.8958,-3690.5855,-3535.5538,22000.2383
51694.7061,24356.5142,50839.9755,37777.3046,33536.3746,35194.3374,4620.6862,48657.6408,44111.073,54701.0154,-3673.017,-3515.5267,22010.6095
51700.0705,24363.0856,50842.9706,37781.6409,33546.6564,35195.3208,4622.3849,48673.3764,44112.4588,54708.3914,-3666.7585,-3513.2915,22011.8612
51684.2008,24364.1138,50843.6412,37774.1754,33526.2716,35191.074,4624.9777,48660.9936,44096.3209,54700.4342,-3678.8285,-3524.3332,22006.2733
51671.0132,24360.6716,50843.2388,37765.8606,33504.1881,35191.521,4627.8387,48644.1404,44089.973,54695.0251,-3690.1832,-3533.6316,22004.5298
51673.4272,24359.6435,50843.5071,37767.7381,33508.7478,35193.7562,4623.6366,48651.6953,44099.4054,54696.9473,-3685.981,-3533.0057,22006.1839
51695.7343,24364.9185,50845.6081,37774.7118,33529.669,35197.9584,4624.173,48674.3599,44114.6493,54708.9726,-3669.396,-3516.3313,22013.0682
51695.9578,24363.0409,50847.7092,37777.2599,33533.2006,35198.316,4622.6084,48677.4445,44116.2586,54707.9444,-3663.4952,-3510.2963,22015.5716
51676.3777,24349.004,50843.5965,37770.5991,33512.19,35187.9448,4619.4792,48652.4552,44103.6969,54699.5848,-3677.845,-3526.3002,22007.8379
51653.5789,24339.214,50840.5119,37755.5788,33492.2075,35179.764,4614.5618,48620.5369,44089.1683,54687.3361,-3696.7099,-3544.5392,21997.2432
51661.402,24335.5036,50838.1873,37757.9033,33495.2027,35180.8369,4610.9855,48622.9956,44090.7329,54688.6325,-3691.4349,-3537.8784,21996.7067
51680.9374,24341.4491,50835.371,37772.6108,33518.2697,35187.4083,4613.1313,48652.7234,44105.9768,54692.3429,-3672.2124,-3526.0767,22002.6076
51684.9607,24348.0206,50836.9803,37776.8576,33523.3212,35188.1236,4614.9194,48674.6281,44115.901,54700.7918,-3668.7255,-3522.4557,22004.6639
51679.641,24350.1663,50833.1358,37773.9519,33505.5292,35185.6649,4613.3548,48666.1792,44106.6474,54698.7802,-3686.0704,-3532.1116,21998.629
51668.9569,24347.4394,50831.4818,37764.2959,33487.5137,35186.5143,4609.6444,48641.5476,44094.1751,54690.6441,-3702.6554,-3544.4051,21991.1188
51678.6128,24354.4132,50835.1475,37766.7546,33507.4514,35190.4035,4612.5948,48650.4436,44095.9632,54693.4605,-3696.6652,-3539.1301,21994.0245
51696.5836,24364.9632,50840.9142,37777.0811,33529.9373,35194.6503,4617.3781,48676.9974,44109.6425,54704.0999,-3678.605,-3524.0203,21999.3889
51699.7129,24360.314,50845.4293,37781.9985,33538.878,35196.5278,4621.4014,48673.6,44115.3198,54708.302,-3668.4126,-3520.0864,22003.6358
51689.2523,24355.1731,50846.0552,37776.6788,33525.5116,35191.1187,4622.6978,48651.0247,44102.2664,54703.6082,-3678.9179,-3533.2739,22000.3277
51674.9918,24350.5239,50845.6528,37767.0228,33501.9529,35187.2295,4623.0555,48635.6467,44090.1965,54699.3613,-3689.2444,-3541.9017,21999.8807
51676.7353,24354.6814,50846.9045,37764.743,33507.5408,35187.6318,4625.1565,48648.8789,44093.3704,54698.6014,-3682.0471,-3534.3915,22003.3228
51695.4213,24367.0642,50844.5352,37775.2036,33531.3678,35194.9632,4626.7211,48666.5368,44110.9836,54704.0105,-3666.8926,-3521.6063,22003.8593
51704.0938,24370.4617,50841.7636,37781.4174,33541.0237,35197.109,4624.7095,48661.3512,44107.1838,54707.855,-3662.0647,-3519.2817,22006.4521
51697.0754,24367.8242,50843.3282,37773.9519,33528.4173,35192.1916,4621.2673,48644.7662,44099.6736,54704.0105,-3672.2124,-3525.9426,22004.6639
51680.2669,24360.1799,50843.4623,37762.9995,33507.9879,35186.9613,4618.4957,48623.7109,44093.1916,54694.7569,-3688.7974,-3535.6432,21998.316
51682.6361,24358.4812,50843.8647,37768.1851,33512.5923,35196.2596,4621.0885,48634.5291,44095.1139,54693.9969,-3685.0423,-3532.8269,22001.937
51706.6419,24367.556,50847.4857,37788.7934,33537.7604,35210.0283,4624.0836,48662.7817,44116.1245,54700.6577,-3659.9189,-3514.9455,22008.1061
51714.465,24362.9068,50848.9162,37790.3581,33535.3911,35209.0895,4623.3237,48672.5271,44113.3082,54699.4507,-3660.2318,-3516.1078,22006.1392
51702.261,24352.8932,50851.4643,37778.154,33510.7595,35206.8543,4621.8932,48659.4737,44105.2169,54697.1262,-3672.9723,-3522.9921,22003.3228
51683.7537,24341.9856,50846.6363,37759.2891,33484.9209,35200.6406,4611.3431,48633.6797,44090.1071,54690.823,-3693.1336,-3541.2312,21995.9468
51684.1561,24340.5551,50842.9259,37753.5671,33494.6662,35197.8242,4604.727,48632.6069,44083.6698,54687.1126,-3699.9732,-3541.5441,21994.6504
51703.5127,24351.1498,50846.234,37778.1093,33530.5184,35205.5132,4612.2372,48655.9868,44097.1255,54695.5615,-3672.7488,-3520.5781,22004.0828
51709.2794,24360.0905,50848.648,37779.808,33537.5816,35204.3509,4615.7688,48665.2404,44105.038,54703.8317,-3664.4787,-3514.5432,22007.1673
51686.7936,24348.3782,50843.7306,37767.1123,33518.5379,35192.1469,4612.4607,48655.0033,44092.9681,54698.6908,-3679.5437,-3525.0932,22002.8758
51661.6702,24337.0235,50840.6907,37756.8305,33503.0258,35183.1168,4606.8728,48637.7478,44075.7126,54684.4751,-3696.844,-3541.6335,21995.1421
51666.23,24335.3695,50838.9473,37757.4563,33506.3338,35181.9992,4603.6988,48632.6069,44076.2937,54687.8725,-3692.3289,-3537.1631,21993.7116
51677.8082,24343.7737,50846.6363,37767.4699,33532.4854,35191.8787,4613.6677,48653.0364,44088.4531,54697.1709,-3673.9111,-3520.8017,22002.0711
51687.5535,24354.0555,50853.4312,37780.2998,33545.4494,35198.1372,4625.4247,48657.5514,44092.1187,54700.4342,-3668.189,-3513.0233,22005.2898
51683.262,24358.0788,50854.1465,37771.4038,33534.1841,35194.1586,4627.1682,48647.2249,44081.5687,54698.1096,-3674.8052,-3519.997,22007.9273
51660.2844,24351.7756,50849.2291,37754.6847,33511.1618,35180.3899,4623.6813,48624.2026,44063.1062,54686.9338,-3687.9927,-3534.8386,22002.2053
51659.9268,24352.3121,50848.7374,37754.1929,33509.9995,35181.9098,4625.1118,48606.6788,44062.1227,54686.9785,-3687.1433,-3533.3633,21999.1654
51677.6741,24364.0691,50852.9395,37766.844,33534.8994,35189.8223,4630.8786,48625.2308,44071.9128,54692.9687,-3670.7819,-3518.1195,22007.1226
51673.919,24361.968,50850.5255,37765.3241,33546.0752,35188.3024,4630.4762,48621.1181,44070.6164,54695.338,-3671.6312,-3518.79,22006.3627
51659.2115,24364.1138,50846.7704,37756.0705,33530.3396,35183.385,4628.7328,48600.8674,44054.7466,54686.8891,-3682.8518,-3531.8434,22000.4171
51643.3865,24362.9068,50844.8482,37750.7955,33510.983,35174.5337,4627.5258,48574.8053,44043.5261,54677.0543,-3692.9995,-3542.7064,21996.0362
51649.9132,24370.9087,50847.5751,37761.8372,33521.086,35182.6698,4633.6502,48570.9161,44046.2977,54682.3293,-3684.3717,-3539.5324,22000.8641
51664.8889,24377.2566,50849.4973,37771.3144,33545.6282,35190.3141,4634.3207,48592.8208,44058.7699,54694.1757,-3670.2454,-3521.8298,22008.0167
51670.7897,24382.2187,50850.6596,37775.74,33549.1598,35191.7446,4639.551,48598.811,44061.2286,54694.6675,-3660.8577,-3516.7783,22011.0565
51658.1833,24382.6658,50849.5867,37771.1803,33541.4261,35190.2694,4638.2546,48576.6381,44048.0858,54681.2564,-3671.4971,-3530.0553,22003.2334
51641.3748,24376.1837,50846.9939,37754.0588,33517.465,35184.8602,4634.8572,48553.3476,44036.4182,54675.2661,-3687.6351,-3541.0523,21996.2597
51643.7441,24377.6143,50852.5819,37754.9976,33520.5048,35190.0011,4636.3324,48556.0745,44035.9712,54679.3342,-3678.3814,-3536.3585,22001.7582
51658.9433,24376.9437,50853.5206,37770.018,33545.0917,35202.0264,4640.8474,48571.3631,44044.5095,54682.9998,-3664.3445,-3520.4887,22009.179
51661.0891,24378.9107,50851.0172,37768.2745,33551.1267,35201.5793,4642.6803,48573.0171,44049.0246,54683.8939,-3662.6011,-3512.6656,22009.5813
51646.1134,24378.1954,50851.9113,37757.948,33525.7351,35191.2081,4640.8474,48554.197,44038.4299,54678.3507,-3676.9509,-3524.0203,22002.7864
51635.9657,24371.7581,50847.3068,37749.7673,33506.8256,35184.9049,4634.3654,48530.7276,44019.4309,54670.2594,-3690.7196,-3535.8667,21999.8807
51648.3039,24364.3373,50846.7257,37760.7644,33517.3309,35187.8107,4636.2877,48527.6878,44025.1529,54673.9697,-3679.812,-3527.4178,22007.3462
51659.5691,24359.7776,50847.0833,37769.8392,33532.9324,35190.5376,4635.3042,48550.9336,44031.4114,54678.753,-3661.4835,-3514.9455,22010.9671
51664.6206,24366.5278,50849.3632,37772.3426,33531.9042,35194.1139,4637.7182,48553.5264,44032.976,54680.3176,-3656.2979,-3512.755,22010.9224
51647.6333,24366.5725,50850.2573,37761.9267,33514.2463,35188.7494,4635.9748,48528.4477,44022.1131,54679.96,-3673.3299,-3528.6248,22008.0614
51625.3263,24353.2956,50841.9871,37746.7722,33491.2688,35175.9195,4624.5307,48507.0348,44015.2735,54666.0572,-3689.7808,-3539.6218,21999.6572
51631.9424,24351.3286,50842.0765,37751.3319,33499.2707,35174.4443,4624.5307,48502.1174,44015.2287,54666.7278,-3684.0141,-3533.4527,21999.1654
51655.6799,24356.4248,50842.0765,37759.0209,33515.811,35177.5289,4624.1283,48511.371,44021.6213,54671.5111,-3674.0005,-3525.719,21999.8807
51664.5759,24353.2509,50839.1708,37754.64,33515.2298,35173.8632,4621.4461,48508.9123,44027.254,54667.3536,-3675.8333,-3528.2224,21995.455
51658.2727,24349.8981,50838.4109,37744.7158,33495.5603,35170.5998,4621.1779,48490.9862,44023.0519,54666.9066,-3682.2706,-3535.0621,21993.4881
51640.1678,24342.2091,50838.1873,37731.6624,33473.2085,35165.2354,4618.0487,48469.7074,44005.1705,54665.2973,-3695.9499,-3543.824,21991.5658
51646.8287,24345.6513,50840.7801,37735.3728,33480.3164,35169.2587,4620.6415,48474.9824,44011.116,54670.9299,-3689.7808,-3537.8784,21998.4055
51670.6556,24352.0439,50842.4789,37747.3533,33500.12,35175.0702,4627.6599,48501.8939,44024.1247,54676.7861,-3670.4242,-3522.0534,22005.0663
51683.5302,24359.0623,50844.6246,37753.7906,33509.6866,35180.4793,4631.862,48509.5829,44041.9167,54685.4585,-3662.3329,-3515.8843,22011.5036
51668.644,24353.2956,50848.1115,37749.2756,33493.5486,35176.7689,4630.0739,48498.2282,44038.251,54685.5927,-3669.5749,-3524.6015,22012.2635
51656.1717,24349.004,50848.0668,37742.0783,33469.5429,35170.7339,4628.1517,48477.0387,44026.2705,54677.9484,-3676.9509,-3533.5869,22009.939
51668.1075,24353.6085,50847.888,37744.4476,33480.4058,35176.6348,4630.7445,48483.2078,44031.2773,54679.5577,-3671.1395,-3528.9824,22010.3413
51678.2552,24364.0691,50844.5799,37749.365,33499.3601,35181.7757,4632.8455,48508.5547,44047.5941,54685.0562,-3658.1308,-3515.3031,22012.3082
51692.605,24367.4219,50845.3399,37757.3222,33509.1054,35188.3024,4635.5724,48521.4293,44047.1023,54687.3808,-3653.9733,-3511.3245,22017.0915
51688.1347,24365.0079,50849.9891,37756.0258,33500.3883,35191.2081,4637.0924,48515.5731,44037.5805,54682.9104,-3663.0929,-3517.8065,22014.1411
51665.2912,24362.4598,50852.2242,37746.2357,33486.4408,35185.6202,4636.5559,48501.4468,44036.7311,54682.1505,-3676.5933,-3523.3051,22010.1178
51671.2368,24358.7494,50850.1679,37744.4476,33494.0404,35184.3685,4638.344,48510.0746,44042.9002,54683.8939,-3671.6312,-3518.1195,22011.4142
51691.8451,24357.4083,50853.5206,37750.7061,33520.8178,35187.1401,4640.1322,48526.302,44055.4619,54688.4537,-3656.3873,-3503.0097,22019.1926
51692.605,24363.2644,50856.8734,37756.4728,33532.9324,35191.0293,4643.2614,48534.0357,44061.0945,54690.4206,-3647.1337,-3493.1302,22023.4841
51677.5846,24356.7377,50854.37,37747.6662,33508.8819,35180.6581,4639.6852,48509.6276,44046.253,54684.341,-3662.4223,-3511.101,22015.6163
51660.9102,24353.4744,50851.4643,37749.9014,33489.0783,35177.3053,4637.9417,48493.132,44033.5572,54684.028,-3672.4359,-3520.4887,22013.5152
51670.1639,24359.0623,50847.7092,37756.1599,33500.2989,35183.4297,4636.243,48499.6587,44033.8254,54687.1126,-3670.6477,-3514.722,22013.694
51689.0287,24365.9467,50846.5022,37759.7362,33516.705,35190.7611,4637.0476,48520.5352,44046.2083,54691.9405,-3659.0695,-3509.447,22015.3928
51695.1531,24374.8426,50848.2456,37767.7828,33524.1705,35194.9632,4639.6405,48534.4827,44050.4998,54695.0698,-3649.6371,-3505.6025,22016.8233
51683.5302,24372.6969,50843.5518,37765.1006,33514.8275,35189.2859,4636.6453,48522.7704,44046.3871,54691.3594,-3659.9636,-3514.4091,22014.1411
51666.3194,24373.3227,50842.7024,37755.0423,33490.6876,35182.7592,4634.9466,48502.3409,44039.8604,54686.2632,-3676.2357,-3523.3498,22009.4919
51666.3194,24374.3956,50843.9988,37754.8188,33501.0588,35188.66,4635.6171,48521.0717,44042.9449,54688.096,-3669.4854,-3519.0582,22007.7038
51683.4855,24382.7999,50843.3282,37770.018,33522.0695,35192.8174,4635.483,48549.9054,44048.1752,54686.3079,-3655.0015,-3511.6374,22009.2237
51691.4427,24387.3596,50841.3613,37776.947,33514.1569,35191.4316,4631.0574,48548.7431,44043.1684,54683.6704,-3657.2814,-3512.308,22008.5531
51685.3184,24381.6376,50839.6178,37775.9188,33501.8188,35193.3092,4629.0457,48534.2592,44037.9828,54677.8589,-3668.4573,-3522.7239,22003.0099
51674.0084,24374.485,50838.7238,37762.5525,33484.4291,35194.2927,4623.8154,48514.4109,44033.3337,54672.0028,-3682.5389,-3534.3021,21997.5561
51682.1444,24372.1157,50837.2039,37762.1949,33489.1677,35201.7581,4624.173,48526.0785,44039.9945,54672.1816,-3678.8732,-3530.6811,21997.6455
51696.4942,24375.3344,50837.1592,37772.8343,33509.776,35204.7086,4624.7095,48545.3457,44053.8526,54681.7034,-3664.8363,-3515.4372,22002.5629
51698.193,24374.2168,50837.2933,37776.8129,33517.2415,35205.2003,4623.0108,48547.8938,44053.4055,54682.0164,-3663.2717,-3512.7997,22003.9934
51690.3251,24371.5793,50842.6577,37779.2716,33509.329,35206.1391,4625.38,48538.3272,44053.182,54678.0825,-3669.7984,-3516.8678,22006.4968
51679.8198,24362.9515,50841.6742,37775.3824,33494.5768,35203.1887,4626.9894,48530.2806,44048.0858,54679.3789,-3671.6312,-3520.9358,22006.3627
51682.6361,24364.2926,50844.0435,37771.0909,33496.4544,35204.8427,4629.7163,48536.6732,44057.3394,54685.7715,-3667.0715,-3513.515,22010.2966
51707.4466,24373.5015,50848.0668,37785.9771,33525.0646,35209.0895,4635.6171,48566.5798,44070.5717,54690.51,-3646.8208,-3496.1253,22016.1527
51709.1006,24371.8028,50848.6927,37786.5583,33531.5466,35205.4238,4634.9913,48573.4195,44072.0022,54693.8628,-3642.3504,-3496.7065,22015.7057
51686.0783,24366.0361,50846.9939,37772.3426,33518.7167,35200.9535,4632.0856,48554.5099,44062.6591,54693.9522,-3657.192,-3509.1341,22010.7883
51670.9238,24364.0691,50845.0717,37766.1288,33507.5408,35193.4433,4632.9349,48540.7412,44049.5163,54687.7384,-3669.7984,-3518.1195,22008.0167
51678.9258,24360.314,50840.8695,37765.0112,33512.5029,35186.4696,4634.9019,48547.8491,44053.0032,54689.1242,-3668.6808,-3513.5597,22009.939
51698.0141,24368.3606,50845.5634,37769.3474,33526.5398,35187.0954,4636.1089,48562.3777,44066.2801,54701.0601,-3657.6837,-3502.7862,22015.9292
51697.9247,24367.4666,50847.7092,37768.4981,33528.9091,35181.3734,4635.5277,48560.6343,44067.0401,54702.8482,-3660.9918,-3502.7862,22016.9574
51687.1065,24367.3772,50845.2505,37761.9267,33514.0675,35175.0702,4636.1536,48546.1056,44060.424,54697.3944,-3668.5467,-3510.7881,22012.3529
51676.2882,24370.6852,50845.474,37754.4612,33500.0753,35176.2772,4637.45,48527.3302,44054.5231,54693.8181,-3679.8567,-3522.3216,22009.1343
51685.7654,24368.8077,50845.2058,37750.4826,33508.7925,35177.8865,4636.5112,48528.2242,44059.4405,54695.1592,-3682.4048,-3519.3712,22005.9156
51702.7527,24369.6123,50845.5634,37758.8421,33528.1044,35181.5969,4638.6123,48549.816,44068.3365,54701.1048,-3668.9937,-3507.3012,22008.3296
51702.1716,24368.2712,50847.2174,37761.6137,33533.3794,35178.4676,4640.1769,48560.0978,44072.8962,54701.5518,-3661.9753,-3506.1389,22010.1625
51686.8383,24359.9564,50842.5236,37752.7177,33514.3805,35173.0585,4633.0243,48537.9696,44057.3841,54690.2865,-3671.3183,-3520.1311,22006.0498
51680.2222,24354.8155,50839.752,37740.9607,33488.5418,35168.0517,4631.0127,48516.1096,44051.5727,54682.0611,-3683.7459,-3528.9377,22001.4006
51687.6876,24358.3024,50844.4011,37742.8383,33493.1016,35171.181,4634.0078,48527.3302,44060.6922,54690.2418,-3677.398,-3521.5169,22005.0663
51701.2328,24365.9019,50846.234,37754.3718,33523.0529,35176.903,4637.897,48555.091,44068.9623,54698.1096,-3664.7022,-3508.8658,22012.8
51696.1366,24368.2712,50845.921,37756.0258,33526.9868,35181.5522,4641.2051,48560.1872,44068.9623,54697.7967,-3664.5681,-3509.8046,22015.4822
51683.5749,24364.695,50847.6198,37755.1764,33512.0112,35181.5075,4642.1885,48541.1882,44065.0731,54699.719,-3669.4407,-3516.7783,22016.0186
51671.1026,24359.2411,50849.9444,37744.5817,33489.8829,35181.0604,4639.3722,48520.4905,44051.3045,54699.6295,-3685.7575,-3523.6627,22012.3976
51679.3728,24359.5988,50852.9842,37749.0968,33491.6711,35184.5026,4641.8756,48523.7539,44060.6922,54702.5353,-3679.3649,-3515.4372,22012.5765
51689.1181,24360.8952,50852.0454,37763.8489,33513.4864,35185.7096,4641.8309,48531.13,44067.2636,54704.3681,-3665.9539,-3507.48,22013.2917
51694.1249,24358.8835,50846.5469,37764.6089,33514.7381,35182.4462,4638.4782,48539.6236,44063.9555,54701.6412,-3663.227,-3510.2963,22013.0682
51678.881,24349.1381,50845.6081,37753.0307,33500.1647,35180.2558,4638.2546,48520.5352,44057.25,54693.8628,-3676.2804,-3520.6676,22010.1625
51662.2066,24341.4491,50845.5634,37754.1035,33492.7887,35183.9215,4639.5957,48505.5149,44048.8905,54686.2632,-3679.6331,-3525.3614,22008.0167
51658.0045,24336.8447,50841.6742,37753.2542,33496.052,35182.3121,4636.1983,48512.0416,44053.9867,54687.8278,-3671.1395,-3521.3828,22007.2567
51677.5846,24341.2703,50844.0882,37765.3241,33522.8294,35189.1071,4637.0924,48530.7723,44064.492,54688.856,-3657.5943,-3505.1554,22011.7271
51686.4359,24347.2159,50845.6975,37775.1589,33524.2599,35190.2694,4639.5063,48547.7149,44072.1363,54694.3992,-3652.6769,-3501.6686,22013.9623
51667.7946,24340.5551,50844.5799,37760.362,33504.7692,35182.2227,4635.8854,48532.2922,44059.3511,54690.1524,-3666.3562,-3516.3313,22008.9108
51649.0638,24335.3695,50841.0931,37748.6497,33488.8548,35180.7475,4632.8902,48513.4274,44043.079,54679.0212,-3680.5272,-3529.6082,22003.9487
51651.4331,24344.0866,50837.2039,37750.1249,33500.7012,35181.0604,4631.1021,48522.8598,44046.1189,54677.7695,-3677.5768,-3522.858,22003.0993
51676.8694,24348.6911,50842.6577,37764.2959,33519.6108,35186.246,4633.6949,48549.0561,44062.1227,54690.8677,-3661.6176,-3511.0563,22006.318
51680.2669,24344.936,50837.8744,37764.5642,33518.8508,35180.1217,4629.3586,48544.5857,44059.2617,54688.0513,-3666.7138,-3516.0631,22001.5347
51663.4583,24341.8068,50833.5382,37754.5953,33496.4544,35175.7854,4625.6483,48528.2242,44048.3987,54682.9998,-3677.4874,-3527.3731,21997.9584
51651.5672,24335.9953,50832.8676,37743.5535,33480.7187,35169.4822,4622.7425,48514.0532,44043.1237,54673.031,-3690.5408,-3540.7394,21993.6669
51653.0871,24335.1012,50837.2933,37744.1794,33487.3348,35165.3695,4623.8154,48519.1047,44046.9682,54673.8803,-3688.7974,-3538.5489,21991.5211
51671.192,24341.315,50840.3331,37760.3173,33512.3688,35175.2043,4626.8106,48542.7082,44062.6591,54684.341,-3673.777,-3521.7851,21997.6455
51680.6245,24348.557,50837.3827,37760.5408,33516.9733,35180.524,4626.9447,48542.9764,44065.6096,54684.788,-3669.3513,-3520.444,22001.7135
51668.7781,24346.3218,50835.9075,37751.1978,33498.2425,35176.6795,4623.8154,48517.6295,44055.2384,54673.8803,-3680.1249,-3533.9892,21995.5891
51659.1668,24347.5735,50839.439,37751.779,33484.4291,35174.042,4626.6317,48503.3691,44041.5144,54672.7628,-3686.2046,-3536.2244,21994.248
51675.3495,24356.2013,50845.5634,37759.915,33498.6895,35177.4842,4630.5656,48515.9755,44048.4881,54679.6918,-3678.1579,-3528.0883,21997.869
51698.2824,24358.4365,50848.7821,37767.1123,33523.187,35181.1498,4631.5044,48539.7577,44071.1975,54687.2914,-3669.3513,-3516.8231,22003.3675
51703.3339,24359.3305,50849.8549,37775.1589,33526.0928,35186.4696,4635.5724,48548.162,44075.9808,54690.823,-3662.5564,-3509.4917,22010.3413
51692.5156,24356.4248,50852.716,37767.7828,33513.4417,35183.385,4636.0195,48538.7743,44066.0566,54690.9571,-3672.1677,-3515.1243,22007.7038
51669.8509,24351.9098,50852.1795,37756.0705,33494.5321,35179.2723,4634.1866,48525.7655,44056.5795,54687.3808,-3685.534,-3525.4061,22006.8544
51680.5351,24359.6435,50849.4526,37764.6536,33499.8071,35183.2509,4638.344,48538.3719,44063.285,54689.0348,-3681.8236,-3514.1408,22010.5648
51702.9762,24370.1488,50846.681,37773.2813,33518.8061,35185.5755,4636.7347,48559.472,44077.6795,54690.4653,-3670.4689,-3505.3343,22008.3296
51698.9976,24363.8456,50842.7918,37769.0345,33514.5146,35180.0323,4632.9349,48558.6673,44077.1431,54694.131,-3669.1278,-3512.755,22005.3345
51682.7703,24350.8369,50840.6907,37757.4116,33500.4777,35175.6513,4626.4082,48544.541,44060.7816,54690.063,-3674.8052,-3519.8182,22004.0828
51669.8062,24342.6561,50840.646,37752.0025,33487.4243,35175.7407,4628.4646,48533.1863,44052.5562,54686.1738,-3681.1978,-3527.5966,22002.8758
51677.7188,24343.9078,50841.6295,37752.1366,33492.8781,35183.385,4632.8008,48545.5692,44062.5697,54687.7384,-3674.3581,-3522.7239,22006.1392
51689.2523,24354.1449,50842.6577,37759.4233,33511.9665,35183.385,4631.1021,48566.2669,44078.0371,54693.6393,-3661.707,-3514.2303,22008.5979
51694.7955,24356.6483,50849.6761,37770.2415,33526.9868,35183.3403,4632.9796,48567.0716,44089.66,54701.6859,-3657.9072,-3513.5597,22008.5531
51682.3232,24351.6415,50850.9278,37755.9364,33505.5292,35176.0089,4628.0622,48546.5974,44079.8253,54694.8463,-3673.8217,-3520.7123,22004.5745
51670.9238,24346.9924,50845.4293,37744.7605,33486.9772,35167.2471,4622.8766,48531.8452,44059.8875,54682.9104,-3691.7031,-3531.7987,21999.2101
51677.6741,24348.557,50844.4458,37748.3368,33495.4709,35175.4278,4623.9942,48545.6139,44064.8049,54683.581,-3685.981,-3527.3731,22000.283
51688.1347,24356.3354,50845.6975,37760.0491,33524.2152,35184.6367,4625.6483,48563.3612,44079.423,54692.5217,-3671.4524,-3514.4538,22004.3063
