FC3,FCz,FC4,C5,C3,C1,Cz,C2,C4,C6,CP3,CPz,CP4
55314.9283,27141.7201,53221.1959,41102.0815,35944.6406,38318.4403,5727.3656,50117.8354,44530.2129,55791.0651,-570.0588,-1409.0538,24982.2736
55329.1887,27143.3741,53218.5137,41110.0388,35961.8962,38316.831,5725.6222,50133.3028,44539.243,55793.4791,-557.8101,-1397.8332,24983.57
55312.7825,27131.2594,53213.0599,41100.5616,35950.0498,38307.5774,5717.4414,50120.4729,44525.966,55782.0797,-571.3105,-1410.7972,24976.8645
55290.2073,27117.7143,53208.9472,41089.3857,35922.87,38302.0788,5709.5736,50093.919,44508.0847,55772.9155,-593.2599,-1427.2481,24969.399
55290.2967,27116.5073,53209.0366,41086.8824,35915.2257,38301.0507,5711.8535,50093.472,44509.2916,55776.6706,-599.1161,-1427.4716,24972.0812
55311.4414,27130.4548,53210.9588,41096.0913,35941.5561,38309.8125,5718.3802,50113.2756,44527.173,55781.0515,-580.6088,-1411.3337,24977.3115
55324.7631,27132.5111,53209.4836,41105.2108,35964.0867,38315.4005,5718.6484,50129.056,44532.3139,55782.2585,-568.4495,-1404.1364,24979.6808
55318.9069,27123.6151,53207.1143,41099.7123,35952.6873,38309.3655,5713.4628,50119.0424,44528.0671,55776.8941,-575.9597,-1414.3288,24975.4339
55302.4113,27116.5967,53203.1804,41087.687,35926.9828,38303.5988,5709.8866,50092.9803,44516.6677,55771.7979,-586.018,-1425.46,24973.8693
55290.0732,27115.3897,53201.0347,41083.5296,35915.4046,38301.3636,5705.3268,50076.3953,44510.4092,55771.9767,-587.672,-1425.3706,24973.3776
55302.2325,27119.0554,53196.6984,41090.3692,35931.9448,38306.3257,5704.2092,50099.194,44515.5948,55764.1536,-578.5078,-1416.117,24970.1589
55311.6202,27117.5355,53195.3573,41099.5334,35955.2801,38305.2975,5707.6961,50129.5477,44529.0506,55773.2284,-566.4378,-1407.0868,24975.3445
55304.1101,27116.8649,53194.7762,41097.2089,35945.2665,38304.7611,5708.5901,50118.1483,44529.9894,55777.6541,-571.7576,-1408.3833,24979.0102
55296.1081,27113.5569,53194.3738,41094.929,35924.4347,38309.6784,5706.5785,50097.4506,44516.3101,55772.9155,-586.1074,-1418.3968,24974.227
55285.8263,27107.8795,53195.9832,41093.0067,35914.8681,38307.7115,5703.3151,50094.8578,44507.3247,55769.4286,-591.9188,-1424.0742,24971.3212
55299.6844,27117.5355,53196.2067,41104.8084,35935.387,38305.3422,5704.7457,50120.2494,44520.9146,55774.7483,-579.4019,-1415.9828,24974.4505
55307.1946,27127.102,53196.0279,41108.5635,35951.8379,38307.1303,5705.9973,50141.8412,44536.1584,55776.8494,-571.6681,-1413.5689,24973.6011
55300.6232,27127.1467,53198.8889,41101.1428,35938.3821,38308.695,5706.4444,50130.3077,44525.072,55772.6026,-576.0491,-1420.9896,24970.0695
55295.3035,27117.8037,53202.9122,41092.3809,35913.4823,38306.3704,5707.0255,50110.3252,44513.2256,55772.379,-592.3212,-1430.288,24965.0627
55294.4541,27111.9475,53204.5662,41084.3343,35899.2219,38301.4977,5701.2588,50106.8383,44513.6726,55770.9932,-605.3299,-1436.7253,24961.3523
55316.2247,27126.3868,53209.0366,41098.3264,35934.1353,38308.8291,5705.6844,50134.1969,44533.8786,55779.2634,-587.8955,-1418.3968,24966.4038
55339.247,27142.2118,53214.401,41121.2146,35962.3879,38321.3013,5716.145,50161.5554,44553.1011,55790.6181,-563.6215,-1399.979,24979.3679
55332.3179,27151.0184,53214.5351,41123.0922,35958.7222,38330.1079,5718.4249,50159.7226,44543.5345,55790.7522,-569.0753,-1402.9741,24977.8032
55314.6601,27145.6987,53213.9987,41109.9046,35928.7709,38321.2119,5718.3802,50136.3873,44524.8038,55780.381,-588.5661,-1420.5426,24970.293
55308.938,27149.3644,53218.1114,41106.0154,35925.9099,38316.9651,5722.4035,50137.8179,44532.6716,55780.7386,-591.3377,-1422.4201,24972.8411
55323.9584,27158.1709,53221.9559,41117.8172,35954.4307,38325.2352,5726.6504,50168.1715,44544.7415,55783.8678,-573.6798,-1408.3385,24974.8528
55333.3461,27168.0057,53224.7722,41131.6305,35971.4627,38336.9476,5731.4783,50198.9275,44553.414,55795.7143,-555.3067,-1395.6875,24979.1443
55327.8476,27164.3847,53217.9326,41125.1485,35960.9574,38339.4063,5725.9351,50185.2483,44546.7979,55795.3566,-564.0239,-1401.9012,24978.3397
55309.8321,27159.065,53216.9491,41111.6034,35932.5707,38329.2139,5721.9565,50156.7274,44535.3538,55789.9475,-580.9665,-1420.5426,24975.121
55305.8088,27160.4061,53218.5584,41108.2506,35929.7097,38329.348,5720.2131,50154.1346,44532.4481,55788.7405,-585.4815,-1426.667,24972.3047
55327.6688,27171.6267,53221.7324,41124.1204,35953.8496,38338.6463,5725.8904,50181.9849,44552.7434,55795.4013,-568.3154,-1408.4727,24981.1113
55344.1197,27184.3225,53224.0123,41132.3011,35978.2577,38346.9611,5732.5065,50204.9178,44567.1827,55798.9776,-554.1444,-1390.9936,24988.4427
55344.0303,27183.3837,53224.7275,41129.753,35975.8437,38342.4014,5732.6853,50202.2356,44565.8416,55800.4975,-557.1842,-1395.4639,24988.9344
55323.8243,27175.5159,53225.264,41118.3983,35950.3627,38336.5005,5729.8243,50178.2745,44549.5248,55797.2342,-576.5408,-1410.9313,24983.8382
55314.6601,27174.0854,53226.6945,41115.3138,35938.7398,38336.5005,5729.422,50167.5904,44545.1885,55799.827,-581.637,-1415.5805,24982.7653
55328.2946,27178.9581,53231.1201,41130.3788,35956.2188,38343.2508,5730.7184,50188.4222,44562.0865,55802.9562,-564.0239,-1401.8118,24988.5768
55349.2606,27185.5295,53235.0093,41138.4702,35974.1002,38345.7094,5735.2334,50211.4445,44575.0505,55809.3488,-549.0482,-1390.1442,24991.0355
55349.7076,27184.5907,53233.4,41134.8492,35973.3403,38341.3285,5736.2616,50201.2968,44570.9825,55806.9348,-556.5137,-1393.2735,24984.6876
55327.8029,27169.7044,53228.0356,41114.4644,35940.5726,38323.1342,5722.8506,50172.7313,44549.9718,55798.8435,-584.8557,-1414.8206,24975.4339
55318.8622,27161.8813,53223.744,41104.8084,35930.3355,38320.9884,5718.7378,50160.1696,44538.0807,55786.103,-592.8576,-1424.2977,24968.3708
55336.0283,27164.6529,53219.4078,41113.3915,35950.1392,38328.141,5719.6766,50180.2862,44546.6191,55789.5452,-579.1783,-1411.3337,24971.3212
55352.1216,27166.8881,53221.0171,41124.3439,35965.8301,38336.2323,5721.9565,50198.704,44557.9737,55799.9611,-564.5603,-1396.9839,24980.0384
55345.0137,27170.9561,53221.0171,41118.89,35953.0449,38327.6939,5722.4929,50198.1676,44555.7386,55806.0855,-574.7527,-1405.8799,24978.6526
55320.5609,27165.3235,53226.6498,41107.133,35929.0391,38320.7649,5716.6368,50179.705,44543.3557,55799.2458,-592.187,-1422.7331,24968.9072
55316.0012,27165.5023,53234.5623,41109.0106,35926.5357,38321.7037,5719.4084,50172.776,44544.4286,55797.5024,-595.8527,-1424.9682,24966.8062
55334.5531,27175.9629,53239.1667,41121.3487,35950.318,38328.9456,5726.0245,50191.6856,44557.035,55805.2361,-575.1997,-1409.0538,24974.4058
55359.3189,27189.6422,53245.7381,41142.0912,35977.0954,38338.9592,5734.3841,50217.3901,44573.307,55817.5296,-554.9937,-1388.4455,24985.2687
55359.2294,27192.0562,53252.1755,41140.7501,35977.0954,38346.5588,5737.4239,50222.4863,44577.0621,55822.2681,-561.1628,-1388.1326,24987.0121
55342.0186,27190.4022,53254.6788,41125.2379,35948.8875,38344.5472,5734.9652,50208.3153,44569.6414,55819.4965,-578.6419,-1402.3036,24984.9111
55328.9652,27180.5674,53250.6108,41121.617,35932.4813,38340.5238,5732.6406,50195.3512,44562.8464,55818.5577,-577.8372,-1406.5951,24985.224
55343.7173,27191.6538,53249.0462,41131.8541,35962.4326,38343.4743,5737.0216,50217.3901,44565.7969,55824.0563,-566.6167,-1395.6875,24990.052
55355.9214,27193.7996,53250.3873,41141.4206,35979.7776,38341.3285,5739.5697,50238.8924,44577.4198,55829.3313,-557.4077,-1383.1705,24992.1083
55345.282,27180.9697,53242.4301,41135.2068,35969.8087,38329.2139,5730.9419,50218.91,44572.86,55822.0893,-565.5438,-1392.8264,24984.7323
55320.2033,27173.236,53238.4962,41117.4148,35939.1868,38323.3577,5727.2315,50188.8245,44557.2585,55814.4897,-583.6487,-1409.3667,24977.535
55312.2461,27168.0057,53236.4398,41118.0854,35929.0391,38323.4918,5725.1751,50179.7944,44553.6822,55805.9961,-588.8343,-1411.5572,24974.4505
55333.3461,27170.1515,53238.6303,41130.8259,35949.1557,38325.5482,5724.6834,50198.6146,44574.9611,55815.8755,-574.7527,-1403.1976,24978.0267
55350.7358,27178.064,53240.329,41137.3079,35966.143,38329.6162,5726.1586,50214.6184,44582.1583,55814.7132,-567.1084,-1393.0053,24977.088
55340.2305,27177.1699,53235.4116,41125.685,35959.214,38322.7766,5721.0624,50205.4095,44559.2254,55810.6452,-576.4961,-1400.8284,24971.2765
55324.4948,27167.7822,53232.2824,41118.3983,35941.6455,38314.6405,5719.0955,50182.4319,44543.6239,55801.8833,-595.8527,-1415.357,24965.3757
55310.905,27163.9824,53231.3883,41109.1447,35926.6698,38303.9564,5712.7029,50177.7381,44540.4053,55796.6977,-601.3513,-1426.3541,24963.5428
55321.2315,27169.1233,53233.4894,41119.8735,35952.2849,38315.8475,5715.4298,50203.3532,44555.4256,55803.2691,-581.9947,-1413.8371,24969.1755
55336.7883,27173.2807,53233.3106,41130.3341,35971.9992,38322.1954,5716.7262,50224.5873,44569.999,55807.0242,-572.7857,-1403.7788,24971.1871
55326.9982,27173.0572,53233.3106,41126.8473,35964.2208,38321.3907,5718.6484,50215.8701,44560.5665,55805.8172,-582.3523,-1410.8866,24968.192
55307.4181,27168.2292,53235.5011,41110.9328,35936.8622,38316.2051,5715.698,50203.6661,44551.76,55797.1001,-597.9985,-1428.0528,24963.0511
55313.4084,27169.2574,53242.1172,41113.9727,35933.0177,38320.5861,5721.1071,50206.3036,44560.9689,55806.309,-596.6574,-1423.2248,24972.1706
55336.3413,27179.1816,53245.8276,41131.0047,35956.8894,38330.1526,5726.1139,50236.6126,44573.0835,55814.4897,-580.2512,-1402.393,24978.2503
55340.4987,27184.0543,53243.5924,41144.3263,35976.8718,38329.1692,5732.9535,50247.2073,44580.3702,55817.7084,-567.6448,-1396.1345,24977.9373
55337.8165,27177.304,53248.3757,41139.8113,35964.1761,38324.4306,5731.7913,50238.6242,44574.6034,55819.9883,-574.3057,-1399.0849,24977.9373
55322.662,27169.7938,53245.6487,41129.1271,35939.8127,38320.0049,5722.3141,50215.0208,44557.7055,55811.6287,-590.8906,-1413.4794,24974.3164
55318.5493,27168.6763,53245.5593,41125.1038,35936.6387,38320.6308,5719.319,50207.9576,44561.9524,55813.7745,-594.8693,-1416.2064,24975.0763
55335.5366,27176.5888,53251.5049,41135.2068,35956.9341,38328.2751,5724.147,50231.5611,44578.4926,55820.1224,-578.776,-1402.7506,24982.0054
55348.5006,27176.9464,53252.9354,41141.8676,35973.7873,38330.4656,5726.4268,50245.8662,44594.1389,55821.6423,-565.0967,-1391.7536,24985.2687
55346.8913,27174.9794,53251.7284,41134.8939,35962.6114,38331.2255,5727.2315,50239.2054,44590.4285,55818.7366,-568.673,-1396.805,24983.7935
55341.0798,27176.9017,53254.0977,41138.649,35951.0332,38335.07,5730.8078,50221.4134,44580.549,55813.998,-580.8771,-1405.0752,24986.2075
55331.3345,27177.3487,53250.4767,41129.7083,35942.0925,38335.517,5728.5279,50205.186,44567.7191,55805.3255,-586.2415,-1411.1996,24980.8431
55348.9923,27188.167,53248.778,41142.9405,35963.1479,38345.933,5729.2432,50215.9148,44582.8736,55809.5723,-569.7906,-1397.6991,24983.3465
55363.6104,27201.6227,53244.6653,41155.2787,35977.3189,38350.7162,5730.1819,50238.2666,44580.549,55807.2031,-555.9325,-1387.9091,24984.5982
55362.6716,27200.1922,53240.9102,41148.6626,35966.9924,38344.3683,5725.7563,50232.2763,44570.4013,55799.5141,-566.8849,-1396.4474,24980.1278
55350.4229,27193.0844,53240.1055,41137.442,35948.7981,38342.9378,5724.9069,50210.7739,44563.2935,55797.0554,-580.2959,-1411.1549,24976.1045
55339.9622,27185.2165,53236.0822,41128.2331,35934.4035,38340.0768,5719.9448,50199.3746,44550.6871,55793.2109,-590.9801,-1421.9731,24971.6341
55355.1167,27187.6752,53237.6468,41137.9784,35955.593,38344.7707,5723.5658,50228.6553,44562.4888,55797.2789,-576.3173,-1404.2258,24978.2503
55357.5754,27181.3273,53233.3553,41134.0892,35963.4608,38348.9728,5723.4317,50239.4289,44564.5899,55796.1166,-566.6167,-1397.9673,24979.7255
55349.5735,27175.65,53235.4116,41125.9085,35952.9108,38342.312,5722.3588,50231.6952,44557.2138,55798.9776,-574.1715,-1403.1976,24977.1327
55333.212,27170.822,53238.4515,41117.4148,35939.0527,38330.8232,5724.9069,50214.8867,44539.3771,55792.8979,-585.3027,-1412.0489,24977.2221
55315.0177,27162.9542,53237.8703,41105.4343,35930.1567,38329.2586,5728.0362,50198.3911,44523.105,55790.3051,-589.2366,-1413.1218,24978.2056
55331.1557,27166.9328,53240.1502,41115.5373,35956.2635,38335.1594,5732.1489,50205.633,44538.036,55803.4033,-571.4893,-1395.151,24984.5088
55343.4938,27175.5606,53242.1172,41128.0543,35980.2246,38335.5618,5738.765,50210.6398,44544.2945,55810.0641,-562.1463,-1384.0646,24989.9626
55332.7203,27175.7394,53239.3456,41121.5723,35971.5968,38331.5384,5742.7883,50196.5582,44537.0078,55809.7512,-567.6448,-1387.8644,24991.0355
55308.2228,27171.9843,53240.329,41111.2458,35945.4453,38320.8543,5743.2353,50156.1016,44517.4277,55803.4033,-587.2697,-1406.1928,24985.224
55289.8943,27171.2691,53244.71,41105.032,35935.1635,38312.0477,5744.2188,50144.434,44508.0847,55804.8338,-592.0529,-1414.6864,24982.6312
55305.1382,27179.9862,53247.9286,41113.4809,35952.9555,38315.4005,5748.1527,50156.951,44515.3713,55807.5607,-574.4845,-1399.4873,24986.5651
55321.5891,27192.1456,53249.0015,41124.4333,35973.5191,38320.3179,5753.6066,50161.2872,44517.2042,55810.377,-563.0851,-1390.9042,24989.3814
55313.2743,27200.1922,53248.5098,41119.2924,35971.2392,38319.3344,5755.1265,50153.8664,44503.4802,55807.2925,-570.3717,-1397.8332,24986.1628
55291.8613,27199.6558,53246.0511,41110.2623,35942.6737,38310.1702,5754.6347,50124.2727,44487.6105,55799.7376,-584.7663,-1413.39,24983.7488
55283.5464,27196.8395,53248.5545,41108.4741,35932.3919,38309.6337,5757.2722,50107.1513,44476.7922,55794.3285,-586.3756,-1418.0839,24981.916
55295.0352,27205.4225,53245.7829,41115.2244,35950.8991,38309.902,5756.2888,50119.0871,44480.145,55794.5967,-575.1997,-1407.1316,24980.5301
55307.7757,27217.7607,53242.1172,41127.5625,35973.6979,38313.0759,5757.7193,50128.8325,44485.0177,55794.3732,-563.7556,-1396.6262,24986.0287
55302.9478,27215.6149,53238.4068,41130.7812,35967.2606,38314.4617,5759.1945,50108.7606,44475.9876,55787.7123,-569.8353,-1399.6214,24984.7323
55284.3511,27207.3895,53234.6964,41113.7044,35941.3326,38309.142,5754.8583,50074.5177,44458.5979,55775.6871,-585.4815,-1416.3852,24974.7187
55279.2549,27207.4789,53241.1337,41111.961,35930.9167,38304.8505,5753.9195,50065.2641,44450.1489,55777.6093,-587.8061,-1419.2909,24975.2104
55299.148,27212.9774,53245.5593,41127.1155,35948.2616,38313.7017,5759.5521,50082.7432,44456.4521,55783.1526,-567.7342,-1401.9012,24981.4689
55308.5357,27217.6713,53246.1405,41141.0183,35964.8019,38317.8145,5762.9943,50095.3496,44469.9526,55787.4888,-552.3562,-1391.6194,24989.5155
55302.3666,27217.6266,53244.3523,41132.1223,35952.3296,38317.8592,5759.7756,50088.4652,44464.8117,55787.31,-561.2522,-1400.4707,24988.398
55284.8428,27211.1893,53245.3805,41121.8852,35924.7923,38314.9087,5755.1265,50061.6878,44449.5231,55783.8678,-578.329,-1410.2608,24985.7157
55276.9303,27206.5848,53247.3922,41123.0475,35914.734,38313.5229,5758.6133,50042.6441,44446.4386,55779.8445,-580.743,-1409.8138,24987.191
55298.3433,27216.7325,53249.7168,41135.6986,35931.8554,38321.3907,5762.3237,50062.0902,44458.5532,55783.0185,-565.4544,-1398.9061,24993.1812
55313.3637,27224.5556,53251.8178,41144.2816,35946.4735,38323.5812,5763.2625,50069.8686,44465.0352,55787.9359,-550.5234,-1389.2055,24999.3056
55305.2276,27220.5323,53247.3922,41141.2418,35944.0595,38320.9437,5762.6814,50053.0601,44457.972,55781.275,-556.7372,-1396.2686,24993.4047
55290.4308,27213.2456,53244.397,41128.099,35922.7806,38311.4219,5756.5123,50020.8288,44436.5591,55772.0214,-573.7245,-1412.1383,24983.1676
55285.6475,27200.4604,53239.4797,41119.3371,35906.6874,38306.8174,5751.5055,49998.6559,44429.3618,55765.3606,-580.7877,-1415.2676,24979.1443
55307.5522,27210.7422,53242.8771,41128.0543,35926.5804,38311.6901,5755.4841,50020.4265,44447.4667,55770.9485,-571.534,-1398.1909,24986.4757
55321.6338,27213.5139,53240.1502,41135.8327,35937.1305,38317.4121,5758.2557,50045.2816,44454.9322,55774.4801,-561.2969,-1391.9771,24987.3251
55314.3471,27209.1329,53240.9996,41136.7714,35926.491,38314.7299,5757.5405,50036.9668,44450.596,55773.8543,-563.5321,-1395.5981,24985.7605
55295.5717,27199.0299,53242.3854,41122.5557,35904.9886,38305.1187,5753.2489,50012.6034,44434.8603,55763.6172,-580.9218,-1411.4231,24980.5748
55293.6941,27195.5431,53245.157,41119.1136,35898.5066,38302.0788,5752.3549,49997.5383,44436.5591,55766.2994,-585.8839,-1416.2958,24980.8878
55313.0955,27199.924,53244.8888,41129.7083,35922.423,38311.7348,5755.8417,50017.9231,44451.8477,55782.2138,-569.0306,-1402.4377,24986.0287
55333.4802,27209.8035,53247.2134,41135.8327,35940.975,38315.177,5754.903,50035.4022,44460.2519,55786.4159,-557.4077,-1391.6641,24991.0355
55329.904,27208.5071,53245.8276,41131.0494,35932.3472,38308.8291,5751.0585,50025.8356,44449.6125,55779.3081,-567.4213,-1398.4144,24986.3863
55304.5124,27198.0017,53242.6983,41118.2195,35907.0003,38305.9233,5744.8894,50001.5616,44432.7146,55769.9651,-586.1521,-1415.4911,24978.3397
55300.355,27191.0727,53239.0773,41107.9377,35899.9372,38303.1964,5740.1061,49987.7036,44432.4017,55768.311,-588.3425,-1418.2627,24976.0151
55325.7018,27192.682,53236.8869,41115.7608,35917.9527,38301.7659,5740.5531,50002.7686,44447.6455,55772.4237,-572.5622,-1406.9974,24976.328
55336.5201,27194.7831,53236.1716,41125.7744,35931.3637,38299.3519,5740.5531,50020.7394,44458.5532,55777.2517,-561.6993,-1396.0451,24978.5185
55324.6289,27185.0377,53235.1881,41112.408,35919.6514,38293.8087,5736.3063,50005.8532,44449.6572,55772.5579,-571.6234,-1404.4046,24977.535
55295.3482,27175.4712,53233.4447,41090.861,35885.1403,38281.7835,5729.9584,49985.1555,44430.7476,55767.1487,-589.9519,-1424.4318,24971.5
55294.6329,27173.4148,53231.746,41097.1642,35877.496,38285.0468,5730.0031,49981.5345,44434.1004,55765.9417,-595.6739,-1427.3375,24971.6341
55321.7232,27185.0377,53235.3222,41113.8386,35904.4522,38294.4793,5736.1722,50010.8153,44454.3958,55774.346,-575.5574,-1411.6019,24976.9986
55331.9156,27193.6208,53234.5176,41120.7676,35925.6864,38300.7377,5738.7203,50033.2564,44459.0002,55778.0117,-565.9014,-1402.3483,24977.088
55321.0974,27184.2331,53232.193,41110.307,35915.7622,38292.9146,5735.5464,50021.9017,44455.9157,55774.793,-581.19,-1411.2443,24971.5
55304.8253,27176.5441,53232.7741,41102.2156,35891.6223,38283.1693,5735.6358,50001.651,44443.9352,55770.9932,-593.7517,-1422.7778,24967.9685
55294.0965,27177.1699,53238.5856,41104.1379,35893.7234,38287.282,5741.8048,49999.7288,44437.1849,55770.0992,-594.3775,-1423.3142,24968.4155
55313.319,27180.0756,53240.1502,41113.2574,35911.4707,38296.2674,5744.3082,50020.7841,44450.5513,55781.6327,-578.5078,-1409.4561,24974.3611
55331.6027,27184.4566,53240.5078,41123.9415,35932.3919,38300.8718,5742.9224,50031.0659,44453.1441,55781.0515,-565.0967,-1402.9294,24976.9986
55328.0264,27179.9862,53236.3504,41121.2146,35922.7806,38296.6697,5740.0614,50017.789,44450.6854,55776.76,-571.7129,-1411.5125,24978.2503
55300.2656,27173.1466,53230.5837,41106.9989,35892.427,38287.3267,5735.9934,49994.8114,44435.8438,55765.7182,-585.9286,-1424.9682,24970.293
55295.3035,27178.7345,53231.9695,41104.5849,35886.7943,38290.4112,5733.2665,49993.7385,44433.2957,55764.2877,-588.8343,-1428.321,24967.1191
55321.6338,27192.2797,53235.5011,41121.304,35925.1052,38306.9068,5737.7368,50028.6072,44456.0498,55773.7648,-570.9976,-1409.322,24974.4505
55340.0964,27202.338,53235.9928,41129.2166,35943.7913,38313.7017,5742.0284,50058.648,44466.8233,55778.2352,-558.1677,-1402.6612,24976.4621
55330.2169,27205.8249,53237.6021,41132.0776,35931.9001,38313.21,5741.0896,50055.6529,44473.5289,55779.2634,-561.5205,-1408.1597,24975.6128
55309.8768,27199.2981,53234.3835,41123.2263,35906.1062,38303.9117,5739.0332,50035.4916,44462.5765,55772.0661,-581.4135,-1421.3473,24965.7333
55310.9944,27198.4488,53237.7362,41118.1748,35904.631,38305.6551,5743.593,50033.8376,44466.1528,55774.9271,-583.0675,-1420.3191,24965.5098
55333.7038,27214.2738,53245.2464,41134.7151,35938.5163,38325.1011,5750.1197,50058.8715,44474.6464,55786.7289,-562.8169,-1407.8021,24973.7799
55358.3801,27229.1154,53251.3708,41146.2039,35961.8068,38339.6298,5755.7523,50085.336,44484.8388,55797.5024,-547.0812,-1394.4805,24985.0452
55356.5919,27223.3039,53249.2697,41139.6325,35946.9652,38339.6745,5750.522,50081.3574,44490.248,55790.484,-554.1444,-1399.7108,24981.6924
55331.8709,27207.7471,53245.0229,41123.3604,35922.6018,38330.1973,5741.4472,50057.1281,44475.1382,55781.2303,-575.7809,-1417.6816,24972.9306
55319.8457,27202.785,53242.6536,41119.203,35919.0702,38329.8844,5741.6707,50052.166,44463.3365,55779.7998,-582.7546,-1424.9682,24969.399
55344.6114,27213.9162,53243.6818,41134.4469,35947.1887,38335.6512,5745.247,50077.1105,44483.5424,55786.7736,-564.9179,-1409.5455,24976.6856
55354.5356,27219.7723,53244.8888,41145.3098,35967.2606,38340.7474,5746.9457,50094.9919,44496.5065,55787.6676,-552.4457,-1397.3862,24983.8382
55352.1216,27216.1067,53246.3193,41140.4371,35965.2489,38339.8086,5748.5998,50093.5167,44500.0827,55792.3615,-551.2387,-1398.3697,24988.0403
55335.1343,27207.3895,53242.3407,41122.511,35936.2811,38330.1973,5746.5881,50072.9084,44483.8107,55794.999,-566.2143,-1411.0655,24986.2075
55326.4171,27198.6723,53240.4631,41112.3186,35923.2277,38325.3247,5743.5483,50063.1183,44475.2276,55793.0768,-581.637,-1419.3803,24981.9607
55347.2936,27200.1028,53242.743,41119.1136,35944.1042,38324.2965,5745.0235,50086.1406,44485.1518,55801.8386,-570.6847,-1412.0042,24983.8382
55358.8271,27203.0979,53242.3407,41127.8754,35961.4491,38323.1342,5747.3034,50089.5381,44494.6736,55801.0787,-561.6099,-1404.1364,24986.0287
55352.6133,27199.6558,53242.9665,41127.0261,35956.3977,38319.9155,5750.4326,50082.8326,44497.3111,55803.0456,-563.8003,-1401.4989,24983.57
55330.2169,27195.096,53238.2727,41112.3633,35929.9779,38306.9962,5747.3481,50060.6596,44484.5259,55798.62,-579.0889,-1414.2841,24976.8645
55317.9681,27190.2233,53238.4515,41098.7735,35925.284,38300.3801,5744.1294,50053.0601,44486.8952,55798.4859,-587.5379,-1420.0956,24976.4621
55341.9292,27199.2534,53241.3125,41110.8881,35953.5366,38309.0526,5747.3481,50072.3273,44496.0147,55806.9348,-572.8304,-1406.9527,24982.2736
55357.8436,27203.1426,53242.0278,41124.7909,35977.7212,38317.2333,5752.3996,50090.3875,44510.901,55814.6685,-560.5817,-1391.2618,24986.3863
55353.2392,27195.096,53240.4631,41119.0689,35972.0439,38316.3393,5753.8301,50088.5546,44507.8164,55813.0145,-562.1463,-1390.7701,24986.7439
55333.7932,27191.3409,53242.6536,41105.479,35949.2451,38311.1089,5753.3383,50072.2826,44499.0098,55808.1865,-570.2823,-1400.2919,24983.8382
55332.4968,27193.6208,53243.503,41099.3993,35935.9235,38308.0244,5751.0138,50056.6363,44499.144,55805.5043,-573.8139,-1407.9809,24981.2454
55342.5997,27195.2301,53246.364,41115.2691,35956.8,38313.1653,5754.1877,50076.5294,44513.1809,55812.5228,-562.9063,-1396.6262,24985.8052
55355.8767,27200.7734,53247.3028,41126.4449,35974.7708,38315.9816,5757.2722,50100.2222,44522.8368,55813.5062,-553.5185,-1384.7798,24990.7672
55351.8087,27196.7947,53244.3523,41121.2146,35964.8913,38317.278,5759.1051,50102.8597,44521.1381,55812.344,-560.8946,-1394.704,24989.7391
55333.5249,27189.2846,53242.3854,41111.7375,35946.5629,38313.21,5758.7922,50081.4915,44511.0798,55815.1156,-576.9432,-1409.8138,24985.7157
55330.351,27190.581,53243.7712,41112.721,35940.662,38309.589,5758.1663,50072.3273,44503.1673,55810.4217,-579.0889,-1411.5572,24984.017
55341.3481,27193.6208,53248.6886,41124.5674,35960.1974,38317.3227,5761.6532,50089.851,44510.2751,55815.205,-562.191,-1399.4873,24988.4874
55349.8864,27195.7666,53249.225,41136.8608,35977.2742,38323.2236,5762.4131,50114.1697,44522.9262,55814.2215,-554.3679,-1390.1442,24989.4261
55338.9788,27200.7734,53250.5214,41136.1456,35969.1828,38324.6541,5762.6367,50107.1513,44518.0982,55812.1651,-557.2289,-1392.1112,24989.2473
55318.9516,27200.7734,53252.2202,41118.3983,35942.0031,38320.899,5759.6862,50085.2466,44504.4637,55811.6287,-571.4893,-1403.1976,24984.4193
55314.213,27201.2204,53251.1026,41111.8716,35932.5707,38320.452,5756.5123,50072.1931,44500.4404,55807.2925,-579.7595,-1407.3104,24982.363
55342.5103,27209.4011,53251.639,41131.7199,35957.0682,38331.6725,5761.385,50098.0318,44513.6726,55811.4499,-567.6001,-1394.3911,24988.5321
55355.6979,27214.4079,53248.2862,41136.0562,35977.1401,38336.6346,5761.5191,50115.4214,44523.7756,55813.5062,-558.9724,-1387.2832,24990.1861
55350.0205,27216.509,53250.3873,41132.614,35970.0769,38332.969,5760.2227,50115.3767,44512.3762,55810.1535,-565.9908,-1393.8099,24986.9227
55323.7796,27207.0318,53249.8062,41120.5441,35941.1985,38321.7484,5757.4958,50089.6275,44493.7795,55801.8833,-584.811,-1405.7904,24982.5865
55314.0342,27199.5217,53249.7615,41117.1913,35937.2199,38321.659,5755.7076,50076.7976,44495.2995,55800.0058,-590.2648,-1411.3337,24980.3513
55333.0332,27210.2952,53249.0015,41133.2399,35962.522,38331.1361,5759.865,50103.4856,44510.1857,55807.9183,-565.365,-1393.5864,24987.7721
55347.7854,27212.8433,53249.3591,41145.0416,35979.1964,38340.8815,5763.4413,50125.8373,44519.9311,55812.2545,-551.1045,-1383.4387,24991.7507
55340.1858,27206.8977,53248.5992,41135.6539,35971.6862,38337.931,5760.9826,50122.7528,44521.451,55808.0077,-556.156,-1390.7701,24989.1579
55322.5726,27201.9804,53250.0744,41121.7958,35945.3112,38332.0749,5756.7805,50096.2883,44517.1595,55796.1613,-570.5953,-1406.6398,24984.1511
55311.4414,27195.7666,53250.1638,41117.0572,35932.5707,38327.1128,5757.4064,50086.5877,44510.0963,55795.9825,-578.4631,-1409.2326,24983.8829
55333.3461,27199.2534,53252.7119,41127.9649,35962.8797,38336.3217,5761.2062,50105.0502,44528.0671,55810.3323,-561.0287,-1391.2171,24989.0685
55349.797,27200.7734,53253.8295,41141.51,35982.5492,38339.6745,5764.1566,50125.3009,44539.4218,55814.5344,-543.9967,-1381.1588,24994.2541
55345.9078,27197.4206,53253.6507,41135.475,35972.178,38333.2819,5762.2343,50123.9598,44537.4548,55810.377,-553.3397,-1386.1209,24996.1317
55329.3228,27194.0678,53254.9918,41126.8026,35950.0051,38326.4869,5758.2557,50103.8879,44518.1429,55802.5986,-572.3834,-1404.494,24990.1861
55329.0099,27196.8395,53255.3047,41125.8191,35945.4453,38327.6045,5758.7922,50092.8462,44506.4306,55803.7609,-576.4067,-1409.1432,24987.3698
55348.4559,27200.9969,53254.4106,41132.0329,35963.5055,38334.3548,5757.9875,50109.297,44526.5025,55811.4499,-559.1065,-1390.3677,24990.3202
55359.4083,27202.5168,53252.846,41135.5197,35983.8009,38331.1361,5757.0934,50125.9714,44535.8902,55820.7035,-549.0929,-1382.9023,24993.2259
55349.35,27194.6043,53248.3757,41129.9765,35972.2227,38322.0166,5752.3996,50112.7392,44529.9447,55815.6967,-558.6594,-1390.0995,24986.9227
55336.3413,27181.4615,53241.9384,41112.5869,35944.4171,38309.1867,5746.007,50090.0745,44518.0982,55806.4431,-580.743,-1410.9313,24978.4738
55332.4968,27178.5557,53238.4068,41100.9192,35931.9001,38304.4481,5741.2237,50070.0921,44513.8514,55801.7045,-588.5661,-1420.0509,24973.6458
55353.5521,27186.7365,53240.4631,41111.6481,35957.1576,38313.2994,5747.1246,50090.2981,44526.1449,55811.2711,-571.1764,-1404.0023,24976.0151
55366.1138,27194.649,53246.5428,41126.7132,35986.349,38319.9602,5748.6892,50126.8208,44542.864,55816.7249,-557.2289,-1393.1841,24979.9937
55353.0157,27185.6636,53243.8159,41115.7608,35969.8981,38310.2596,5742.3413,50127.9831,44532.5822,55814.4003,-569.5224,-1400.426,24975.7022
55325.4336,27176.4994,53240.5525,41098.4606,35941.6455,38304.3587,5735.7699,50101.5633,44516.3995,55804.8785,-592.0082,-1421.5261,24965.2416
55310.4132,27173.2807,53241.2231,41095.7336,35927.251,38305.0293,5734.2947,50085.9618,44506.6541,55798.9329,-598.0432,-1429.1257,24963.3193
55330.8874,27175.6053,53241.3572,41106.5966,35947.2334,38311.9583,5734.9652,50111.8898,44522.6133,55802.4198,-580.9665,-1412.1383,24970.3377
55347.7407,27183.339,53240.8208,41110.9328,35969.2723,38315.0876,5738.0497,50136.1638,44531.0622,55805.2808,-567.9578,-1404.0023,24971.7683
55355.7426,27189.8657,53246.0511,41111.0669,35965.7854,38311.9136,5744.0847,50134.6886,44535.7114,55809.7959,-567.9578,-1403.9576,24975.5234
55337.9059,27186.1553,53246.7216,41106.9989,35955.1013,38311.7348,5746.901,50118.4613,44529.3188,55807.2925,-578.8207,-1408.6515,24972.707
55331.6921,27187.0047,53246.1852,41112.7657,35961.1809,38321.3013,5750.4773,50115.4214,44526.6366,55804.8785,-581.0112,-1407.5339,24973.9587
55346.6231,27194.5149,53249.225,41122.2428,35980.4928,38327.1128,5755.35,50136.2532,44541.2546,55807.7842,-563.7556,-1396.8498,24979.6808
55360.66,27199.3428,53250.0297,41130.7365,35998.866,38330.9573,5755.8417,50157.1298,44550.0165,55809.2147,-555.3067,-1390.7701,24980.7984
55348.0089,27199.2534,53246.9004,41125.9532,35989.21,38326.8446,5753.2936,50154.1346,44542.864,55808.6336,-560.4476,-1394.704,24976.328
55330.4404,27190.8492,53245.604,41114.2856,35967.5735,38326.4422,5753.0254,50137.3261,44526.4578,55804.2526,-579.983,-1404.9858,24973.7352
55324.7631,27189.061,53246.0511,41115.5373,35959.1693,38328.7668,5753.5619,50124.4515,44529.9447,55800.9446,-581.2347,-1409.9479,24975.6575
55345.3267,27190.4022,53246.4534,41125.1485,35978.9729,38328.4092,5750.1644,50154.1346,44545.725,55806.2196,-566.2143,-1399.6661,24978.3397
55357.5754,27196.3477,53247.4816,41135.8327,35994.7532,38330.0185,5750.2538,50175.0112,44548.7201,55806.2196,-557.9442,-1390.3677,24981.5583
55342.7786,27198.717,53244.1735,41129.5742,35984.3373,38324.9223,5749.4491,50168.7974,44544.6074,55804.655,-564.1133,-1396.0898,24979.5467
55322.215,27192.1456,53241.2231,41118.7559,35959.4822,38320.7649,5743.5483,50153.5535,44531.4199,55801.1681,-577.8819,-1411.8254,24970.3377
55312.0226,27184.546,53237.3339,41113.0339,35948.2616,38315.6687,5736.1722,50140.6789,44527.5754,55794.999,-589.2366,-1420.2744,24965.1968
55328.8311,27188.4799,53234.1599,41118.0854,35965.0254,38322.866,5736.6639,50157.0404,44542.4616,55800.7658,-576.0491,-1409.5902,24969.399
55345.282,27195.6325,53232.7294,41127.786,35987.3325,38328.2304,5740.7767,50178.9004,44557.2138,55807.7395,-563.0851,-1399.8896,24973.6011
55332.6756,27187.2729,53229.9131,41124.6568,35979.7776,38325.1905,5737.6027,50170.4514,44543.6239,55797.1448,-570.3717,-1406.2822,24967.7002
55313.006,27182.2661,53232.2824,41115.0903,35955.6377,38319.1556,5735.0099,50146.6244,44527.5307,55797.3236,-589.5048,-1421.9731,24963.7216
55315.5988,27178.9581,53230.1366,41105.8813,35940.4385,38315.7581,5729.2432,50124.4962,44520.1099,55796.2954,-597.775,-1428.9916,24964.2134
55336.6095,27187.3623,53232.7294,41120.6335,35964.6231,38324.9223,5732.2383,50145.4622,44534.7279,55801.3916,-579.0442,-1414.2394,24964.9733
55344.969,27195.9901,53234.6517,41129.1271,35980.8058,38325.5482,5735.144,50171.2114,44545.8144,55804.7891,-564.4709,-1403.1082,24967.2979
55339.1576,27192.4138,53230.3602,41124.6121,35968.9146,38320.1838,5733.8476,50162.9412,44542.2828,55800.2293,-572.6963,-1414.2841,24964.9286
55330.6639,27190.3574,53230.1813,41119.203,35953.939,38321.9719,5737.2004,50143.5846,44530.3917,55799.2458,-584.9004,-1421.9731,24964.3922
55331.6921,27189.8657,53235.6352,41116.789,35950.6309,38327.1128,5740.8661,50139.159,44532.8504,55804.4314,-585.705,-1418.7098,24971.1871
55351.6746,27193.9337,53239.0326,41124.2545,35969.0487,38333.5054,5744.3976,50159.9461,44552.1176,55807.3372,-570.327,-1404.0917,24975.6575
55366.6949,27199.7005,53245.4699,41136.5479,35989.2547,38339.7639,5746.5434,50181.672,44560.8348,55808.4995,-559.8217,-1393.5864,24976.4174
55361.4646,27199.5217,53243.6371,41128.2331,35978.7941,38334.4889,5744.6659,50186.3658,44553.0564,55810.1088,-569.8353,-1400.2472,24971.8577
55344.6561,27194.4702,53240.7761,41115.0455,35957.6494,38329.1692,5739.972,50165.2658,44537.1419,55801.6151,-585.0345,-1415.0441,24967.2979
55335.0002,27188.7034,53245.2464,41109.7258,35944.5065,38334.2654,5741.3131,50158.2474,44532.761,55803.895,-587.3591,-1419.2015,24970.1142
55350.4676,27191.2515,53245.2911,41116.6549,35959.3928,38338.0204,5741.179,50178.1404,44546.6638,55806.5325,-577.6584,-1405.3881,24974.3164
55378.8543,27198.6276,53246.2746,41127.2496,35990.5958,38345.8436,5743.1012,50190.3892,44567.7638,55811.5393,-563.7556,-1391.3959,24978.2503
55371.0759,27199.9687,53244.8888,41125.8191,35979.867,38343.206,5743.8165,50181.8955,44563.1593,55806.3984,-565.9461,-1401.3201,24974.227
55351.4063,27189.5081,53241.1337,41114.1962,35955.5036,38334.4889,5742.6989,50167.501,44546.9767,55798.7988,-585.5709,-1417.4581,24968.2814
55337.0118,27178.9581,53240.4631,41107.6695,35940.3491,38332.1643,5739.6591,50158.8732,44543.6239,55793.8814,-592.8129,-1423.7612,24967.6555
55352.1663,27186.4682,53244.2182,41119.2924,35960.5104,38338.9145,5743.5036,50182.1637,44561.8629,55807.8736,-576.0044,-1410.7972,24975.9257
55362.8057,27190.3127,53241.2231,41128.9036,35975.6202,38338.0651,5743.1012,50202.8614,44571.1166,55813.8639,-563.5768,-1398.325,24980.4407
55356.4578,27183.5178,53237.3339,41131.3623,35968.6017,38333.7736,5740.2402,50186.8576,44563.3829,55809.17,-569.0753,-1403.5106,24977.7585
55342.4656,27173.996,53237.4233,41118.8453,35944.0148,38327.6045,5738.9885,50170.6749,44551.9835,55806.2196,-587.2697,-1415.6252,24974.1375
55340.1411,27173.5042,53242.5195,41117.4148,35936.2811,38326.934,5739.6591,50170.3173,44548.586,55808.9912,-590.3989,-1419.6485,24976.5962
55351.8981,27173.9513,53240.329,41130.2,35952.0614,38332.4325,5736.798,50190.568,44558.1079,55811.4946,-575.2444,-1406.8633,24979.6361
55365.8456,27172.6996,53238.3174,41136.682,35972.0439,38340.9709,5737.5133,50204.7837,44568.0767,55815.9202,-563.7109,-1393.497,24980.396
55363.2975,27180.3886,53239.882,41133.4187,35969.1381,38346.9164,5741.3131,50200.8051,44563.2935,55816.9037,-561.3416,-1397.2074,24985.224
55352.0769,27179.8521,53244.4865,41122.7345,35950.2286,38346.6035,5744.0847,50179.1239,44553.3246,55814.4003,-570.6847,-1405.6116,24985.9393
55348.2771,27179.6733,53249.2697,41119.5159,35956.4424,38344.3236,5745.1576,50165.4446,44554.1292,55813.9533,-572.9645,-1404.6282,24985.8052
55360.4364,27176.1864,53245.2017,41126.892,35970.7028,38345.8436,5742.5201,50192.7137,44567.2274,55816.0543,-559.9111,-1392.1559,24988.6215
55365.2197,27176.6335,53242.6089,41129.7977,35976.6036,38347.14,5736.8428,50211.6233,44572.4577,55816.0096,-550.6128,-1386.8362,24986.878
55355.4744,27177.3934,53240.6867,41126.6685,35967.3053,38340.6579,5735.7252,50205.7672,44562.1759,55809.3041,-561.4758,-1395.5981,24980.1725
55332.7203,27167.3352,53234.6964,41112.4974,35943.3442,38326.5316,5729.1985,50176.4864,44547.3343,55798.7988,-585.4815,-1413.1218,24973.8693
55319.041,27156.651,53234.2941,41106.8201,35937.9798,38325.1458,5727.1421,50166.2493,44547.9602,55801.6151,-591.74,-1415.2676,24972.707
55339.694,27163.3118,53236.3951,41122.511,35959.3034,38333.5054,5728.7961,50190.8809,44557.8396,55806.5325,-576.7196,-1406.908,24972.8411
55357.1731,27168.4974,53238.0939,41124.6568,35968.0206,38339.1827,5732.0148,50212.6962,44562.3547,55812.2098,-568.0025,-1400.1578,24973.7799
55357.3519,27180.6568,53246.2746,41124.478,35961.1809,38341.3732,5735.904,50216.496,44564.3663,55821.8658,-569.5671,-1402.9741,24975.6575
55351.6746,27185.9318,53250.2085,41128.5013,35953.4025,38345.933,5742.6095,50205.4095,44556.8562,55812.4781,-573.3222,-1412.0489,24972.8411
55347.1148,27191.1174,53254.7683,41129.4401,35952.2402,38348.8387,5748.5551,50195.6642,44562.1312,55812.791,-572.3834,-1408.4727,24978.4291
55365.8456,27200.5498,53258.2551,41142.8064,35972.5356,38360.0146,5755.5288,50224.0062,44577.5986,55820.1671,-553.1609,-1389.4737,24987.5933
55376.7979,27205.0202,53257.2716,41148.9308,35981.4763,38360.2828,5757.4958,50248.9954,44593.3342,55826.7385,-542.9685,-1380.7118,24990.8566
55373.2663,27208.5965,53255.707,41143.6558,35984.3373,38356.93,5754.8136,50242.424,44597.4469,55827.9008,-547.4389,-1386.4338,24993.2259
55357.1731,27200.684,53254.5447,41136.3691,35961.0915,38351.7444,5750.3432,50219.9382,44575.2293,55819.5859,-564.4709,-1400.8284,24990.2755
55342.2868,27194.4255,53253.2036,41122.4663,35945.3112,38345.7094,5748.421,50205.0072,44571.1166,55820.3012,-579.223,-1404.2705,24986.2969
55362.761,27205.7801,53251.0579,41138.5149,35973.4297,38354.7395,5751.9078,50227.4483,44591.859,55825.8891,-562.4592,-1391.1277,24990.7225
55376.5297,27207.9259,53248.018,41144.9969,35991.3111,38351.7444,5750.9691,50243.5416,44589.7579,55828.5713,-549.8081,-1386.3444,24989.292
55361.8222,27199.477,53242.2513,41130.3788,35972.6697,38339.8086,5746.0964,50233.6174,44582.2924,55822.894,-563.8003,-1395.0169,24980.5748
55329.3228,27185.0377,53232.5506,41115.3138,35940.6173,38325.9058,5737.6474,50206.3036,44563.7405,55810.1535,-589.0578,-1416.9216,24969.1308
55317.2082,27175.7394,53226.5604,41112.9892,35929.5309,38318.038,5731.7466,50198.9722,44554.2634,55805.102,-594.1987,-1429.2598,24963.1852
55337.1459,27175.0689,53226.2474,41122.6451,35947.4123,38322.106,5731.076,50215.8254,44563.7852,55804.4761,-582.1288,-1419.6932,24966.4038
55347.2042,27172.1631,53221.1959,41123.8968,35959.7504,38320.6755,5726.561,50232.321,44567.4509,55805.5043,-571.9364,-1414.0159,24969.399
55328.1158,27166.0835,53218.9608,41116.6102,35952.9108,38313.7017,5721.9565,50222.8886,44556.6326,55799.6035,-575.7362,-1422.3754,24963.6769
55316.627,27165.2788,53227.9015,41112.4974,35933.6883,38316.1604,5730.4502,50204.3813,44549.4354,55808.1865,-587.1356,-1423.4483,24967.6555
55323.109,27167.8269,53235.3222,41108.3847,35924.9264,38318.1721,5736.2616,50203.9343,44560.2983,55824.1457,-589.7284,-1420.8555,24971.0977
55348.59,27177.7064,53242.3407,41119.5159,35948.351,38326.7105,5743.1012,50229.5494,44578.9397,55832.0582,-572.6069,-1401.7224,24980.396
55361.2411,27188.2564,53243.95,41133.7316,35970.9263,38329.5268,5743.4142,50251.767,44589.445,55831.7006,-563.1745,-1393.1841,24986.2075
55350.4229,27193.5314,53245.3358,41132.0329,35969.2276,38327.6939,5743.9953,50242.6922,44590.1155,55830.2701,-568.9412,-1397.8332,24984.7323
55329.5463,27188.9269,53248.778,41117.8619,35943.9701,38321.5249,5744.4423,50222.1733,44580.6831,55823.5198,-579.6254,-1408.6068,24981.8265
55321.3656,27177.7064,53248.5545,41107.9824,35934.6718,38322.1507,5743.9059,50209.567,44574.6481,55821.6423,-584.0957,-1414.0159,24978.742
55343.6726,27180.7909,53255.1706,41119.7394,35959.9292,38333.1478,5747.5269,50230.9799,44591.4567,55832.3264,-573.0987,-1403.6,24983.2571
55359.6318,27189.2846,53254.5,41133.5081,35984.9185,38343.5637,5750.0303,50253.1528,44600.3973,55839.3449,-561.7887,-1392.6923,24986.5204
55352.5686,27190.2233,53249.6274,41135.0727,35977.5871,38343.2955,5752.5337,50254.2257,44597.2234,55835.5004,-561.4311,-1394.5699,24984.1511
55333.7038,27186.7812,53251.9072,41125.7297,35954.4307,38337.7522,5752.9807,50231.6952,44586.4052,55833.5781,-574.7527,-1405.9246,24982.4524
55324.7184,27191.2515,53255.4835,41123.718,35949.111,38331.762,5753.9195,50223.6038,44580.8172,55834.7851,-583.4252,-1411.0208,24981.1113
55344.1197,27198.27,53254.5,41136.5479,35970.3451,38337.2158,5755.0371,50250.8283,44593.2448,55835.9027,-570.9082,-1399.5767,24984.8217
55355.5638,27197.063,53254.5894,41138.8725,35987.1536,38336.724,5755.797,50272.6436,44604.063,55841.133,-559.0618,-1393.1394,24987.7274
55347.1148,27190.268,53252.2649,41131.1835,35975.3072,38332.3878,5754.1877,50256.148,44598.1622,55837.6908,-568.3154,-1397.0286,24986.8333
55332.5862,27181.0591,53254.9918,41125.3721,35947.8146,38330.5997,5755.8417,50228.5659,44584.4829,55833.2205,-584.7216,-1406.9527,24981.4689
55328.2499,27181.4615,53254.5447,41123.8521,35937.5328,38328.2304,5753.6513,50219.4911,44578.4479,55826.1573,-587.0461,-1412.0042,24979.1443
55348.4559,27188.7481,53257.8975,41131.9435,35965.696,38332.7454,5753.9195,50240.01,44592.0825,55826.8726,-568.8965,-1398.1462,24986.4757
55361.1517,27190.3574,53261.9655,41139.4089,35989.1653,38337.0817,5756.4229,50262.7194,44607.2817,55835.9027,-557.2736,-1385.4504,24991.2143
55357.5754,27189.6869,53264.2901,41138.202,35980.5375,38331.2702,5754.5006,50251.9011,44600.3973,55837.8696,-561.5205,-1394.2569,24990.5437
55344.1197,27189.061,53264.156,41131.3623,35962.1197,38325.4588,5753.0701,50231.0693,44589.9814,55829.0631,-574.8868,-1406.5951,24984.5982
55334.0167,27184.0096,53259.0151,41122.1087,35947.457,38321.8825,5753.0254,50225.1685,44578.135,55824.4139,-581.1006,-1413.5689,24977.4903
55351.4063,27192.3691,53260.2668,41138.7831,35969.4511,38332.969,5756.7358,50254.494,44590.0261,55831.03,-565.2308,-1401.4542,24983.3912
55360.66,27197.4206,53259.1045,41146.8297,35985.6784,38339.451,5755.4394,50280.6902,44603.5266,55839.0766,-556.156,-1393.2735,24985.5369
55349.3053,27194.1572,53255.4388,41146.6062,35986.1702,38343.3849,5755.1712,50281.7631,44602.1408,55833.9357,-559.777,-1397.6991,24982.8994
55337.1459,27189.1505,53257.0481,41138.3361,35960.6892,38343.6978,5756.6017,50269.112,44595.2117,55831.03,-571.087,-1404.9411,24982.363
55323.8243,27184.9036,53254.2765,41132.0329,35944.6406,38337.8416,5753.1595,50265.6698,44595.2564,55831.8794,-579.2677,-1409.7244,24979.949
55335.9389,27195.9454,53256.9587,41142.4041,35968.7805,38342.5355,5756.11,50285.4288,44611.2603,55838.7637,-559.0171,-1392.4688,24986.9674
55352.4792,27199.7899,53257.9869,41156.1728,35986.2149,38346.1565,5758.4345,50296.7387,44615.9095,55842.2953,-546.7236,-1384.0646,24988.6215
55349.5288,27190.9386,53257.4058,41152.9541,35979.4199,38338.4675,5756.9593,50289.5415,44605.2253,55838.5402,-557.6313,-1390.5913,24987.0569
55320.2033,27172.7443,53250.4767,41135.2962,35953.4919,38328.2751,5751.8184,50260.1266,44593.5577,55830.0912,-578.1949,-1408.0703,24980.7984
55312.4249,27164.0271,53245.3358,41132.9716,35943.1654,38329.9291,5747.661,50237.8643,44585.2429,55828.6607,-584.7663,-1411.3337,24976.1939
55332.1391,27174.1748,53246.2746,41144.684,35963.0138,38340.5238,5749.8962,50255.0304,44599.7268,55828.5713,-569.2989,-1398.9508,24980.9772
55344.4326,27182.2661,53243.95,41153.0435,35980.5375,38344.4577,5753.0254,50281.8078,44606.3876,55835.098,-557.1842,-1388.222,24982.9888
55342.5997,27184.1884,53249.3144,41152.9541,35974.592,38345.4859,5751.2373,50279.1703,44606.2535,55833.0864,-558.7488,-1396.6262,24979.3679
55325.7912,27183.786,53250.1638,41139.2301,35951.3909,38342.7143,5745.6493,50266.1616,44592.3954,55824.0116,-574.5292,-1412.4066,24972.8411
55323.1537,27189.821,53247.4816,41134.1786,35938.8739,38337.0817,5742.6542,50257.1315,44577.3751,55817.7084,-581.8605,-1418.0839,24972.9753
55340.454,27202.4274,53250.6108,41142.3147,35957.8282,38343.4296,5744.5318,50278.4103,44590.0708,55827.6325,-572.9198,-1406.3269,24979.5914
55366.382,27208.7306,53253.4271,41148.9308,35976.4248,38351.3868,5745.0235,50310.5968,44605.8512,55834.5616,-564.1133,-1395.5086,24984.7323
55363.6104,27207.0765,53252.9801,41141.957,35966.2324,38348.5705,5742.5201,50304.5619,44599.8162,55829.823,-576.4514,-1400.1578,24982.4971
55352.211,27204.9308,53256.2882,41137.9784,35949.9604,38350.2245,5741.3131,50280.5561,44591.3225,55826.5597,-579.0889,-1408.2491,24979.949
55350.3335,27200.4157,53253.3377,41134.268,35940.7514,38351.6997,5741.6707,50270.9001,44585.9581,55821.9552,-584.811,-1416.4746,24978.9208
55367.6784,27200.4157,53253.8295,41141.6441,35961.7621,38356.7512,5740.3743,50277.6951,44591.7696,55816.5014,-573.0987,-1406.5504,24977.8032
55379.9272,27205.0202,53257.0481,41151.613,35984.7844,38364.7084,5747.8845,50297.7669,44604.2866,55821.687,-552.1774,-1391.843,24985.4922
55371.657,27197.3312,53254.9471,41149.6907,35978.9729,38360.2828,5746.5434,50294.4589,44598.341,55822.5363,-558.4359,-1396.358,24985.224
55348.9923,27189.0163,53251.8178,41130.0212,35953.9837,38352.862,5744.3529,50264.4181,44580.5043,55817.5296,-579.6254,-1412.183,24979.5914
55337.2353,27184.0543,53250.2979,41120.5441,35940.5279,38350.1351,5748.3315,50250.56,44566.4227,55815.4732,-582.7993,-1417.5475,24980.2619
55338.8,27187.4517,53249.3144,41129.3954,35952.3296,38348.3917,5752.6678,50263.6135,44566.378,55822.894,-569.0753,-1400.5154,24985.3581
55339.9175,27196.4371,53252.3543,41139.5878,35968.6017,38347.14,5757.0487,50271.526,44571.206,55826.5597,-555.3067,-1392.4688,24990.8566
55331.6474,27192.1456,53255.5282,41137.5314,35972.9379,38341.7755,5759.1945,50253.1081,44566.5568,55825.4421,-560.7605,-1392.5135,24989.2473
55310.3685,27186.7812,53253.606,41124.2545,35953.1343,38329.1245,5755.7076,50220.4746,44545.5462,55819.8541,-575.5126,-1405.2093,24985.5816
55295.6164,27191.475,53255.1706,41119.4712,35944.9983,38325.5482,5759.5074,50199.8216,44536.3373,55819.72,-578.7313,-1407.1316,24982.9441
55310.4579,27199.7005,53255.3047,41129.0377,35971.4627,38328.2304,5766.0788,50211.9809,44538.8854,55821.3741,-564.8285,-1393.944,24986.9227
55323.5114,27209.3564,53251.2367,41135.788,35987.7795,38330.3761,5769.3422,50217.3007,44539.3324,55825.2186,-553.5185,-1387.2832,24985.8052
55316.8952,27215.1679,53254.1871,41136.1903,35986.9301,38330.1526,5776.0477,50200.1792,44529.7658,55832.684,-554.6808,-1389.116,24987.5933
55295.1247,27213.3797,53253.0695,41121.8405,35954.5201,38318.0827,5771.2644,50164.3717,44507.1906,55823.6986,-575.8256,-1408.5621,24981.603
55289.492,27209.5352,53254.6788,41118.4877,35944.6853,38316.2946,5767.7776,50141.1259,44498.6969,55817.7531,-583.4699,-1414.4182,24979.949
55301.9196,27215.6596,53255.4388,41132.7481,35968.4676,38323.76,5773.3655,50159.2308,44511.6162,55821.5976,-566.4825,-1401.186,24986.2075
55312.7378,27225.7179,53254.9918,41141.1524,35978.7941,38328.4986,5776.5394,50161.0637,44512.3762,55824.101,-553.7421,-1391.9324,24990.1861
55304.6018,27224.5556,53252.846,41133.8657,35965.5619,38321.5249,5774.9748,50142.7799,44500.9321,55818.3342,-558.3912,-1400.8284,24983.9276
55286.8992,27219.9959,53253.0695,41128.9483,35945.1324,38314.1488,5773.0973,50114.9744,44491.1867,55811.7628,-574.6186,-1414.5076,24979.4573
55274.2481,27215.8831,53252.846,41125.685,35932.9283,38319.1109,5772.8291,50097.4506,44481.799,55802.9115,-581.9947,-1420.1403,24977.3115
55293.56,27220.6664,53254.4106,41140.9736,35955.4589,38326.934,5778.7299,50108.2689,44494.4054,55806.3537,-559.5535,-1399.7555,24982.0054
55308.2228,27228.5789,53254.9471,41150.8977,35975.6202,38333.9077,5780.6522,50122.7081,44505.0895,55811.0923,-549.2717,-1386.2997,24986.7439
55296.5552,27227.2378,53255.1259,41147.2768,35969.2276,38331.7173,5779.0875,50116.8072,44497.4452,55807.2031,-557.9889,-1392.6029,24983.6594
55280.9089,27211.5916,53251.3708,41132.167,35942.4502,38320.3179,5774.1702,50085.9171,44477.0157,55800.3187,-572.6516,-1406.4163,24977.6691
55277.0197,27210.6975,53254.5,41134.9833,35933.733,38320.6308,5775.8689,50067.4993,44474.4676,55797.5471,-573.501,-1410.4843,24978.1162
55290.8778,27217.5819,53257.9869,41148.6179,35953.0449,38328.4539,5781.5462,50078.6752,44489.7115,55805.3255,-558.4359,-1396.358,24985.2687
55303.5289,27218.7442,53258.121,41153.9823,35962.8797,38330.5997,5778.5511,50087.3029,44489.7115,55807.516,-553.6526,-1388.2667,24983.9723
55297.4939,27212.7539,53252.7566,41144.7287,35948.351,38321.2119,5771.5774,50071.2991,44475.8534,55797.2342,-562.7275,-1400.0237,24977.088
55282.9206,27201.2204,53250.432,41139.0513,35931.9448,38313.97,5769.8339,50047.9639,44464.8117,55784.9854,-575.6021,-1413.703,24974.3164
55276.528,27194.8725,53249.0462,41133.7316,35919.0702,38309.4996,5765.5424,50044.6558,44465.3928,55787.4888,-583.3358,-1422.2413,24973.6905
55297.1363,27199.164,53245.604,41138.7384,35939.9468,38316.3393,5763.486,50059.8103,44466.8233,55792.8085,-569.8353,-1413.3453,24974.9869
55306.524,27203.9026,53244.6653,41147.8132,35955.146,38326.2634,5761.385,50069.8686,44469.9526,55795.0437,-555.6643,-1400.2919,24978.5185
55303.3054,27204.9755,53246.2746,41145.6227,35946.3394,38323.8941,5762.8155,50064.7724,44476.7475,55795.5354,-558.9724,-1405.2093,24980.3513
55283.2782,27203.3662,53244.9782,41127.1155,35917.2821,38314.0594,5762.1896,50047.2039,44470.1761,55792.0486,-572.9198,-1417.1451,24976.0598
55281.4454,27200.2369,53245.2464,41122.6898,35898.5513,38311.3325,5762.592,50035.8939,44467.2704,55789.0981,-577.9713,-1418.3968,24975.1657
55316.7164,27204.5285,53246.2746,41139.1407,35919.6067,38319.7367,5763.1731,50054.8929,44484.1683,55794.5073,-566.8849,-1400.5154,24979.7702
55336.6989,27209.9376,53245.6934,41145.2204,35934.18,38322.106,5764.3354,50074.3389,44491.4997,55797.4577,-559.777,-1393.7205,24984.7323
55318.7728,27208.06,53245.5593,41138.8725,35929.0391,38316.071,5760.8932,50058.4245,44487.0293,55800.0058,-564.158,-1401.0519,24984.8664
55299.8632,27200.2369,53245.7829,41127.0261,35911.1577,38308.3373,5761.0273,50032.4965,44471.1149,55793.7026,-577.3902,-1414.7311,24979.1443
55305.5406,27195.7219,53246.0064,41121.4828,35904.4075,38300.0672,5761.4297,50023.4216,44463.6941,55790.7522,-578.4184,-1420.8555,24976.5515
55326.283,27194.9172,53246.7216,41124.2545,35924.6582,38305.4316,5761.6532,50034.1952,44480.8602,55797.1001,-566.2143,-1410.9313,24980.0384
55338.8894,27200.1922,53245.4252,41126.4449,35943.523,38309.9467,5758.8816,50049.9755,44490.6056,55800.3634,-557.9442,-1405.6563,24980.3066
55332.6756,27200.4604,53241.3125,41125.3273,35936.147,38307.5774,5756.3782,50048.1874,44477.4628,55799.5588,-563.4427,-1411.9148,24976.7751
55317.1188,27197.7782,53244.4865,41112.8551,35906.7321,38304.4034,5757.2275,50034.4187,44471.4278,55796.5636,-579.223,-1419.2462,24974.5846
55303.1713,27188.3011,53240.9102,41104.8532,35894.7963,38299.5307,5753.2489,50027.445,44470.4443,55793.345,-588.0296,-1423.1354,24971.7683
55322.0361,27192.8608,53243.3689,41118.1301,35923.0042,38307.2197,5755.4841,50055.1164,44485.2412,55797.9047,-572.0258,-1407.4445,24978.6079
55338.4423,27194.8725,53245.8276,41128.2331,35938.6951,38311.8242,5757.5405,50078.854,44497.6687,55802.3304,-559.1959,-1400.3366,24982.4077
55330.5745,27189.7316,53247.7945,41131.1388,35932.3919,38307.8456,5760.4015,50068.5275,44492.7514,55799.2458,-555.9325,-1400.6048,24982.81
55315.2412,27178.1087,53248.2415,41128.0543,35912.4541,38303.1517,5760.2674,50042.1077,44474.2441,55793.1215,-567.6448,-1411.1996,24980.7984
55306.3005,27174.5324,53248.8674,41118.6218,35903.2005,38296.4909,5758.5239,50038.9785,44473.8418,55797.4577,-574.8421,-1420.2297,24979.9043
55316.4482,27182.132,53247.3475,41125.7297,35925.2393,38300.7377,5760.0886,50056.8599,44485.5988,55803.4927,-559.2406,-1407.3551,24984.2852
55335.8495,27192.7267,53249.1803,41142.5382,35944.9983,38308.5608,5768.1352,50072.6402,44499.5016,55808.4995,-543.2367,-1392.1112,24991.259
55328.384,27193.7102,53246.0064,41136.5479,35932.079,38311.1537,5768.5822,50061.0173,44494.8971,55806.8007,-550.7916,-1398.772,24988.7109
55307.5969,27194.2466,53244.7994,41126.8026,35908.6543,38310.1702,5765.6318,50039.8278,44487.1634,55805.1914,-567.7789,-1413.0771,24986.2969
55298.2986,27195.5878,53245.3805,41125.5062,35911.6942,38313.2994,5763.2625,50044.03,44479.4744,55802.7327,-574.7527,-1414.8653,24984.6876
55313.8107,27201.8015,53247.6157,41129.5295,35933.0624,38320.6755,5767.3752,50072.5061,44487.834,55807.3819,-560.8946,-1403.1976,24985.0005
55327.3559,27208.9541,53250.6555,41140.1242,35951.972,38322.866,5766.3471,50093.5167,44495.8359,55812.6569,-550.881,-1397.2521,24986.431
55314.3471,27214.3632,53248.8674,41136.995,35943.7019,38316.4287,5761.5191,50085.7383,44487.3869,55808.41,-560.6264,-1405.5222,24979.5467
55295.7058,27209.7141,53243.6818,41124.5674,35923.7194,38305.6551,5754.8136,50072.4167,44474.11,55797.7259,-583.1122,-1422.6437,24971.5447
55286.4522,27198.7617,53244.9335,41117.3254,35905.7486,38304.7163,5751.5055,50068.2592,44466.1081,55789.9922,-591.8294,-1431.7632,24968.5943
55313.4978,27214.095,53244.9335,41137.0844,35931.2743,38317.4121,5756.1547,50084.7995,44479.9215,55797.5918,-573.3669,-1416.9663,24974.4505
55335.179,27223.3486,53245.4699,41148.2602,35952.3743,38333.6395,5756.8699,50103.6644,44503.5249,55802.1069,-557.8101,-1404.0917,24979.2784
55334.3296,27221.337,53246.4087,41144.371,35952.0614,38340.0768,5755.0371,50105.0502,44508.5764,55798.7094,-562.6827,-1404.8964,24980.709
55312.9166,27210.6975,53246.4534,41126.3555,35930.7826,38331.9855,5754.143,50086.8112,44495.1653,55792.3168,-576.7643,-1413.1665,24974.8528
55309.6533,27205.8696,53241.2231,41125.0591,35928.1003,38332.2984,5752.1313,50082.3855,44488.7727,55789.0981,-581.4135,-1419.2909,24971.7683
55333.7485,27214.2291,53245.3358,41135.2962,35951.4803,38341.2838,5756.1994,50108.5371,44504.3743,55792.2274,-564.5603,-1403.8235,24979.0102
55351.8981,27217.5372,53249.8956,41140.2136,35963.8631,38343.2508,5759.0157,50130.2183,44518.3665,55803.7162,-548.467,-1391.1724,24986.0734
55342.5997,27208.6859,53247.571,41127.3837,35952.1061,38332.8348,5755.7076,50128.2513,44512.5103,55809.6617,-558.7488,-1400.6048,24985.4475
55317.2082,27201.6674,53244.8888,41118.2642,35933.286,38323.4024,5754.143,50107.196,44502.1838,55803.7162,-572.6963,-1416.8769,24980.4854
55315.1071,27196.5265,53246.1405,41124.9697,35928.6815,38321.4355,5753.5619,50095.439,44497.0876,55799.7376,-577.3902,-1418.2627,24978.7867
55335.4919,27196.5712,53247.7051,41135.6986,35953.5813,38317.6357,5752.8019,50114.4826,44505.4024,55806.3984,-567.2425,-1404.8964,24981.0666
55345.282,27200.1028,53244.0394,41137.7102,35970.7028,38314.417,5754.143,50117.3884,44514.5667,55810.6452,-557.2736,-1402.0801,24977.6244
55337.9059,27199.3428,53243.1901,41135.788,35962.835,38314.8193,5755.3947,50104.9608,44510.9457,55805.7278,-562.638,-1408.875,24974.4058
55318.9516,27193.5761,53242.9665,41119.4265,35937.8457,38311.2878,5753.9642,50093.3379,44500.7086,55801.6598,-582.6652,-1421.6602,24970.6954
55314.7942,27192.9502,53243.0112,41112.408,35928.5921,38309.2761,5756.3782,50091.9968,44498.5628,55800.9446,-586.0627,-1422.6884,24973.02
55332.2732,27198.8958,53243.7265,41125.8638,35948.4851,38314.1041,5758.7475,50112.7839,44514.0302,55808.8571,-572.5175,-1412.7642,24977.6691
55341.9739,27203.3662,53244.3523,41131.4517,35964.3996,38312.5842,5756.6017,50126.195,44526.3237,55814.3556,-567.5554,-1404.0917,24983.3912
55333.2567,27203.9026,53244.8888,41121.304,35958.4987,38305.6998,5756.8699,50120.1153,44521.7639,55812.4334,-573.4563,-1407.8021,24985.0005
55313.319,27195.0513,53243.8606,41105.1214,35932.526,38297.7426,5756.6911,50105.5419,44516.4442,55809.17,-586.1968,-1418.6651,24982.1395
55310.6815,27189.8657,53242.6983,41103.1097,35927.698,38296.9826,5756.5123,50100.8928,44512.2421,55808.0971,-591.0695,-1422.6437,24977.3562
55333.8379,27198.4488,53244.5759,41120.2312,35956.6212,38309.5443,5761.2956,50122.8422,44530.8387,55819.72,-572.9645,-1409.2326,24984.017
55340.6775,27207.1213,53245.0229,41123.6733,35972.3568,38313.6123,5761.3403,50134.1969,44537.4995,55823.1622,-564.8732,-1400.426,24985.4028
55333.9273,27204.5732,53245.8276,41119.7841,35965.8301,38311.6901,5764.8271,50130.5759,44535.175,55822.0893,-567.0637,-1404.6729,24984.8664
55316.4929,27194.3808,53244.8441,41110.1729,35938.7398,38309.8572,5765.6318,50112.5157,44520.9593,55812.031,-579.1783,-1416.4299,24980.3066
55306.5687,27192.7267,53247.0345,41100.4275,35927.1169,38304.0905,5761.4744,50105.3631,44511.3927,55808.8571,-588.432,-1421.7943,24975.3892
55319.7116,27198.4935,53247.124,41111.6928,35948.7087,38309.5443,5761.5191,50131.3359,44521.8533,55808.9912,-573.3669,-1407.0421,24977.4903
55334.6872,27202.4721,53251.3708,41129.5742,35969.2723,38318.6191,5765.3636,50149.7537,44531.0175,55818.9154,-559.6429,-1396.1345,24984.9111
55335.4919,27204.7073,53252.9354,41128.2331,35963.4608,38318.8426,5766.8835,50143.8081,44529.6317,55824.1904,-568.226,-1400.3813,24986.0734
55317.6999,27200.1922,53249.1356,41118.8453,35941.6008,38309.142,5762.2343,50117.4778,44514.8796,55811.7628,-587.0461,-1412.5854,24977.8032
55302.5901,27196.8395,53250.7449,41115.5373,35928.0556,38307.1303,5760.9826,50116.1814,44508.0847,55806.5325,-592.5,-1418.0839,24975.4339
55318.2811,27198.6723,53249.4038,41123.6733,35945.4006,38316.831,5762.5473,50132.5876,44521.898,55812.031,-578.5525,-1407.4445,24978.6526
55331.558,27198.5829,53246.7216,41125.9532,35959.2587,38320.7202,5760.5356,50133.0793,44524.3567,55811.584,-570.1035,-1401.0519,24975.3445
55328.6523,27192.1456,53249.6274,41123.0922,35960.4657,38321.0778,5760.9826,50129.3242,44521.0487,55811.5393,-573.501,-1407.8021,24975.6575
55304.9147,27187.7646,53251.5943,41118.89,35940.1703,38320.1391,5764.0672,50117.2096,44518.0982,55806.756,-582.0841,-1420.4979,24975.4786
55302.8136,27185.753,53250.7449,41115.8502,35933.2412,38320.8543,5763.5754,50112.7839,44521.004,55804.2079,-585.4815,-1423.0013,24975.121
55323.8243,27193.9337,53248.5992,41123.8074,35955.8612,38329.4821,5763.1731,50130.3077,44529.587,55808.0524,-573.1434,-1408.3833,24975.4786
55334.5084,27198.2253,53250.5214,41136.2797,35978.3918,38334.2206,5767.2411,50147.1609,44536.8737,55813.9086,-563.5768,-1393.944,24983.3912
55327.7135,27195.7219,53251.3708,41133.5081,35967.8417,38333.7289,5766.4812,50137.9967,44528.5589,55813.7298,-570.2823,-1403.1976,24981.6924
55308.3569,27187.8988,53246.5875,41127.8754,35946.7417,38323.313,5761.8767,50110.7275,44514.3431,55803.135,-585.3027,-1418.3521,24976.1045
55305.8535,27185.4401,53246.9004,41123.7627,35940.1256,38320.8543,5761.832,50102.7703,44506.52,55799.7376,-588.6555,-1422.3307,24972.9306
55321.3656,27188.0329,53246.0511,41128.7248,35963.5055,38328.4539,5760.2674,50122.2163,44521.3169,55805.2361,-575.2891,-1413.9265,24974.1822
55337.593,27189.2399,53249.7615,41134.7598,35973.2509,38329.9738,5760.3121,50138.1308,44533.968,55814.6685,-563.3086,-1404.2258,24976.0151
55330.7533,27186.9153,53250.2532,41136.7714,35969.5852,38329.6162,5762.0108,50135.4039,44532.5375,55813.3274,-567.466,-1408.2491,24971.2318
55316.0459,27180.5227,53251.4602,41124.6121,35946.1159,38317.8145,5761.2956,50113.4992,44518.8135,55804.1185,-585.0792,-1419.5144,24966.8956
55314.2577,27181.4167,53250.3873,41118.443,35932.7942,38316.071,5760.7144,50098.9258,44516.0419,55805.4596,-593.9752,-1422.7778,24966.1356
55327.7582,27187.3623,53247.3475,41125.9085,35953.3131,38326.1293,5761.5638,50114.572,44530.794,55814.7579,-580.8771,-1411.1102,24969.7119
55347.8301,27191.0727,53244.5759,41131.8094,35970.7475,38331.5831,5761.9214,50131.2017,44540.7182,55819.6306,-566.572,-1401.3648,24973.5564
55347.5618,27184.6801,53246.364,41127.8754,35969.4958,38327.5598,5758.8369,50134.778,44537.4548,55819.8988,-572.8304,-1407.4445,24972.8411
55336.3413,27179.6286,53245.5146,41117.9066,35948.6639,38320.2285,5757.3169,50115.8684,44521.2722,55818.6918,-584.2745,-1418.3074,24970.5166
55323.6455,27178.6451,53246.1852,41111.6481,35935.2082,38315.4452,5759.5968,50107.4642,44518.4559,55816.6802,-589.326,-1423.1354,24969.7566
55328.9652,27185.0377,53246.1405,41122.2428,35950.8097,38319.7367,5761.1167,50131.5594,44536.4267,55820.2118,-577.0773,-1411.4678,24975.4786
55343.2703,27191.4303,53247.7945,41128.099,35966.9924,38321.6143,5762.2343,50147.8761,44554.2186,55829.3313,-565.6779,-1401.8565,24979.9043
55335.4472,27190.9386,53249.0015,41126.2661,35962.6561,38317.5462,5763.9778,50147.5632,44551.447,55826.7385,-571.9811,-1405.7457,24977.4903
55326.4171,27188.5246,53247.8392,41120.41,35943.3442,38315.0876,5762.0108,50139.1143,44537.0078,55819.273,-585.1239,-1418.4862,24970.6507
55317.9234,27195.9454,53247.1687,41115.2691,35938.6504,38315.2217,5757.3169,50127.1337,44533.7892,55815.0709,-592.8129,-1424.1189,24967.6108
55329.3675,27200.2369,53250.7449,41127.6966,35963.9972,38323.6706,5759.9545,50144.881,44543.4004,55824.0116,-578.9548,-1408.7856,24974.0928
55345.3267,27204.5285,53252.8907,41133.1058,35980.2693,38326.9787,5761.832,50165.3105,44552.5646,55830.7171,-567.9131,-1401.4542,24977.3115
55348.0089,27198.8511,53248.8227,41133.9551,35973.8767,38322.7766,5759.5521,50163.12,44546.9767,55825.8444,-571.0423,-1407.0868,24976.7303
55331.6474,27185.5742,53244.4865,41120.4547,35943.7913,38312.8524,5752.0419,50138.0414,44530.3917,55813.998,-590.3542,-1418.8439,24971.4106
55319.3539,27180.7909,53247.8392,41111.8269,35934.2247,38312.3606,5751.8184,50129.1454,44535.1303,55813.7298,-591.6059,-1424.2977,24971.5894
55331.4686,27180.5674,53244.6653,41116.789,35952.3296,38315.0876,5750.4773,50152.7041,44546.3508,55815.1156,-575.0656,-1415.2676,24975.0316
55349.0818,27186.6024,53246.2299,41131.7199,35981.1187,38324.6094,5756.0652,50179.258,44561.2371,55820.927,-558.7488,-1400.0237,24980.2619
55336.1624,27184.5907,53245.4699,41130.6024,35976.4248,38324.3859,5757.4511,50173.0889,44561.5947,55829.8677,-562.4592,-1400.3813,24979.6361
55321.4997,27181.372,53241.6701,41116.6549,35950.2733,38322.3742,5757.3169,50148.4126,44544.4286,55820.7035,-577.9713,-1413.1665,24973.0647
55318.594,27185.2612,53241.4466,41115.2244,35936.2811,38323.1342,5756.6911,50144.3446,44535.6667,55811.4499,-586.8226,-1422.7778,24968.9966
55330.9768,27183.2049,53241.0443,41123.6286,35954.0284,38323.76,5755.8417,50172.0607,44553.414,55814.0874,-579.0442,-1415.5805,24971.3659
55339.7387,27185.9318,53240.4184,41129.7083,35974.6367,38326.7105,5754.4112,50190.8809,44574.6481,55821.2399,-570.6847,-1404.4493,24975.3445
55336.2519,27180.9697,53237.8256,41125.2379,35971.2839,38324.2518,5751.9078,50184.4883,44565.9757,55815.9649,-578.1949,-1414.2841,24969.1755
55318.7281,27175.1583,53233.9811,41113.7491,35946.4735,38315.624,5747.0351,50165.087,44548.7648,55806.7113,-593.9752,-1429.4833,24960.95
55308.6698,27177.2146,53236.5292,41111.4693,35937.1752,38312.1371,5747.5716,50158.2474,44539.4665,55804.8338,-596.6574,-1430.8244,24957.9102
55327.937,27182.2661,53236.7975,41126.9367,35968.3335,38320.6308,5754.9477,50183.5942,44548.1837,55815.1156,-584.6322,-1416.9663,24965.4651
55339.7387,27181.9979,53237.8703,41135.5644,35983.3091,38325.9952,5758.3898,50206.4824,44561.5947,55823.341,-572.7857,-1405.5222,24969.6225
55339.1129,27175.8735,53237.4233,41130.0659,35972.4462,38320.4073,5757.9428,50204.2025,44555.1574,55816.7696,-577.6584,-1411.6019,24968.192
55319.801,27175.5606,53239.6585,41125.2826,35955.7718,38319.7367,5756.5123,50181.1802,44549.033,55814.8474,-592.3659,-1420.7214,24967.9238
55318.6834,27177.8852,53242.6983,41128.6354,35951.4803,38321.2566,5760.3568,50169.8703,44556.4985,55816.5908,-594.4222,-1419.1568,24970.6507
55337.4588,27182.132,53243.7712,41136.995,35970.7028,38329.035,5761.8767,50191.6409,44564.8134,55825.6656,-581.3241,-1408.9644,24973.1988
55354.1332,27190.6257,53244.2629,41141.1077,35991.7134,38333.2372,5758.8369,50213.0985,44569.0602,55828.6607,-573.4116,-1403.5553,24973.2435
55347.6065,27184.8142,53238.8985,41138.202,35985.7678,38329.5715,5751.8631,50208.0023,44567.3168,55822.2681,-580.0724,-1410.6184,24969.846
55322.7067,27172.3419,53232.4612,41123.4498,35961.8515,38319.4238,5745.1129,50179.9285,44545.4121,55809.17,-601.083,-1431.5397,24961.71
55319.488,27166.7987,53234.6964,41120.2312,35957.3811,38319.3344,5744.3976,50170.9878,44549.5695,55816.4567,-601.7536,-1432.9255,24964.2581
55332.765,27167.0222,53235.9034,41130.0659,35976.4248,38323.76,5746.8116,50191.5962,44562.1312,55821.4635,-587.672,-1412.4513,24968.5496
55339.1576,27161.5684,53233.4447,41133.9551,35986.9301,38326.5764,5745.6493,50209.2987,44568.8367,55826.9173,-577.4349,-1403.4659,24968.9072
55334.9108,27160.7637,53231.1201,41131.7199,35973.0273,38322.9554,5741.0896,50205.946,44566.1545,55823.1622,-579.8936,-1410.7972,24964.8839
55318.5046,27159.512,53230.1366,41120.3206,35945.8029,38316.1604,5736.9322,50189.6739,44554.0845,55817.306,-594.8693,-1420.185,24959.6536
55313.5425,27156.8745,53230.2707,41114.375,35939.6338,38313.2547,5737.2451,50175.0112,44554.4422,55812.4781,-601.396,-1424.5212,24959.2066
55336.6095,27159.1097,53232.7294,41123.6733,35960.5998,38321.9272,5744.7106,50195.1724,44565.171,55817.9319,-591.2483,-1412.0489,24967.4767
55353.3286,27171.0455,53238.1833,41131.2729,35976.7824,38328.8562,5746.4987,50210.9975,44570.4013,55824.0563,-581.9947,-1399.532,24971.2318
55340.0517,27165.994,53233.7129,41123.1369,35968.3335,38318.0827,5742.2072,50198.3017,44562.1759,55823.5645,-590.0413,-1412.8089,24964.6157
55321.0974,27155.3546,53232.9082,41103.1991,35936.6387,38311.0642,5735.1887,50180.0627,44545.3674,55813.1486,-604.9275,-1433.1043,24956.5691
55315.4647,27155.8911,53234.4282,41104.4061,35931.8107,38313.0759,5735.8146,50189.9868,44546.932,55810.6452,-607.1627,-1433.2831,24958.2231
55341.1692,27167.9163,53239.3008,41126.6685,35956.9341,38324.0283,5742.4754,50214.7526,44571.6083,55822.0893,-586.1521,-1416.6087,24965.5992
55355.072,27171.8055,53237.5574,41132.3011,35979.4199,38327.4704,5743.0118,50232.1869,44581.8007,55826.202,-577.9713,-1407.3551,24968.2814
55349.5735,27175.203,53236.9763,41130.5577,35968.6911,38325.1905,5742.2519,50224.4085,44576.2575,55823.6092,-587.1356,-1413.5689,24963.8557
55338.3976,27174.89,53236.7527,41119.8735,35942.1819,38321.2119,5741.5366,50199.911,44565.0816,55821.4635,-599.0267,-1424.3424,24962.4699
55334.2402,27172.3866,53238.228,41121.617,35939.008,38322.4636,5739.972,50195.7983,44553.861,55816.1438,-600.8595,-1427.9187,24962.5593
55347.0701,27181.8638,53240.9102,41129.5742,35964.8913,38328.141,5744.8,50224.0956,44569.2837,55826.1126,-583.2464,-1410.3949,24965.7333
55359.0953,27186.7365,53241.5807,41137.0844,35983.3986,38334.4442,5744.0847,50249.3083,44587.0757,55835.0086,-572.8304,-1399.0849,24971.0083
55356.0108,27183.8754,53245.5593,41139.3195,35979.9117,38339.2274,5745.694,50235.7632,44585.1088,55832.997,-579.7148,-1401.8118,24973.9587
55338.9341,27172.5208,53243.6371,41125.9979,35960.0186,38327.5598,5741.2684,50209.567,44572.0106,55822.1787,-595.0928,-1418.978,24966.2697
55332.5862,27164.9659,53239.9267,41120.2312,35947.904,38324.9223,5739.4803,50200.9392,44562.9358,55813.998,-603.4523,-1428.768,24960.95
55338.3529,27170.2856,53236.1716,41124.6121,35959.4822,38327.2916,5738.4074,50217.9712,44576.5257,55820.8823,-593.3046,-1419.2015,24963.364
55353.3733,27180.478,53234.9646,41131.7647,35977.4083,38330.8679,5738.4521,50243.8545,44580.5937,55827.0067,-583.9169,-1409.9926,24967.2532
55358.3801,27177.9299,53232.8635,41131.6305,35972.8038,38333.0584,5739.525,50244.838,44574.5587,55825.4421,-587.7167,-1412.7195,24966.1356
55335.3578,27166.307,53230.7178,41125.1038,35946.8758,38327.2469,5738.4521,50218.5971,44567.9873,55816.8143,-594.7351,-1423.3589,24963.811
55318.6387,27157.7686,53226.7839,41119.5159,35937.5328,38324.4753,5739.1673,50211.7574,44562.3547,55814.7132,-601.2619,-1433.0149,24962.5593
55325.7018,27156.3828,53225.8898,41127.6519,35957.1576,38322.9107,5739.5697,50228.0295,44570.6248,55821.1952,-592.6341,-1423.0907,24965.5545
55342.0633,27167.4693,53228.2591,41139.096,35975.7543,38331.8514,5742.5201,50247.7437,44584.7064,55822.7599,-582.6652,-1410.3949,24969.9354
55333.1226,27172.5208,53228.8402,41133.5081,35967.2159,38329.1245,5741.5366,50243.184,44573.7094,55819.273,-582.6652,-1414.6864,24969.5778
55321.902,27167.3352,53228.2591,41127.6966,35948.3063,38323.6706,5737.5133,50227.0013,44559.136,55812.7016,-592.7235,-1424.8341,24967.9238
55315.9118,27162.4625,53230.226,41124.2545,35937.7116,38326.0399,5736.7086,50216.3619,44559.3596,55815.0262,-598.8926,-1426.2199,24965.6886
55336.5648,27167.9163,53233.7129,41129.6189,35958.8563,38333.8183,5743.9059,50238.0431,44577.688,55825.2633,-586.5544,-1416.9663,24970.293
55347.6065,27172.6996,53233.2212,41142.4935,35974.7261,38336.8582,5747.3481,50256.3715,44589.5791,55833.2652,-573.8139,-1409.9032,24971.9471
55342.7786,27175.7841,53236.3951,41144.371,35970.971,38335.2488,5746.2752,50246.6261,44590.4732,55827.8561,-573.4563,-1409.3667,24970.9189
55329.0546,27171.7608,53238.9879,41134.1786,35947.1887,38324.2965,5746.901,50224.5873,44576.1234,55822.9834,-586.4203,-1424.253,24965.0627
55322.8855,27168.0057,53239.122,41126.8026,35940.215,38323.6706,5743.4142,50209.7905,44563.6064,55824.1904,-593.6623,-1428.2316,24964.6604
55336.833,27179.9415,53238.5409,41138.5596,35959.5269,38333.2372,5743.1906,50229.3706,44577.5986,55830.0912,-580.0277,-1415.7146,24967.2979
55353.1051,27181.8638,53236.3057,41144.0134,35969.004,38333.863,5743.2353,50245.8662,44586.271,55830.8065,-572.741,-1408.6962,24970.1142
55344.7455,27180.1203,53237.1998,41139.6772,35958.5881,38325.0564,5742.5201,50244.2122,44577.5986,55828.3478,-580.5194,-1419.7379,24965.8227
55327.2218,27173.0572,53235.9928,41126.8473,35934.6271,38314.2382,5738.4074,50220.9216,44564.8134,55822.4916,-596.7915,-1437.3958,24958.6701
55313.5872,27167.4693,53231.1201,41116.4314,35920.9478,38309.7231,5729.3773,50205.186,44560.4771,55819.3177,-609.0403,-1443.699,24955.3174
55318.4599,27163.3565,53228.7061,41119.0242,35939.1421,38313.0312,5726.6951,50221.8604,44569.5072,55822.4022,-597.8197,-1433.7301,24957.1055
55334.1955,27166.4411,53226.8733,41130.8706,35952.9555,38319.4685,5730.1819,50238.9371,44574.7823,55824.1457,-584.6322,-1422.8672,24959.4301
55331.6474,27158.9756,53226.0239,41125.2379,35948.2616,38319.2003,5728.7067,50237.8643,44562.6229,55827.3196,-593.0364,-1426.4882,24955.0492
55313.8107,27154.5947,53227.6779,41114.0621,35935.4764,38315.0876,5729.8243,50223.6933,44558.9125,55822.1787,-605.0617,-1437.5299,24956.2114
55313.3637,27159.1097,53230.4496,41110.9328,35930.8273,38318.0827,5733.1771,50213.5903,44564.8134,55822.8493,-608.9956,-1440.9274,24958.8937
55332.9885,27164.7871,53235.9481,41123.5839,35956.4871,38328.2304,5738.318,50239.1607,44583.2759,55829.0184,-593.8411,-1423.0013,24966.5827
55351.9428,27170.4197,53240.4184,41138.4255,35975.6649,38336.8134,5744.487,50257.0868,44594.9882,55833.7569,-579.3124,-1406.9974,24973.5564
55344.8796,27172.3866,53239.1667,41131.6305,35955.593,38329.6609,5747.0351,50245.1956,44590.5179,55835.6792,-582.1288,-1413.1665,24969.8013
55318.594,27158.3498,53235.5458,41118.1748,35923.4065,38318.3509,5739.3909,50225.1685,44578.3585,55825.0844,-600.636,-1433.9536,24962.6935
55310.2344,27149.1408,53231.0754,41116.9678,35914.7787,38312.8077,5740.5531,50217.5689,44569.3284,55817.1719,-607.2521,-1438.2005,24957.9996
55332.8097,27157.6792,53229.8237,41127.786,35940.7067,38319.2003,5742.7883,50244.6592,44583.1418,55834.9192,-589.1025,-1420.4979,24965.778
55344.9243,27165.3682,53224.1911,41133.1952,35970.3004,38319.7814,5739.6144,50262.3618,44591.099,55834.4275,-583.8722,-1416.4746,24963.4981
55336.5648,27164.2506,53226.5604,41132.7481,35965.1148,38315.4005,5738.6309,50255.6115,44576.7045,55829.6889,-593.2599,-1423.9848,24959.9218
55320.5162,27154.2817,53228.3038,41118.3983,35944.1042,38311.1984,5733.7135,50229.2812,44564.8134,55819.4965,-608.772,-1440.6592,24954.3339
55317.6552,27155.5334,53227.2756,41111.2458,35933.9118,38311.3325,5732.1936,50217.703,44561.55,55814.445,-612.393,-1448.1246,24953.6633
55337.28,27169.4809,53233.4894,41125.0591,35949.6027,38322.0166,5739.1226,50249.5766,44583.6335,55825.8444,-593.9752,-1429.7068,24959.9218
55345.4608,27177.0358,53236.4398,41135.2068,35972.625,38329.348,5743.8165,50280.9137,44593.7812,55833.9357,-584.6769,-1415.9381,24964.8839
55335.4025,27175.5159,53235.7246,41135.1621,35972.3121,38326.3975,5745.8729,50278.455,44595.5694,55837.3332,-585.9733,-1422.4201,24964.1687
55321.8126,27166.0388,53235.054,41123.4498,35944.5512,38318.485,5739.3909,50247.4308,44580.4596,55827.7667,-603.8994,-1435.8759,24956.3903
55321.3656,27160.5849,53238.4068,41121.8852,35937.041,38318.8426,5743.0118,50226.4202,44577.3751,55822.5811,-609.3979,-1439.2734,24959.6983
55329.0993,27157.7686,53235.2775,41124.7015,35953.939,38321.7037,5744.2635,50250.113,44587.4333,55826.1126,-594.8693,-1425.1024,24963.811
55343.8514,27165.0106,53238.9879,41137.7549,35971.9545,38327.0681,5746.2305,50266.3851,44597.8492,55834.1593,-578.9548,-1413.1218,24970.8295
55336.9224,27168.4527,53242.1619,41136.5479,35963.4608,38327.2022,5744.6659,50261.6018,44596.7317,55834.7404,-582.7993,-1415.2676,24972.7517
55312.8272,27163.0883,53239.6138,41123.5392,35942.4502,38322.866,5744.487,50243.7204,44590.205,55830.3595,-597.775,-1425.0129,24966.8509
55305.9876,27157.3216,53238.8538,41125.3721,35931.4531,38324.2965,5749.6727,50233.2598,44589.7579,55828.3031,-601.9771,-1427.2928,24963.5428
55324.8525,27167.9163,53241.2231,41137.889,35955.593,38329.9291,5754.3665,50267.3686,44604.7336,55835.5898,-584.0063,-1412.6748,24971.2765
55330.351,27170.0621,53239.4797,41145.0863,35977.4083,38339.7639,5753.383,50295.04,44616.7141,55847.2574,-576.8985,-1403.9129,24973.6458
55323.3773,27171.9396,53236.0822,41142.2253,35966.0983,38339.0486,5750.9691,50294.4142,44614.3448,55850.2972,-579.0442,-1411.9148,24974.227
55315.9118,27175.9629,53235.6799,41138.5149,35947.6358,38334.7571,5752.1313,50273.627,44596.0611,55840.4177,-591.6059,-1424.9235,24970.7401
55317.4764,27165.2788,53239.435,41131.4517,35941.5561,38334.5783,5751.5949,50262.1382,44587.8357,55834.9192,-603.0053,-1428.5892,24968.4155
55336.5648,27166.7987,53243.0112,41141.3312,35962.6561,38343.1166,5754.0536,50283.2383,44601.8726,55839.7472,-586.0627,-1413.4794,24975.3445
55348.5006,27172.5208,53243.4583,41148.752,35974.0555,38343.206,5752.489,50286.9934,44610.858,55839.8813,-574.7527,-1406.6398,24976.2386
55339.5152,27171.4926,53239.3456,41139.5431,35960.5551,38329.4821,5747.7951,50270.9895,44610.9027,55838.0485,-583.0228,-1416.6981,24971.4553
55322.1703,27161.0767,53237.9597,41129.0824,35939.0974,38320.0943,5745.6046,50245.9556,44599.8162,55830.7618,-599.3843,-1433.2384,24964.4816
55312.4696,27157.858,53240.8208,41121.3487,35924.8817,38315.624,5744.5318,50238.1325,44590.652,55827.9008,-609.3085,-1439.7651,24960.5477
55335.2684,27163.0883,53242.0725,41131.1388,35939.8127,38321.7037,5743.3248,50262.6747,44597.894,55829.3313,-596.2104,-1425.5047,24965.0627
55356.6813,27175.5606,53242.9218,41138.5149,35960.2422,38331.002,5744.0847,50274.5658,44605.1806,55829.1078,-583.4252,-1413.0324,24965.6886
55349.6182,27182.3108,53242.0725,41142.8064,35962.3432,38331.002,5742.3413,50259.009,44598.5645,55825.7103,-585.4368,-1417.3687,24965.3757
55330.1722,27171.4926,53236.9316,41128.9036,35937.2646,38324.4306,5736.6192,50231.114,44584.1253,55815.9202,-601.7536,-1432.9255,24959.4748
55320.8292,27162.1048,53233.3553,41122.6004,35931.1402,38327.8728,5737.6474,50227.2248,44583.4994,55815.0262,-604.9722,-1433.3278,24959.9218
55337.8165,27171.8502,53235.5458,41136.235,35947.3228,38334.9806,5739.4803,50255.8351,44596.5081,55822.0446,-591.1589,-1421.5261,24967.3873
55352.0322,27174.443,53235.2328,41142.1359,35956.04,38334.3995,5735.3228,50270.5872,44602.6772,55827.722,-583.0675,-1412.5854,24971.5894
55341.5716,27174.2642,53236.5739,41137.9784,35956.7553,38335.7406,5731.4336,50269.4249,44606.7899,55824.1904,-582.844,-1415.6252,24969.4884
55322.7067,27165.7258,53234.5623,41128.9036,35932.8389,38334.6677,5727.9915,50251.32,44590.1603,55819.8541,-596.6574,-1427.7846,24966.0909
55317.2976,27158.1709,53235.8587,41118.0854,35919.9196,38331.1361,5728.6173,50241.6193,44583.0971,55823.2963,-605.1511,-1429.7068,24967.432
55336.4307,27168.408,53239.3456,41134.5363,35952.1955,38343.9213,5738.4074,50268.0838,44590.9202,55827.9008,-582.1288,-1412.496,24972.7517
55345.1926,27166.2176,53240.1055,41150.0037,35969.4958,38347.9446,5743.2801,50279.3938,44605.4041,55830.8512,-563.4427,-1398.772,24975.2998
55337.4588,27157.2769,53239.0773,41148.2602,35963.6396,38346.7823,5744.04,50266.2957,44600.4868,55833.0864,-568.3154,-1403.1976,24976.4621
55313.766,27148.962,53236.2163,41135.028,35945.5794,38335.8747,5739.3461,50247.9225,44573.4859,55826.3361,-592.6788,-1423.8954,24970.293
55300.4891,27148.1127,53235.0987,41128.2331,35934.94,38324.3412,5738.9885,50240.7253,44556.7667,55824.1457,-603.9441,-1434.2666,24966.1803
55308.6698,27153.5218,53233.4447,41132.2564,35948.7087,38325.0564,5744.1294,50242.424,44560.8795,55828.5713,-586.5544,-1424.3424,24969.399
55319.8457,27163.4012,53235.2328,41140.0795,35963.3267,38333.416,5749.2703,50245.4638,44570.9825,55835.5004,-570.8188,-1412.5854,24974.9869
55311.0391,27163.5801,53233.3106,41131.1835,35959.7504,38323.5812,5747.661,50240.2782,44559.5831,55830.0465,-578.1949,-1418.1286,24969.7119
55286.7651,27161.1661,53230.1366,41119.9629,35936.1023,38316.071,5747.3034,50210.014,44538.5277,55815.8755,-600.6807,-1434.043,24964.4816
55271.7894,27162.5519,53229.1085,41114.6432,35928.0109,38311.1537,5749.5832,50184.3542,44525.2061,55811.9863,-608.5038,-1438.6475,24961.5759
55288.5085,27171.4032,53235.1434,41119.203,35940.7961,38312.2265,5754.9477,50193.0714,44541.1652,55820.7482,-590.533,-1424.9682,24968.3261
55305.2723,27183.8754,53242.8324,41135.8327,35964.5784,38323.313,5763.5307,50204.3813,44553.2799,55826.8726,-572.6963,-1412.1383,24976.0598
55290.8331,27190.9386,53242.743,41134.8492,35963.0138,38323.5365,5769.0293,50185.0247,44541.3888,55818.9601,-578.016,-1417.4581,24975.2104
55270.2695,27190.581,53241.4019,41126.579,35941.869,38323.4918,5768.0011,50160.259,44520.3334,55811.2264,-592.0976,-1428.3657,24971.8577
55263.3405,27188.7928,53236.261,41119.5159,35932.7495,38315.4899,5764.7824,50140.5001,44506.7883,55802.7327,-598.6691,-1434.1325,24969.5331
55273.8905,27188.167,53233.1318,41124.478,35951.8379,38312.1371,5764.7824,50145.3727,44508.7999,55802.1069,-587.0461,-1425.6388,24970.4272
55284.4852,27191.3856,53233.1765,41135.8327,35972.4909,38317.6804,5769.0293,50155.6545,44517.2489,55810.6005,-570.5059,-1414.597,24975.7022
55283.8147,27189.8657,53233.7576,41143.5664,35970.0322,38326.3081,5771.7562,50146.0433,44516.6677,55807.6501,-570.1482,-1415.0441,24978.5632
55258.0208,27180.2992,53227.4991,41122.6898,35938.6504,38313.21,5763.1731,50106.5254,44493.1984,55799.5141,-591.293,-1434.1772,24971.4553
55238.3959,27171.5373,53222.4029,41111.2905,35924.2558,38306.4598,5756.9146,50078.6752,44482.3802,55790.5287,-598.3561,-1440.078,24967.7002
55252.5222,27166.9328,53221.6877,41121.1252,35942.6737,38309.3655,5755.8417,50096.4671,44486.7611,55788.8299,-585.3474,-1432.5231,24969.9354
55265.3521,27168.2292,53220.8383,41130.1553,35960.3763,38313.0759,5755.797,50107.5983,44496.7747,55793.3003,-570.6847,-1419.3356,24973.7352
55248.4095,27162.9989,53214.7139,41119.5159,35943.5678,38302.4365,5748.2421,50081.9832,44482.3802,55782.8397,-584.7663,-1430.5562,24963.2299
55231.0646,27153.2983,53211.0035,41107.0883,35911.8283,38294.3898,5741.1343,50044.3876,44461.9954,55770.5462,-604.704,-1445.3977,24955.675
55220.3804,27141.8989,53207.7849,41103.065,35898.0596,38291.35,5737.7368,50023.6005,44450.6854,55762.9466,-610.9625,-1451.6115,24956.6585
55224.1355,27130.6336,53199.9171,41105.2108,35914.287,38289.1148,5734.697,50028.0261,44455.1557,55766.2547,-599.7419,-1442.4473,24953.1269
55235.3561,27124.3304,53197.7713,41109.7258,35928.458,38287.2373,5735.9934,50040.5878,44467.2704,55770.9038,-588.0296,-1433.596,24953.6633
55232.7186,27114.2274,53195.4467,41102.7968,35917.5056,38282.0517,5732.3724,50026.9085,44460.0284,55764.9583,-593.8411,-1437.217,24950.2212
55201.1132,27097.8659,53191.5575,41088.5811,35890.8176,38269.5794,5728.2597,49988.5976,44442.3258,55754.9,-613.4212,-1451.1198,24945.1697
55197.984,27095.8096,53186.4613,41086.0777,35883.4416,38268.3724,5723.5658,49969.7328,44434.6368,55748.4627,-618.9644,-1460.3734,24939.85
55221.8109,27097.1954,53187.2213,41092.2915,35906.4192,38270.8758,5722.18,49994.3197,44448.8525,55754.9447,-604.6593,-1451.1198,24943.5604
55232.3163,27100.0564,53187.0872,41095.9572,35915.7175,38265.7796,5718.1567,50005.4508,44459.2685,55751.5472,-594.7351,-1446.6494,24944.4544
55227.8459,27102.381,53186.506,41094.0349,35904.7651,38267.7019,5718.0673,49994.5432,44449.6125,55749.8485,-597.5962,-1451.1645,24944.9909
55221.051,27097.5083,53188.4283,41085.9883,35884.7827,38263.9915,5719.319,49974.069,44439.1519,55751.3237,-615.5223,-1463.4132,24942.6663
55219.9334,27088.9252,53188.2942,41077.0029,35872.5786,38258.7612,5719.766,49965.2177,44436.2909,55749.5356,-626.3405,-1471.5493,24941.9957
55223.9567,27087.3606,53186.3272,41083.3955,35887.1073,38263.0527,5719.5425,49981.2216,44453.0547,55752.3519,-607.7886,-1462.0721,24946.0638
55240.3629,27089.9087,53188.026,41090.5927,35898.596,38267.8807,5719.2743,49993.8279,44454.9769,55756.3752,-589.2366,-1447.1412,24950.0871
55239.7817,27094.6026,53185.9249,41089.8775,35894.9751,38267.8807,5715.698,49983.8591,44458.6426,55758.521,-591.6953,-1443.8778,24950.4
55228.7847,27089.9087,53180.784,41073.2478,35867.1695,38261.1752,5712.5241,49967.6764,44441.4765,55756.5093,-612.4824,-1455.8583,24945.2591
55222.3921,27088.2547,53182.1251,41071.2808,35856.6195,38256.7048,5709.976,49963.6084,44435.7097,55756.6881,-618.0704,-1460.3734,24946.2873
55238.3512,27094.692,53178.1018,41078.1652,35877.1831,38266.4502,5711.0935,49998.7453,44451.2665,55765.5394,-605.8663,-1446.4706,24951.4282
55262.2229,27109.3547,53181.4545,41094.929,35910.9789,38282.8116,5720.6601,50038.7549,44476.4346,55777.3411,-589.9519,-1429.8409,24959.6536
55268.079,27120.0389,53186.819,41102.618,35915.494,38289.4725,5728.9302,50042.5994,44477.2393,55778.0117,-589.9072,-1434.2219,24960.8159
55253.5504,27117.4908,53191.5575,41097.0747,35885.8109,38286.835,5729.3326,50015.0174,44468.9244,55777.3858,-600.4125,-1446.8729,24954.8703
55245.5485,27110.1594,53191.9152,41085.5412,35879.6418,38280.4424,5727.1421,50002.6792,44462.9341,55773.1837,-607.9674,-1454.0255,24947.986
55257.3502,27113.6016,53192.3622,41090.5927,35901.2783,38281.4705,5724.8622,50018.549,44477.8651,55770.4121,-599.2949,-1442.5814,24950.7129
55266.2015,27121.3353,53195.7597,41103.9591,35923.9876,38283.2587,5726.2927,50034.3293,44489.488,55772.2449,-587.0908,-1433.149,24953.2163
55256.5455,27117.0884,53191.334,41097.4324,35912.8565,38277.4025,5723.2529,50022.4829,44483.7213,55760.9349,-590.8012,-1442.0003,24948.5224
55233.7915,27113.378,53188.2495,41084.7366,35879.8653,38273.9604,5717.1732,50008.5354,44468.075,55760.5326,-611.5437,-1459.077,24944.4991
55219.844,27111.9028,53186.9978,41080.2215,35864.6214,38277.939,5714.3122,50004.825,44459.4473,55762.9466,-618.8303,-1467.3918,24943.3815
55242.8216,27119.0554,53187.8024,41087.0612,35891.4435,38282.2752,5715.7427,50027.4897,44472.0536,55768.5792,-603.1841,-1450.4939,24948.0307
55264.9051,27130.4548,53189.2776,41103.6909,35910.5319,38286.3432,5716.6815,50062.5819,44484.3918,55778.414,-591.6506,-1438.6922,24949.8188
55257.4843,27132.3323,53188.6518,41106.4625,35907.0897,38285.315,5719.3637,50063.923,44482.6037,55776.6259,-596.0315,-1446.3365,24950.4
55232.0033,27132.0641,53188.3389,41100.1593,35890.1471,38282.0964,5721.2412,50043.0018,44473.8418,55769.8756,-613.8682,-1456.6183,24949.7294
55220.1569,27130.0077,53192.2281,41090.548,35874.8138,38279.6824,5721.1071,50042.1524,44473.8865,55767.3275,-621.0655,-1456.7077,24946.8684
55251.5388,27146.1904,53200.8559,41117.5936,35906.7768,38294.971,5730.9419,50076.1271,44496.6406,55774.346,-597.1044,-1438.1558,24954.2892
55277.1091,27162.1048,53204.4321,41135.3856,35934.8953,38308.0691,5734.2499,50101.8763,44509.7834,55778.9057,-579.8936,-1424.9682,24961.1735
55284.7981,27168.1845,53208.1872,41133.9551,35934.0459,38314.0594,5734.0711,50099.5964,44501.0215,55780.5151,-581.1006,-1426.0858,24963.9004
55274.2481,27171.7608,53213.4175,41130.3788,35925.1052,38320.3626,5738.4968,50085.1572,44504.0613,55779.7104,-587.0014,-1431.4502,24965.5545
55274.0693,27172.0737,53216.9044,41128.6801,35918.0421,38327.0681,5741.9837,50081.4915,44510.2751,55780.6045,-589.2366,-1427.8293,24966.1803
55294.7223,27174.1748,53216.8597,41143.477,35933.9118,38340.7474,5741.2237,50105.9443,44529.8553,55790.2604,-568.8965,-1416.9663,24969.0861
55303.1266,27174.7559,53216.1891,41151.7024,35944.5512,38340.6579,5739.4803,50124.0939,44530.4364,55790.2157,-561.7887,-1412.0489,24967.6108
55290.3861,27167.0222,53213.0599,41143.0299,35940.662,38338.9145,5735.6358,50121.9481,44523.6862,55782.035,-570.5506,-1420.0509,24965.6886
55277.288,27163.8036,53218.2902,41127.6519,35926.8486,38335.3829,5738.4521,50114.125,44515.6842,55786.863,-588.2084,-1428.4104,24967.2532
55273.7564,27161.1214,53214.401,41121.3487,35911.8283,38329.9291,5737.2004,50104.0667,44518.0088,55785.3878,-595.7186,-1435.7418,24963.6769
55289.7602,27164.1165,53213.8646,41126.4449,35925.4181,38333.9077,5740.5531,50122.3952,44533.7445,55790.3945,-579.536,-1425.46,24966.7168
55302.9478,27165.6811,53211.9423,41136.2797,35951.0332,38327.1128,5741.7601,50144.9257,44541.1652,55795.0437,-566.7508,-1415.4464,24970.6954
55297.8963,27161.8813,53206.5779,41130.6024,35947.3228,38313.4782,5736.5298,50137.3708,44532.4928,55791.2439,-575.155,-1425.2365,24968.639
55273.3988,27152.7171,53205.6838,41117.7278,35923.3171,38300.1119,5730.1819,50104.4691,44514.7902,55785.3878,-594.0646,-1442.8943,24961.7994
55266.9168,27148.3809,53206.0415,41109.9941,35908.8331,38295.2839,5727.9021,50087.3029,44506.3859,55784.3596,-604.1676,-1448.8846,24956.5244
55286.184,27156.3381,53207.5167,41120.6782,35929.3967,38303.5541,5730.2266,50102.0551,44521.2722,55791.7804,-589.2813,-1435.3842,24960.2795
55304.8253,27168.8998,53211.1824,41128.0543,35960.5104,38313.1653,5738.0497,50124.8091,44535.2197,55800.1399,-574.4845,-1424.6106,24965.018
55293.3365,27173.2807,53215.3845,41124.3886,35953.3578,38309.5443,5741.1343,50124.988,44533.3868,55805.5937,-578.1502,-1428.2763,24963.364
55275.1869,27169.5703,53219.4525,41107.133,35925.0158,38302.8835,5738.1839,50102.1445,44523.4627,55800.6316,-593.4387,-1441.2403,24961.0394
55273.3541,27165.0106,53218.5137,41105.4343,35911.2471,38306.5492,5740.419,50096.4224,44513.8961,55798.3518,-602.5136,-1445.5765,24959.5195
55292.5766,27172.3866,53217.3961,41109.9046,35927.2957,38307.0409,5743.9059,50108.0453,44530.3917,55806.3537,-591.0695,-1431.0479,24964.1687
55312.3355,27180.2992,53215.2057,41120.0076,35956.1741,38310.9748,5746.5434,50128.1172,44539.4218,55805.9961,-581.9947,-1419.2015,24968.8625
55304.6912,27176.5441,53218.4243,41114.5538,35948.351,38309.9467,5746.454,50123.1551,44539.69,55809.0359,-582.9781,-1422.8225,24971.0083
55284.8428,27172.6102,53223.1629,41101.9921,35922.1101,38304.9399,5744.3976,50108.09,44530.2576,55814.7132,-596.2551,-1434.4454,24970.4719
55278.9867,27169.4809,53221.0618,41103.2438,35914.287,38305.3869,5746.0964,50098.9705,44522.3898,55807.3372,-601.8877,-1442.045,24968.192
55301.9196,27178.2875,53222.5817,41113.0339,35934.8506,38315.9816,5749.0915,50121.0093,44536.069,55812.2545,-588.6108,-1427.561,24972.7517
55320.9186,27185.8424,53222.4029,41129.3507,35962.075,38324.2965,5750.4773,50145.7304,44545.5462,55815.4732,-575.8256,-1417.2792,24973.1094
55310.8603,27186.2447,53224.951,41122.6004,35960.2422,38320.2285,5753.4724,50136.1191,44539.5112,55809.9747,-579.0889,-1425.9517,24969.6225
55286.631,27179.9862,53224.3699,41104.9426,35933.1518,38317.7698,5751.0138,50111.5322,44522.3451,55803.0009,-595.0481,-1439.184,24964.7498
55289.4026,27179.3604,53226.6498,41107.8036,35924.6582,38317.2333,5753.383,50102.5915,44518.2323,55799.9611,-595.5398,-1434.9818,24966.5827
55303.8418,27183.6072,53225.4875,41121.4381,35946.3841,38317.7251,5752.0419,50121.0093,44532.1351,55805.102,-581.0112,-1424.4765,24969.6225
55318.594,27187.3176,53229.019,41132.7481,35968.0206,38328.6774,5756.557,50146.9374,44540.9417,55813.3721,-567.6001,-1412.2725,24978.2056
55302.8584,27185.3507,53229.779,41131.8541,35962.4773,38327.1128,5759.6415,50143.4505,44536.4267,55813.9086,-572.294,-1415.5358,24978.9208
55288.8662,27181.7744,53227.8568,41123.9415,35942.1819,38323.1789,5760.625,50135.1804,44522.6133,55811.0029,-587.2697,-1429.3939,24975.881
55280.9089,27178.1087,53226.2027,41118.5324,35936.0129,38323.9388,5759.9992,50129.6371,44524.2673,55804.9232,-591.1589,-1433.8642,24975.2998
55287.3909,27178.2428,53227.6779,41132.7481,35952.9555,38331.6725,5765.2295,50132.0511,44540.897,55808.5442,-574.0374,-1413.0324,24982.9888
55309.9662,27185.0824,53232.5953,41149.1543,35976.7377,38335.8747,5769.6998,50156.0122,44553.9057,55818.2895,-562.3698,-1398.9508,24986.3416
55309.6533,27181.9085,53230.986,41143.2534,35973.832,38338.5569,5767.9117,50150.2007,44548.0943,55818.6471,-562.7722,-1400.5601,24983.7041
55288.4191,27172.029,53228.7955,41126.0426,35946.7417,38330.6891,5763.1731,50125.3456,44542.8193,55807.0242,-580.2959,-1416.1617,24978.2503
55276.7515,27165.6364,53226.7839,41114.6879,35932.1684,38318.038,5756.3335,50116.539,44537.1419,55808.9465,-591.2483,-1425.2812,24971.1871
55289.0003,27176.9017,53229.9578,41123.9862,35945.1324,38321.6143,5754.7688,50138.8907,44538.036,55807.6054,-579.6701,-1414.8206,24970.7848
55306.3005,27181.9979,53230.0025,41136.9503,35963.4161,38325.6823,5756.7358,50161.2872,44549.3013,55812.8804,-570.7741,-1408.5174,24973.467
55301.7408,27179.3157,53223.744,41134.8045,35954.6989,38319.0215,5754.2771,50157.1298,44538.2148,55806.0855,-582.8887,-1420.7214,24967.4767
55283.0994,27170.4197,53224.4593,41118.7112,35925.2393,38309.2314,5744.5318,50120.2494,44522.7921,55796.5636,-602.4688,-1434.9818,24959.4301
55274.874,27156.6063,53220.7489,41103.7803,35908.8331,38301.4083,5735.3675,50099.954,44511.3927,55789.6793,-611.7225,-1446.113,24955.6303
55290.2967,27159.7356,53211.1377,41107.9377,35930.559,38305.6104,5736.2169,50117.0754,44522.9262,55797.6812,-598.3561,-1438.8263,24960.5924
55301.4725,27166.5305,53206.9355,41114.5538,35943.1207,38307.3092,5739.4356,50134.8674,44537.0525,55800.7658,-587.9402,-1428.4551,24961.71
55300.7573,27166.9328,53209.4389,41111.9163,35932.5707,38303.867,5740.419,50128.9666,44537.3654,55802.1963,-591.8294,-1431.2714,24959.6983
55291.7719,27163.7589,53212.747,41104.9873,35915.4046,38301.9447,5742.4307,50104.6926,44522.6133,55798.3965,-602.9606,-1444.6825,24957.5526
55279.6125,27160.3167,53210.8247,41095.8678,35905.1228,38299.7543,5742.7883,50095.3496,44517.6959,55795.3119,-610.3814,-1451.5668,24957.1055
55300.3997,27170.2856,53216.7703,41107.6695,35931.9001,38304.2246,5747.214,50119.4894,44536.0243,55804.6997,-592.5,-1433.0149,24962.604
55313.1849,27180.2992,53223.0288,41119.5159,35953.2237,38310.8854,5749.8515,50141.0365,44548.586,55810.2429,-580.1171,-1421.6155,24966.0462
55317.6105,27182.7579,53225.6216,41117.5042,35944.8642,38310.0361,5751.1926,50134.6886,44549.6142,55811.7628,-585.5709,-1420.7214,24963.9452
55316.2694,27180.478,53227.9909,41107.4013,35927.1616,38305.3422,5754.2771,50116.8072,44536.7843,55816.8143,-596.5233,-1431.1373,24964.8392
55310.0109,27172.4761,53227.2756,41099.2205,35914.0188,38307.6668,5752.936,50117.9695,44533.7445,55811.2264,-600.2337,-1434.6242,24964.2134
55312.2014,27170.0621,53225.6216,41104.8532,35930.7379,38312.1371,5749.6279,50134.9568,44546.2614,55810.7793,-587.9402,-1424.7894,24965.331
55318.5046,27174.3536,53227.6332,41118.9348,35948.4851,38317.5462,5752.8019,50155.3416,44553.6375,55819.4071,-572.6963,-1418.2627,24970.3377
55314.213,27174.6218,53226.6945,41116.6102,35947.7252,38310.5725,5753.1148,50149.1725,44554.6657,55822.0446,-580.743,-1421.5708,24975.2998
55301.562,27165.5917,53223.8781,41106.9095,35926.5804,38305.1187,5754.6794,50131.4253,44542.1934,55813.5957,-596.0315,-1434.2666,24970.9636
55286.0945,27160.6743,53217.575,41097.7453,35913.0353,38302.66,5752.8019,50109.0735,44533.2974,55808.4995,-600.9042,-1440.6592,24966.3144
55307.4181,27165.2341,53217.6644,41106.3284,35932.9283,38304.0905,5754.0089,50132.9005,44544.9203,55817.5743,-584.2298,-1427.6505,24974.0034
55324.4054,27168.9445,53219.4078,41115.0008,35944.6853,38306.7727,5752.6678,50155.8781,44554.0398,55818.826,-572.6963,-1415.6699,24978.2056
55314.0342,27169.1233,53221.1512,41107.893,35933.9118,38303.4199,5749.9409,50146.088,44549.346,55815.5179,-580.3406,-1423.493,24973.8693
55293.113,27159.6014,53219.676,41097.4324,35916.9245,38302.8835,5746.0964,50125.4797,44539.9582,55807.3372,-597.5515,-1438.0664,24966.8509
55285.871,27156.4275,53223.7887,41092.6491,35913.8399,38303.5094,5741.5813,50119.8024,44538.7959,55806.9795,-605.3299,-1440.7486,24965.5992
55301.6961,27164.0718,53226.6945,41104.7637,35937.4434,38309.2761,5745.5599,50148.5467,44552.2517,55817.8425,-592.6341,-1427.114,24970.2483
55315.8671,27174.0854,53228.572,41118.7112,35955.5483,38317.0545,5751.5055,50169.7361,44562.1312,55822.7599,-582.1288,-1413.9265,24974.9869
55312.3355,27176.5888,53229.1085,41112.8551,35957.2023,38316.4287,5749.7174,50165.087,44554.7998,55811.8075,-588.8343,-1422.4201,24971.5894
55297.2257,27172.6996,53230.1813,41104.719,35939.008,38315.177,5749.2703,50145.641,44542.4616,55810.0194,-602.29,-1432.6572,24968.8625
55294.2306,27170.1962,53232.0589,41102.8415,35928.1451,38316.4734,5750.3879,50138.0414,44540.5841,55814.6685,-607.118,-1431.5397,24967.8791
55306.1217,27171.1797,53229.4214,41114.6879,35943.7466,38321.659,5747.9292,50154.224,44546.0826,55812.344,-593.3493,-1424.0742,24969.1308
55327.7582,27172.9678,53229.5108,41125.5956,35962.3432,38323.8047,5750.0303,50168.9762,44558.4655,55814.3556,-581.2347,-1416.5193,24973.8693
55314.7942,27169.0339,53225.5769,41115.7608,35960.4657,38316.5628,5744.0847,50167.501,44550.1059,55808.4995,-591.0248,-1425.46,24967.4767
55290.5649,27162.5072,53219.5419,41102.9309,35928.3686,38305.1187,5736.1722,50139.2931,44530.4811,55793.8814,-608.9061,-1446.2471,24957.1949
55281.4007,27157.7686,53216.3233,41102.8415,35912.0518,38303.7776,5732.2383,50132.4534,44526.726,55792.7638,-614.6282,-1453.1761,24955.9879
55303.3948,27164.7424,53221.2406,41113.3021,35933.5542,38315.2664,5735.2334,50160.1249,44546.4849,55805.7725,-598.0432,-1430.7797,24965.6886
55318.9963,27169.5256,53222.7159,41117.6383,35954.2966,38320.9884,5735.8593,50179.8391,44559.449,55815.2944,-584.7216,-1418.7992,24970.0695
55316.1353,27171.2244,53224.1464,41112.4974,35950.4968,38314.9534,5736.8875,50178.0063,44552.654,55812.791,-590.3989,-1426.5329,24964.124
55299.7291,27169.7044,53226.0239,41103.6909,35927.9215,38310.0361,5736.1722,50155.4757,44542.6404,55804.8338,-606.4922,-1444.1013,24958.2678
55291.4143,27166.4858,53226.6498,41091.755,35914.2423,38307.1303,5736.7533,50143.4952,44541.4782,55805.7278,-617.981,-1449.1081,24955.675
55307.5522,27166.5752,53223.2523,41097.1642,35932.9283,38309.0973,5735.3675,50163.9247,44546.8426,55809.7959,-605.4193,-1438.5134,24957.8208
55321.1868,27165.4129,53223.3417,41107.3118,35955.146,38317.0992,5735.5016,50184.7118,44553.1011,55813.1039,-587.672,-1429.6174,24962.157
55312.9613,27168.3633,53225.1298,41105.2555,35947.0993,38317.7251,5733.6241,50184.7118,44554.8892,55811.0476,-594.0646,-1429.6621,24960.7712
55301.9196,27164.5635,53223.9228,41097.2536,35925.4628,38315.7134,5733.9817,50161.6895,44542.9534,55803.895,-607.7439,-1441.6873,24960.0112
55294.3647,27159.1097,53220.1678,41093.6326,35915.941,38316.1604,5735.3228,50149.2172,44541.9252,55799.827,-610.739,-1442.045,24963.9899
55308.938,27168.5869,53225.1298,41107.8036,35942.3608,38321.9272,5739.7932,50171.3008,44558.9572,55814.5344,-594.7798,-1426.3093,24971.2765
55328.8758,27171.0455,53228.8849,41124.478,35961.7174,38325.5929,5742.2966,50196.1559,44563.2935,55817.7084,-583.4699,-1417.9498,24975.121
55323.7796,27171.3585,53232.5953,41123.8968,35954.9671,38323.0001,5744.1294,50188.5563,44564.6346,55814.8026,-587.1356,-1422.0625,24971.3212
55305.3617,27169.7044,53233.5788,41120.7676,35936.0576,38320.2285,5744.5318,50171.6584,44546.6191,55805.3702,-598.4902,-1432.8361,24966.4932
55295.6611,27170.6432,53233.0424,41115.4926,35931.7213,38317.3674,5741.2237,50158.1579,44537.5443,55802.0175,-602.9159,-1437.7087,24963.9004
55318.6834,27178.2428,53233.7576,41123.3157,35951.3909,38323.2236,5742.5648,50179.8838,44551.3576,55805.1914,-591.8294,-1426.7564,24967.0297
55335.4919,27174.89,53231.6118,41132.7034,35968.9146,38328.0069,5740.0167,50198.6146,44560.4324,55806.6666,-580.9665,-1421.6155,24965.6886
55321.2762,27166.0835,53228.4826,41122.7793,35961.3597,38317.0098,5733.937,50187.2152,44544.0263,55803.5821,-594.914,-1434.3113,24959.296
55304.423,27160.9873,53230.0472,41110.754,35936.8622,38309.3208,5732.5065,50156.1463,44539.5112,55803.895,-607.565,-1442.4473,24956.6138
55297.8963,27158.0368,53223.5652,41103.1097,35917.8185,38309.9467,5731.076,50143.3164,44539.9135,55799.9164,-612.2142,-1447.5882,24952.054
55305.0488,27161.3449,53220.5701,41108.7424,35929.4862,38313.3888,5731.076,50167.3222,44554.9786,55806.5325,-597.775,-1438.6028,24958.536
55324.0478,27167.4246,53220.3019,41113.3468,35947.0099,38318.5744,5731.1207,50188.2881,44569.1943,55816.0096,-589.1025,-1432.389,24962.5593
55323.5561,27165.0106,53220.5254,41115.8055,35940.975,38320.0049,5728.9749,50190.6574,44564.9475,55815.3391,-593.3046,-1435.25,24962.8723
55305.4065,27160.7637,53221.1512,41104.719,35921.6183,38320.1838,5727.9468,50177.5593,44551.9388,55808.5889,-608.5038,-1443.9672,24958.6701
55293.4259,27156.5616,53222.3582,41102.7968,35918.0421,38316.071,5730.0925,50171.0773,44542.9534,55803.4927,-609.1297,-1448.7952,24958.2231
55302.1431,27159.512,53227.1415,41117.2807,35944.1936,38320.899,5735.8593,50187.9305,44554.7998,55811.0029,-592.0976,-1435.6971,24964.8392
55313.2296,27166.4411,53229.8237,41124.2545,35966.7689,38326.0399,5739.0332,50215.4231,44572.3236,55821.5529,-582.9334,-1423.8507,24968.5496
55316.1353,27171.7608,53231.6118,41133.0163,35969.9428,38331.1808,5743.3695,50215.1102,44576.928,55816.2332,-579.536,-1423.8954,24967.9685
55297.4492,27164.4741,53232.193,41125.1038,35942.0031,38327.7833,5742.833,50186.3658,44563.1593,55808.3653,-593.394,-1431.4502,24962.2464
55284.8876,27156.2934,53227.1415,41112.1845,35921.7525,38321.659,5736.9769,50172.0607,44556.0962,55801.8386,-607.878,-1441.8662,24956.5691
55310.4579,27161.4343,53227.2756,41122.064,35940.6173,38327.9175,5736.6639,50198.9275,44566.825,55802.5986,-597.9538,-1429.9303,24958.4019
55330.8874,27170.822,53231.2095,41136.1903,35965.2489,38340.2556,5740.5978,50228.9683,44575.8998,55812.2993,-577.0773,-1415.8487,24965.4204
55328.4734,27171.9396,53233.847,41137.2632,35958.2752,38335.8747,5747.1693,50226.7778,44570.9378,55811.0029,-581.7711,-1418.9333,24964.3922
55306.8817,27165.994,53233.5788,41127.4284,35931.4978,38328.3645,5748.5998,50206.4377,44557.482,55799.4246,-598.982,-1431.3161,24959.6089
55298.0304,27165.2341,53234.2494,41119.6947,35922.3336,38327.2469,5746.6775,50185.8741,44558.8231,55801.3916,-604.8828,-1435.2947,24960.9947
55316.0012,27172.4761,53236.5292,41128.5907,35941.422,38335.5618,5746.0517,50208.2705,44577.8668,55812.5675,-595.1375,-1422.6437,24969.6225
55333.3461,27177.9746,53233.847,41140.8395,35958.3199,38335.2935,5743.7718,50236.5679,44590.1155,55815.652,-576.3173,-1413.703,24973.1094
55324.5395,27176.6782,53235.4116,41136.5479,35957.3811,38330.1079,5741.7601,50234.1092,44583.4994,55813.4615,-578.9548,-1418.9333,24972.3494
55304.0653,27168.5869,53232.953,41120.9911,35936.594,38319.8708,5735.6805,50198.257,44562.7123,55802.7774,-601.083,-1434.2219,24963.1405
55294.5435,27159.7803,53228.3932,41112.0504,35916.2539,38313.0312,5726.4715,50182.6555,44553.0117,55793.5685,-611.946,-1446.2918,24955.8985
55305.4512,27154.4158,53226.9627,41117.0572,35930.6037,38311.6901,5725.0857,50204.2025,44566.1545,55800.9893,-598.8926,-1437.0382,24957.642
55319.9798,27159.5567,53227.5438,41121.9299,35949.9156,38316.2946,5724.5493,50216.049,44569.1943,55807.5607,-588.5661,-1430.1538,24959.8771
55311.0391,27159.065,53223.6993,41111.4693,35940.3044,38306.6833,5719.0061,50203.1744,44562.0418,55803.1797,-602.9606,-1439.9886,24952.1881
55297.6727,27150.0349,53219.7654,41101.9474,35915.8516,38295.8204,5716.0556,50183.9072,44543.4451,55790.6628,-622.5407,-1457.0653,24942.8898
55281.8477,27139.3508,53214.9374,41089.7434,35893.634,38285.8962,5712.0323,50170.362,44536.069,55778.9505,-635.5494,-1466.2296,24935.4243
55299.2374,27146.6821,53218.8267,41101.9474,35914.8681,38293.8981,5711.8982,50193.6525,44547.379,55789.4558,-625.5358,-1455.2772,24940.297
55313.0955,27151.6889,53223.7887,41115.4926,35941.6455,38301.9,5715.9662,50211.3998,44554.4869,55796.0272,-608.0121,-1443.6543,24947.3602
55307.9993,27155.5334,53225.7557,41113.9727,35940.7514,38302.0788,5723.8787,50211.3551,44559.3596,55799.0223,-601.7536,-1440.2121,24951.8752
55288.0168,27152.9406,53224.4146,41099.2652,35913.2588,38297.6979,5724.1917,50191.775,44549.1225,55795.5354,-616.3269,-1446.7835,24950.1765
55288.6426,27150.9737,53226.0239,41095.5548,35903.9605,38301.4083,5726.6951,50178.9451,44550.7765,55797.8153,-618.3386,-1447.2753,24952.6352
55315.3306,27159.2885,53231.4777,41108.9212,35931.9448,38311.5113,5736.7533,50199.8663,44563.8746,55811.7628,-599.7419,-1432.4337,24957.5973
55334.866,27165.994,53232.6847,41123.0475,35960.9127,38320.1838,5741.8942,50228.7,44584.5276,55819.72,-583.8722,-1419.425,24962.9617
55322.0361,27165.3235,53232.1483,41117.996,35947.9487,38315.177,5742.4754,50226.6437,44584.8405,55816.2332,-591.5612,-1425.1918,24964.3922
55301.249,27160.8531,53232.9977,41109.6364,35930.2014,38304.8058,5739.3014,50200.0451,44568.8814,55806.3537,-601.4407,-1437.9323,24967.0297
55305.9429,27163.8483,53237.6915,41112.1398,35930.5143,38309.8125,5741.8942,50193.0714,44564.6346,55808.9912,-601.2619,-1439.1392,24970.8295
55320.4715,27165.7705,53237.8703,41118.9795,35955.1907,38314.5064,5743.3248,50212.2045,44575.6763,55815.6073,-586.2415,-1423.4036,24972.5282
55332.5415,27167.6928,53236.2163,41129.1271,35972.625,38312.8077,5743.3248,50231.427,44583.0971,55817.4849,-577.6137,-1412.6301,24973.2435
55326.2383,27169.8385,53233.5341,41129.7977,35964.5337,38311.9583,5740.419,50227.4036,44582.1583,55814.2662,-584.1851,-1416.2064,24971.9918
55308.1781,27166.2623,53232.7294,41112.721,35939.4997,38307.935,5739.0779,50204.6496,44568.9708,55806.3984,-597.4621,-1431.8079,24965.9121
55303.4842,27165.547,53234.3835,41109.2788,35928.3686,38309.902,5739.1673,50198.5252,44566.6909,55800.8105,-602.1112,-1435.3842,24963.2746
55319.3539,27172.6549,53234.3388,41124.5674,35949.8262,38321.659,5738.5862,50218.7312,44585.6005,55809.17,-590.6224,-1417.4134,24968.9519
55330.2169,27178.064,53234.9646,41129.0377,35965.8748,38327.4704,5739.525,50233.2151,44598.6092,55816.2779,-579.6254,-1405.5222,24977.1327
55325.4783,27177.617,53237.0657,41120.7229,35961.2256,38322.8213,5737.9603,50227.493,44598.0728,55816.9037,-584.3192,-1411.5125,24975.2998
55307.731,27166.7093,53235.5458,41115.5373,35937.9351,38318.1721,5739.972,50208.0917,44573.6647,55807.5607,-598.6243,-1426.1305,24971.3659
55296.1081,27161.7025,53236.3057,41108.0718,35922.1548,38316.5628,5741.3131,50200.1345,44563.2488,55804.1185,-603.3182,-1433.596,24968.6837
55311.2626,27163.2224,53236.6633,41111.7375,35939.6338,38322.106,5742.1178,50216.0043,44581.5772,55811.4499,-592.5894,-1422.4201,24970.1589
55324.4948,27168.6316,53236.4398,41116.9678,35958.0964,38327.6939,5741.6707,50240.3229,44591.859,55818.2448,-584.0063,-1415.7593,24971.1871
55317.9234,27168.6763,53236.1716,41117.236,35950.6309,38322.3742,5742.9671,50235.495,44588.7744,55818.9154,-586.8673,-1424.7894,24968.8625
55300.5338,27167.9163,53235.4116,41110.0835,35931.2743,38319.7814,5740.6425,50215.5125,44575.8551,55809.8406,-607.1627,-1441.732,24963.0511
55286.7204,27165.8152,53230.1813,41103.6909,35926.7592,38317.4121,5736.5745,50214.2161,44569.4625,55804.3867,-614.7623,-1448.2141,24958.536
55304.8253,27169.8833,53230.3602,41111.6034,35944.4171,38322.2848,5740.5531,50236.9702,44583.6782,55819.0942,-599.2055,-1434.4007,24964.2134
55313.6766,27172.2078,53225.6216,41117.7725,35960.3316,38319.3791,5735.5016,50249.0848,44586.7628,55819.6306,-593.9305,-1425.5047,24964.0346
55307.4181,27171.0008,53221.5536,41117.3701,35950.9885,38313.9253,5730.3607,50239.116,44579.6102,55813.3721,-602.3347,-1429.7962,24958.4466
55287.6592,27162.4178,53218.5137,41099.9805,35923.7641,38305.6551,5723.6999,50212.0703,44565.3498,55802.3304,-617.8916,-1447.9011,24952.0987
55278.6291,27154.1923,53217.9773,41092.0233,35907.0897,38303.3305,5722.5376,50189.5398,44559.2254,55797.5918,-619.635,-1456.4395,24950.0871
55290.5202,27155.4887,53218.1114,41101.7686,35926.1781,38304.5375,5722.3141,50206.4377,44576.1234,55803.135,-603.8547,-1442.2238,24951.9199
55310.3685,27161.3002,53220.2125,41117.7278,35947.9487,38309.4996,5722.3141,50230.9799,44583.6782,55805.1914,-592.3659,-1430.9585,24954.5127
55303.7524,27161.7919,53220.436,41116.9678,35942.2266,38307.3092,5723.0741,50219.6699,44579.2079,55801.9727,-595.4057,-1433.4619,24952.5905
55286.2734,27158.8862,53219.4078,41114.822,35924.3006,38304.2693,5723.7446,50195.5748,44565.3945,55797.4577,-605.3746,-1444.7272,24950.3553
55289.8049,27156.7404,53221.7771,41111.7375,35914.1529,38312.763,5727.4997,50186.7235,44568.8814,55793.9708,-606.671,-1444.6825,24954.7809
55316.2247,27166.1729,53227.9462,41117.9066,35933.1518,38328.5433,5731.076,50213.8138,44585.1535,55799.827,-586.8226,-1423.0013,24963.6769
55333.212,27174.2642,53236.9763,41128.4566,35955.9506,38339.3615,5737.2898,50231.2034,44596.0164,55809.7959,-568.8965,-1407.9809,24973.3329
55326.4171,27172.5208,53235.5458,41127.1155,35948.8875,38341.2391,5739.0779,50235.495,44592.9766,55814.4003,-575.8256,-1411.4231,24972.5729
55312.4696,27167.6034,53231.6566,41119.7841,35928.8603,38333.5948,5735.3675,50225.4367,44583.41,55806.6666,-591.5165,-1425.1024,24969.6225
55311.3073,27161.5684,53226.3368,41114.4197,35929.8885,38329.1692,5728.7067,50215.5572,44571.8318,55799.5141,-595.0034,-1432.1655,24970.8742
55331.3345,27163.6695,53225.264,41127.0261,35950.4968,38333.8183,5730.2713,50241.0382,44581.0407,55808.6783,-579.1783,-1420.4979,24976.2386
55341.7057,27165.0106,53219.8995,41134.4022,35965.2489,38338.2887,5727.6338,50249.4425,44593.7365,55814.9815,-565.9908,-1414.4629,24976.4174
55323.6902,27158.5286,53214.9822,41120.9911,35955.7271,38331.3596,5723.1188,50239.0712,44585.6005,55811.5393,-580.3406,-1425.1918,24971.3659
55301.5172,27145.9669,53212.0764,41105.5684,35925.284,38320.8543,5720.8836,50215.3337,44564.1428,55804.9679,-596.5233,-1437.0382,24964.2581
55286.4969,27138.7696,53208.3213,41095.4207,35905.0781,38316.1604,5719.1849,50204.8284,44541.9699,55794.1943,-606.7157,-1448.3482,24955.0045
55300.0867,27151.823,53212.4788,41100.0252,35930.2908,38312.5842,5724.6834,50226.5096,44553.0117,55799.5588,-596.0315,-1439.7651,24958.536
55309.7427,27157.0981,53215.9656,41103.8697,35954.0284,38310.9301,5728.7961,50245.5533,44560.8348,55803.5374,-583.2464,-1428.9916,24959.8771
55299.6844,27151.9125,53216.7256,41100.4722,35949.2004,38309.2761,5726.4268,50236.389,44553.1458,55801.7045,-585.8839,-1431.6738,24956.5244
55275.321,27145.7434,53212.3893,41085.0048,35923.8982,38299.7543,5725.8457,50209.2987,44527.3966,55790.7969,-605.4193,-1449.734,24949.7294
55268.3473,27145.0281,53214.7139,41075.3042,35910.1295,38292.6464,5726.2033,50191.6409,44512.4209,55782.795,-616.6399,-1457.6465,24946.1085
55283.5912,27151.5101,53216.9491,41080.9815,35930.112,38296.8485,5727.8574,50201.6991,44521.3169,55783.8678,-605.4193,-1446.8729,24948.2989
55298.6115,27167.3799,53222.1347,41088.7152,35947.6805,38300.3801,5734.9652,50208.7176,44532.4928,55790.3498,-593.4834,-1431.3608,24954.7809
55292.6213,27174.7112,53224.057,41088.3129,35940.1256,38295.8204,5738.8544,50193.9654,44520.9146,55793.4344,-598.3114,-1435.6971,24957.0161
55270.6718,27171.1797,53223.5652,41076.9135,35916.1198,38286.9244,5738.0944,50164.6399,44505.1342,55788.8299,-612.2589,-1449.2869,24955.9879
55260.8818,27168.0057,53222.3135,41073.963,35913.0353,38281.8729,5738.8544,50135.985,44493.3325,55779.621,-614.6729,-1451.3433,24954.7362
55284.5299,27177.6617,53223.4311,41087.6423,35937.7116,38293.2276,5743.0118,50146.3115,44504.6872,55791.1098,-595.1375,-1432.8361,24962.4252
55295.3929,27190.2233,53228.8402,41101.6345,35962.5667,38304.2693,5749.2256,50157.1745,44514.3431,55802.5092,-581.19,-1420.2744,24968.7284
55277.0644,27188.5693,53229.5108,41094.7055,35956.4424,38302.9282,5749.7174,50134.6886,44506.6094,55795.5801,-582.5311,-1425.8623,24966.538
55256.322,27187.3623,53229.019,41090.6374,35932.1237,38297.1615,5751.0585,50105.2737,44492.4384,55790.3498,-593.5729,-1438.424,24963.0064
55249.393,27190.2233,53227.5438,41094.2137,35922.3336,38297.6085,5751.6396,50090.3875,44478.2674,55782.3479,-601.0383,-1443.1626,24961.8888
55270.0907,27192.1456,53228.6167,41101.6792,35942.2714,38305.3422,5753.8301,50100.714,44481.0838,55783.1526,-586.1521,-1434.4007,24967.3426
55285.2899,27199.924,53230.4049,41115.9843,35962.5667,38315.4005,5757.5852,50109.9676,44487.9681,55788.6064,-568.673,-1422.0625,24972.6623
55277.2433,27199.2534,53227.0521,41113.2574,35956.1294,38313.4782,5756.4229,50097.5847,44483.453,55781.9456,-572.5622,-1419.5144,24968.7731
55260.1665,27191.6538,53225.4875,41099.8911,35926.3569,38303.5541,5750.9243,50063.7889,44463.56,55776.0447,-587.4932,-1436.8594,24962.6487
55256.0985,27185.7977,53222.8947,41091.3527,35914.2423,38299.9778,5746.5881,50042.4206,44452.1606,55772.6473,-599.1608,-1448.974,24960.6818
55268.6602,27189.6422,53222.8947,41105.2555,35934.6271,38306.5045,5750.3879,50054.6694,44462.9341,55776.7153,-586.9567,-1436.77,24963.0064
55280.596,27201.9804,53226.3368,41117.2807,35950.6756,38310.7066,5753.9642,50073.7578,44475.0041,55780.6045,-571.6234,-1422.0625,24964.3475
55268.4814,27196.9289,53229.0637,41113.168,35940.975,38308.0244,5754.3665,50059.7656,44475.5852,55775.3742,-577.569,-1428.3657,24962.157
55258.1102,27184.5907,53232.953,41105.9707,35912.3647,38301.453,5750.7008,50032.0494,44464.2752,55766.0311,-591.6059,-1447.4094,24960.1007
55246.3084,27174.2195,53228.572,41100.4275,35900.2054,38292.11,5746.454,50014.4809,44452.3841,55753.6483,-600.6807,-1449.8234,24958.3572
55254.4445,27174.0854,53225.3087,41101.858,35917.2821,38290.2771,5746.454,50026.5956,44453.5464,55763.2148,-594.2881,-1439.2734,24960.6818
55276.7962,27179.3604,53226.3815,41113.7938,35939.4103,38300.1119,5747.3481,50037.0562,44468.1197,55771.6638,-575.0656,-1427.6505,24962.6935
55275.0081,27176.6335,53227.365,41106.1049,35932.9283,38300.5142,5747.3481,50025.031,44470.3549,55770.4121,-580.0724,-1431.495,24961.4418
55258.7807,27163.0883,53228.6614,41096.4936,35920.4561,38298.5473,5746.7669,50003.3498,44454.1276,55764.1536,-596.6574,-1442.3132,24957.329
55253.908,27159.8697,53228.0803,41093.5879,35908.9226,38293.9428,5745.4705,49996.6443,44452.3394,55765.1818,-594.1987,-1444.9954,24954.8703
55273.1305,27165.994,53226.6945,41099.4887,35922.1548,38299.8437,5748.7339,50017.0738,44467.9409,55773.8096,-584.2298,-1432.389,24960.503
55286.7204,27176.1864,53229.8684,41107.2671,35937.4881,38304.5822,5755.7076,50032.2282,44481.5755,55778.6822,-572.9198,-1421.9731,24968.8625
55282.6077,27178.5557,53230.1813,41102.1262,35933.5542,38303.4199,5754.9924,50023.6899,44475.0935,55776.0,-577.7925,-1430.3327,24967.2532
55270.7613,27176.1864,53232.8188,41092.7385,35915.181,38299.7543,5753.7407,49997.6724,44472.0984,55768.8475,-591.4271,-1435.3842,24962.8723
55263.2511,27180.5674,53236.9763,41089.0281,35904.7651,38300.0225,5753.5172,49988.2847,44461.9954,55763.7066,-595.808,-1433.9089,24964.4816
55282.9206,27183.8754,53237.4233,41095.0631,35917.9527,38304.1352,5753.4724,50008.9824,44468.7456,55774.8824,-585.9286,-1427.8293,24971.4106
55304.9147,27185.1271,53233.2659,41098.9076,35937.5328,38304.1799,5753.1595,50031.5577,44483.1401,55778.4587,-572.0705,-1419.6485,24975.4339
55300.4444,27178.0193,53230.0472,41094.6161,35927.3404,38299.7543,5750.0303,50021.4547,44485.7776,55779.8892,-579.7595,-1423.0013,24971.2318
55287.1674,27173.2807,53227.5885,41086.7929,35907.045,38302.6153,5746.5434,50006.1661,44482.4696,55772.2002,-594.3328,-1435.4736,24965.018
55284.7534,27171.4926,53225.9345,41080.1768,35899.9819,38303.3305,5746.7222,50009.6977,44479.7873,55766.1653,-601.7983,-1438.6475,24962.7382
55302.3666,27179.1816,53229.0637,41091.7997,35924.8817,38315.0429,5750.2985,50045.1475,44497.3111,55786.7736,-581.5476,-1422.8672,24974.3164
55311.6202,27181.6403,53228.3485,41104.0932,35940.8855,38318.5297,5751.9078,50065.8453,44507.3247,55792.5403,-569.9694,-1416.3852,24980.4854
55310.6815,27182.892,53226.2474,41106.7307,35932.4813,38310.5725,5752.0866,50054.8482,44506.52,55786.1477,-575.3785,-1424.2083,24976.328
55295.8846,27171.4926,53224.4593,41099.9805,35904.631,38298.6367,5747.4822,50019.5324,44488.8175,55775.5083,-593.0364,-1437.7534,24966.8956
55280.9536,27161.5684,53222.537,41090.2351,35897.7467,38288.936,5743.3248,50006.032,44477.0157,55768.8475,-596.0315,-1444.0119,24960.9947
55289.2238,27162.3284,53219.229,41093.6326,35918.3997,38289.3831,5742.3413,50021.2312,44483.1848,55771.3062,-582.5758,-1433.8195,24962.0229
55301.6067,27170.5985,53218.8714,41098.1923,35937.5328,38297.385,5744.0847,50038.1291,44500.8427,55777.0282,-572.9198,-1424.4318,24963.2299
55297.8963,27167.6034,53218.8267,41093.722,35927.4298,38303.1964,5738.8544,50028.4731,44502.4967,55774.3907,-577.3902,-1432.6572,24960.0112
55282.2948,27161.6578,53217.9773,41087.8658,35902.1723,38297.7873,5738.9885,50011.5752,44484.4365,55768.4451,-592.1423,-1444.459,24956.2562
55276.2598,27162.1943,53217.5303,41080.9815,35891.8905,38297.2509,5734.9205,50013.7657,44475.6746,55769.6521,-596.7915,-1447.767,24955.0045
55285.6475,27170.5091,53224.1017,41092.7385,35922.1101,38304.9399,5739.3461,50045.8628,44490.0692,55778.414,-585.9286,-1433.8642,24961.8888
55306.3005,27184.3225,53228.125,41111.3352,35945.2218,38313.7017,5748.2421,50077.6917,44508.5317,55783.5102,-572.8751,-1419.8273,24967.6108
55303.6183,27190.7598,53229.3767,41112.8551,35947.5017,38318.9768,5752.176,50072.9084,44505.0448,55782.9738,-574.3057,-1421.079,24969.4884
55286.8098,27187.7199,53226.9627,41097.3877,35922.7359,38303.7329,5746.3199,50052.3001,44494.8524,55774.3907,-595.0928,-1436.3229,24961.8888
55274.114,27177.4381,53219.5419,41080.5792,35899.803,38295.418,5733.2218,50039.4702,44489.2645,55759.4597,-608.1015,-1449.6893,24951.3835
55295.7952,27188.4799,53220.9724,41100.0699,35923.8982,38306.9068,5734.0711,50051.8531,44497.4899,55771.8873,-592.7235,-1440.6592,24956.3903
55310.9944,27189.8657,53217.4408,41108.2506,35941.869,38313.5229,5732.9535,50069.4215,44504.1955,55778.8163,-582.844,-1432.4784,24958.4019
55309.2062,27184.0096,53215.2504,41106.4625,35937.3987,38312.4948,5731.6571,50074.9648,44498.2946,55769.2945,-587.225,-1436.5017,24956.7479
55293.2471,27173.9513,53213.4175,41093.8114,35912.32,38306.3257,5727.1868,50063.0289,44484.5259,55759.2362,-605.8663,-1452.9526,24950.7129
55286.5416,27166.5752,53211.9423,41086.3459,35904.2287,38304.5822,5723.7893,50050.4225,44485.3753,55757.001,-615.8799,-1460.5969,24948.4777
55298.2092,27166.0388,53213.4175,41096.4042,35924.1217,38311.0195,5726.561,50065.1747,44499.4569,55768.4004,-598.7585,-1446.7388,24951.8305
55313.4084,27168.4974,53215.7421,41107.3118,35944.1042,38318.1274,5728.215,50090.8792,44510.7222,55773.3178,-583.9616,-1436.6806,24955.8538
55307.5075,27172.6102,53219.7207,41107.7142,35940.8855,38314.6852,5733.8029,50093.2932,44516.6677,55774.7036,-585.4368,-1435.4736,24959.9218
55294.0965,27170.3303,53218.6031,41097.8347,35920.4113,38308.8291,5735.5911,50074.4283,44506.7436,55771.3509,-597.9985,-1445.2189,24956.882
55290.7884,27169.4362,53220.2572,41090.9057,35910.8001,38306.8621,5734.5182,50062.7607,44500.2615,55769.4733,-602.9606,-1451.7009,24955.4068
55303.7524,27174.5324,53221.643,41099.2205,35924.7476,38314.2829,5733.5347,50085.9618,44519.797,55778.9505,-591.6506,-1438.871,24963.1405
55318.0575,27177.1252,53221.7771,41105.7472,35948.0381,38314.5958,5735.5016,50102.7256,44527.7095,55787.8911,-580.6535,-1428.4551,24964.4816
55313.7213,27171.1797,53222.537,41103.1544,35951.972,38308.1138,5734.6523,50099.5964,44519.484,55788.517,-582.1735,-1436.6359,24964.7051
55295.8846,27170.8667,53222.2241,41089.7434,35927.7874,38303.107,5733.0877,50082.8326,44506.073,55784.7172,-597.0597,-1451.9691,24959.296
55283.01,27165.994,53217.7538,41077.0923,35910.219,38292.0653,5727.7679,50065.3535,44504.1507,55771.4403,-609.532,-1460.0605,24951.7411
55298.5668,27172.9231,53215.5186,41083.3955,35923.9876,38294.7922,5729.6902,50088.957,44517.6959,55774.6589,-596.6574,-1446.8729,24954.3339
55310.4579,27187.5411,53220.6148,41091.6656,35939.5891,38301.1848,5736.8428,50119.9365,44527.8883,55795.1778,-586.1521,-1431.2714,24963.1405
55310.1003,27188.5693,53218.022,41087.4188,35937.2199,38295.1498,5735.4569,50111.6663,44522.1215,55794.0155,-594.601,-1435.3395,24958.9831
55291.2354,27185.3954,53218.3349,41073.963,35915.8516,38286.4773,5735.2781,50091.4156,44506.2518,55784.0466,-613.9576,-1450.4939,24951.4282
55282.8312,27176.1864,53217.9773,41073.9183,35906.4192,38285.9856,5734.7417,50080.1504,44496.9982,55780.1574,-618.875,-1458.7194,24950.0871
55300.3103,27182.2214,53217.2173,41083.619,35926.7592,38298.0555,5737.3792,50101.7869,44512.5997,55788.3829,-600.636,-1445.9342,24954.7362
55311.3073,27198.2253,53219.9889,41098.2817,35946.8311,38304.4034,5744.3529,50123.6916,44527.7542,55794.1049,-584.0063,-1428.1869,24962.2464
55306.9711,27194.5596,53222.9394,41093.8561,35937.6669,38299.486,5747.7057,50107.8218,44522.1663,55791.1992,-586.5097,-1429.9303,24961.8888
55290.1179,27180.8803,53219.4525,41083.7531,35915.5387,38294.6134,5742.6542,50087.6158,44504.5531,55784.9854,-606.0004,-1445.3977,24955.7644
55286.4969,27180.6121,53219.9889,41082.5461,35908.1179,38300.6483,5743.1012,50083.3243,44501.3791,55781.3644,-612.393,-1447.1412,24953.8869
55307.9098,27189.1505,53221.9112,41094.6161,35929.7991,38310.0361,5745.2917,50101.6974,44513.0914,55787.9359,-604.0335,-1435.7865,24958.7595
55327.7582,27200.0134,53225.0851,41106.1049,35956.04,38316.5628,5752.3102,50121.9034,44530.2129,55796.6083,-588.9237,-1422.5096,24964.9286
55320.0245,27200.1922,53225.264,41108.4741,35956.8447,38315.6687,5760.625,50124.4068,44530.5258,55798.7541,-589.2366,-1422.1072,24968.4155
55303.0372,27192.3691,53225.0404,41100.2487,35933.0624,38312.0477,5757.2275,50102.4574,44511.7503,55793.345,-606.7157,-1437.4852,24963.0064
55288.8215,27184.1437,53223.5652,41088.5364,35914.5105,38308.1138,5750.2985,50078.3622,44513.6726,55783.5102,-614.6282,-1441.1509,24955.6303
55296.2869,27187.4517,53228.0803,41102.5286,35944.1936,38318.0827,5753.7854,50105.7655,44533.3421,55793.7026,-597.9091,-1425.6388,24962.2017
55308.6698,27193.9337,53228.572,41111.6928,35961.315,38319.1109,5755.797,50131.47,44543.7133,55801.7492,-582.8887,-1417.7263,24970.293
55299.3715,27185.4401,53221.33,41105.5684,35941.1091,38312.0477,5745.6493,50114.5273,44523.6415,55789.6793,-588.7002,-1432.6125,24961.7994
55282.6077,27175.0242,53223.2076,41099.8017,35919.562,38304.9846,5742.8777,50089.6722,44511.795,55784.1361,-600.189,-1443.4755,24958.4466
55275.8574,27167.5587,53222.3135,41096.2254,35909.5484,38304.8058,5743.4142,50078.0046,44514.3431,55785.1642,-606.3581,-1447.2753,24957.3737
55286.7651,27168.4974,53219.1843,41100.5169,35926.5804,38306.4598,5743.593,50093.3379,44514.5667,55786.4159,-595.1375,-1438.8263,24960.2795
55291.5484,27170.9561,53219.229,41104.7637,35945.3559,38306.5492,5743.4142,50109.297,44518.59,55786.4159,-589.8178,-1431.4502,24961.3523
55282.6971,27161.6578,53215.161,41095.6442,35938.9633,38301.006,5738.8544,50107.4195,44514.209,55782.7055,-598.7585,-1437.2617,24955.1386
55269.9566,27152.8959,53214.6692,41085.2283,35912.6776,38295.5074,5737.3792,50092.7567,44501.2897,55780.381,-607.565,-1447.5882,24949.2377
55272.0129,27155.7122,53215.1163,41084.5578,35906.7768,38294.9263,5740.2402,50085.3807,44496.1041,55777.6541,-609.532,-1452.9079,24947.1813
55290.8778,27158.3498,53212.1211,41093.4538,35925.5522,38293.317,5739.8379,50100.2222,44509.9622,55779.4869,-598.4008,-1444.5484,24949.3718
55299.148,27157.5004,53210.9588,41098.4159,35937.8904,38295.8651,5737.7368,50114.0803,44524.9379,55783.8231,-592.1423,-1436.6806,24947.6731
55289.6708,27148.1574,53207.3826,41089.5199,35928.9944,38288.2208,5737.9603,50100.401,44512.5103,55782.035,-595.9868,-1442.0897,24945.1697
55273.9352,27151.1078,53209.7518,41082.1438,35908.5649,38282.6328,5736.9322,50079.2116,44499.4122,55777.5646,-607.2521,-1452.7738,24944.5438
55269.2413,27150.929,53211.4953,41077.0476,35901.5465,38278.833,5732.9983,50067.6781,44493.9584,55775.553,-618.2045,-1458.8535,24942.1746
55275.5892,27148.6938,53211.3612,41082.2779,35915.4046,38279.2801,5731.5677,50091.7286,44503.4355,55775.3295,-614.3153,-1453.9361,24942.264
55301.3831,27159.5567,53215.2504,41102.7521,35941.869,38295.2839,5738.0497,50121.367,44522.7027,55790.5734,-593.707,-1434.7136,24954.7362
55304.2889,27162.4625,53219.0055,41095.9572,35943.523,38291.8417,5737.0216,50110.504,44521.451,55790.2604,-593.8411,-1436.77,24954.021
55288.4191,27156.2487,53220.3019,41083.7978,35926.4463,38289.8301,5734.9205,50089.9404,44510.4986,55782.1691,-608.3697,-1452.595,24950.2212
55286.5416,27150.5266,53220.7489,41076.4217,35910.219,38289.6066,5733.49,50084.6207,44514.3878,55779.3975,-617.8021,-1457.3783,24949.3718
55311.352,27161.5684,53226.158,41094.6161,35934.6718,38301.453,5742.6542,50110.8617,44532.2692,55790.5287,-599.3396,-1442.5814,24955.5409
55326.1936,27168.2292,53225.1298,41105.6578,35954.1625,38303.4647,5746.0964,50129.2795,44541.4335,55796.3848,-586.2415,-1432.2996,24955.8538
55320.8292,27166.9328,53222.7159,41101.0087,35946.7864,38294.8369,5744.5318,50121.4564,44533.3421,55795.4907,-592.6788,-1437.9323,24953.4398
55307.9993,27161.2108,53225.264,41089.0728,35930.2461,38289.9642,5744.1294,50103.128,44521.5404,55794.7308,-606.0898,-1449.0187,24952.8587
