FC3,FCz,FC4,C5,C3,C1,Cz,C2,C4,C6,CP3,CPz,CP4
55132.851,27062.8184,53146.8093,40945.1723,35850.6739,38182.7652,5716.2791,50101.4739,44512.4656,55795.5354,-702.6941,-1514.1964,24851.6947
55122.3457,27062.5055,53144.5742,40942.0431,35842.1803,38182.1841,5718.2908,50073.7578,44502.5861,55792.1827,-709.1314,-1524.1653,24851.8735
55106.163,27064.6513,53143.5013,40927.2462,35812.5418,38172.394,5717.4861,50048.6344,44489.8009,55787.6229,-726.6998,-1536.1458,24846.9114
55094.6295,27070.418,53143.6354,40919.9595,35813.0783,38170.2483,5720.8389,50029.5013,44482.0225,55784.8513,-731.9748,-1538.2916,24848.029
55107.9512,27077.1682,53142.9648,40933.46,35837.0394,38175.8362,5727.0974,50040.9901,44491.5891,55791.4674,-714.317,-1526.5793,24852.0523
55125.2961,27092.9933,53145.9153,40947.9886,35858.3629,38183.4358,5732.9088,50062.9395,44502.0497,55800.3187,-697.9108,-1510.8436,24855.8521
55125.0279,27096.8378,53146.0047,40948.6145,35853.222,38180.6195,5735.9487,50057.5751,44491.902,55796.7871,-700.0118,-1513.8388,24854.064
55103.0785,27083.7843,53148.1057,40933.9964,35829.2162,38171.0976,5734.7417,50017.4314,44472.7689,55785.0748,-718.1168,-1534.0,24847.0008
55103.6596,27076.14,53151.0562,40936.1869,35823.6283,38172.2599,5733.8476,49998.7453,44472.9477,55780.9174,-717.178,-1536.5928,24844.9445
55119.5294,27083.829,53150.475,40947.7651,35839.498,38182.7205,5731.0313,50009.3848,44476.6581,55781.9903,-702.2023,-1524.657,24846.7773
55123.7315,27089.4617,53150.9668,40955.9906,35853.1326,38184.6875,5733.4006,50020.963,44485.4647,55784.0914,-689.9536,-1513.6153,24852.7229
55109.337,27084.8572,53150.1174,40948.9721,35835.8324,38179.9489,5730.0478,50007.6413,44478.7592,55779.3528,-703.2752,-1518.4432,24851.6947
55081.5761,27070.5968,53149.6704,40932.1189,35805.1658,38173.154,5725.801,49978.8076,44459.8496,55773.4519,-725.314,-1536.1011,24847.9396
55078.9833,27072.9214,53148.1951,40932.8789,35802.1706,38173.1093,5724.6834,49974.6501,44460.2519,55777.5646,-722.9447,-1538.0681,24849.3701
55101.9162,27075.4695,53147.8375,40947.0946,35828.5457,38179.636,5726.9186,49990.9222,44480.0109,55779.7104,-702.4258,-1521.9301,24854.5557
55110.231,27074.7095,53147.2117,40954.3365,35846.74,38178.1608,5729.3773,50000.6676,44484.7494,55782.5267,-687.0478,-1507.3568,24860.8589
55099.8598,27071.625,53143.7695,40943.8759,35828.7692,38168.8625,5726.1586,49987.48,44477.4181,55781.4986,-696.3909,-1515.5822,24858.4002
55081.889,27071.4015,53142.3837,40937.1704,35803.5117,38165.1074,5724.6834,49952.6113,44456.8545,55773.3625,-714.6299,-1529.485,24851.6947
55082.3361,27066.35,53139.3886,40940.5231,35801.7236,38161.8887,5722.627,49946.3528,44447.735,55768.5792,-718.9661,-1535.6094,24847.582
55104.1067,27069.4792,53143.3225,40945.6193,35823.7177,38167.4767,5725.9798,49964.9942,44451.7583,55770.3227,-699.9224,-1524.5676,24851.203
55113.852,27074.2625,53142.2049,40948.078,35836.0112,38171.4553,5722.6717,49973.7114,44462.6212,55771.2168,-691.9652,-1521.3937,24847.8949
55103.6596,27064.696,53139.9697,40938.3774,35809.4126,38164.6156,5716.8603,49956.5452,44450.2831,55768.7581,-707.4326,-1535.6094,24841.6364
55089.578,27052.8942,53139.2097,40927.2909,35775.5721,38156.122,5710.2442,49930.8407,44433.1169,55756.1517,-728.6221,-1548.6181,24831.1311
55088.4604,27045.2946,53135.4994,40923.4464,35776.0638,38150.5787,5706.8467,49919.0837,44433.5192,55750.8767,-730.4996,-1549.1545,24826.0796
55098.0717,27047.7086,53135.3205,40929.9284,35796.4933,38154.6915,5703.7622,49937.8145,44445.2763,55757.1352,-720.3519,-1541.242,24830.7288
55111.3486,27047.5298,53135.097,40932.9683,35805.5234,38154.915,5703.4045,49946.8446,44451.3112,55755.0341,-712.2159,-1536.5481,24834.7074
55107.3253,27041.1819,53134.6947,40922.91,35792.5594,38150.1764,5701.4823,49941.6143,44440.8953,55749.7144,-718.6085,-1541.242,24830.3264
55087.8346,27037.6056,53137.8239,40917.0985,35776.5555,38149.9529,5703.8516,49923.107,44438.526,55756.7328,-726.2528,-1548.3499,24830.4605
55081.6655,27042.6571,53140.6403,40915.4892,35778.5672,38153.2609,5706.9808,49912.6017,44435.9332,55758.4316,-729.4267,-1547.6346,24835.065
55109.9181,27049.1391,53142.2943,40926.5757,35808.2056,38156.8372,5708.2772,49937.8592,44453.7699,55770.5015,-715.4793,-1535.3858,24841.6364
55135.3097,27056.5152,53143.6801,40942.1325,35830.1103,38165.7779,5711.5406,49960.5685,44471.4725,55778.6822,-704.9739,-1521.796,24848.3866
55129.99,27059.0633,53149.8939,40940.5231,35823.8518,38167.2978,5714.5357,49959.1827,44467.5833,55780.1127,-706.7174,-1525.8193,24851.0689
55108.9793,27052.6707,53146.5858,40928.4532,35801.2766,38166.0908,5710.6912,49940.1838,44453.4123,55770.0992,-718.0274,-1539.8562,24846.1068
55106.4759,27049.9885,53148.374,40929.6155,35795.9121,38168.9966,5710.6018,49938.8874,44447.8691,55768.6239,-720.9331,-1542.2255,24845.3468
55117.4283,27052.0449,53146.9882,40940.389,35812.1395,38173.5563,5710.9147,49956.724,44460.4754,55776.4918,-708.4608,-1528.8591,24850.89
55124.9385,27051.6425,53145.0212,40940.8361,35822.2872,38171.4553,5711.2277,49968.8387,44467.7621,55778.0564,-699.8777,-1520.8125,24851.7394
55122.7927,27046.144,53145.3341,40938.6456,35811.2901,38165.6438,5715.1169,49964.8154,44460.4754,55777.207,-700.9059,-1524.8805,24852.2758
55114.1202,27043.283,53146.5411,40931.3142,35799.0414,38163.498,5717.3073,49947.7386,44457.525,55777.3411,-708.729,-1534.313,24851.2477
55110.4993,27033.7164,53145.7365,40924.0723,35799.399,38165.7779,5713.8205,49938.6191,44458.7767,55775.2848,-713.4229,-1537.8892,24850.0407
55131.644,27041.7184,53147.7928,40939.0479,35824.0753,38176.015,5715.6086,49956.5899,44466.9574,55779.9786,-699.8777,-1523.5841,24852.7676
55142.9987,27054.9506,53144.7977,40938.1986,35840.7497,38176.5515,5715.3851,49967.8999,44471.2043,55778.5928,-698.0002,-1519.7396,24850.6218
55141.1211,27060.9856,53146.2282,40935.2481,35832.8819,38170.6506,5712.6135,49964.2342,44468.6115,55771.485,-707.522,-1527.1604,24844.0951
55124.6703,27054.3247,53151.3691,40927.7827,35811.5584,38172.0811,5711.183,49953.5501,44456.8545,55772.6473,-722.3636,-1542.6278,24844.4974
55115.4166,27056.247,53152.0844,40922.15,35804.7634,38173.6904,5713.284,49955.0253,44455.2451,55772.5579,-724.5541,-1548.0369,24842.754
55123.3292,27069.2557,53147.6587,40936.8128,35827.0258,38175.2551,5715.0722,49980.2381,44469.9526,55778.8163,-706.628,-1536.0564,24845.2574
55145.9044,27082.6668,53152.1291,40951.5649,35842.8061,38184.1063,5720.3472,50012.6034,44476.524,55787.8911,-692.904,-1522.0195,24849.5489
55129.7218,27071.0438,53144.5742,40940.1208,35824.12,38171.0976,5710.0654,49998.5665,44468.1644,55782.795,-708.729,-1533.6424,24841.1
55119.6188,27067.1099,53145.0212,40930.4649,35799.8461,38169.7118,5704.4327,49973.6667,44450.596,55773.2731,-728.8456,-1549.5569,24835.3779
55115.7296,27065.3218,53139.1203,40924.3852,35780.6236,38167.9684,5699.2918,49959.2274,44447.9138,55767.3275,-735.9087,-1555.4577,24830.5053
55131.1523,27070.4627,53136.8852,40934.5776,35801.6342,38174.0034,5698.0848,49983.5014,44462.3083,55773.0496,-717.9826,-1540.0797,24833.0534
55153.6828,27080.1634,53138.3604,40954.2471,35827.3387,38189.4261,5702.287,50004.825,44477.5075,55783.1526,-700.9953,-1526.4899,24841.0553
55142.3281,27073.8155,53133.89,40941.2831,35818.4427,38189.4708,5697.1014,49995.9737,44472.8583,55774.346,-712.9759,-1535.8329,24837.3002
55118.5906,27061.7902,53129.7326,40925.2793,35794.3475,38180.2619,5695.045,49974.6054,44462.0401,55766.8805,-728.3986,-1548.7969,24830.5053
55118.1436,27058.4375,53132.4148,40931.9848,35794.124,38182.497,5697.8613,49974.9631,44462.1295,55767.9534,-724.9564,-1548.8416,24833.7239
55141.0317,27063.3548,53137.1981,40948.8827,35825.2823,38193.1812,5702.9575,50000.757,44484.6153,55778.1905,-706.628,-1531.8543,24845.1233
55154.2193,27069.5686,53140.3273,40955.5435,35844.9966,38199.9314,5702.5105,50014.9727,44496.5512,55786.863,-697.419,-1520.8572,24849.4148
55142.1493,27063.936,53140.5061,40945.4852,35829.9762,38195.9081,5701.6164,50007.5519,44487.4316,55780.9174,-706.3597,-1526.0875,24848.8784
55124.2679,27056.9623,53143.0542,40927.2909,35801.8577,38187.9956,5701.7505,49983.8144,44478.5804,55781.7221,-722.5871,-1537.4422,24845.5256
55127.6207,27057.4093,53151.9055,40932.1189,35802.9306,38197.3833,5708.5901,49989.9387,44476.4346,55781.9456,-724.6882,-1535.6094,24848.5655
55146.575,27069.5686,53152.1291,40946.0217,35833.8654,38201.9877,5715.9662,50011.9328,44488.0575,55788.3382,-706.1809,-1518.622,24853.7958
55153.6828,27076.0506,53149.2233,40949.7321,35850.8974,38197.2939,5717.7544,50025.7462,44500.4404,55793.5685,-696.2121,-1513.6153,24857.5956
55144.4292,27074.4413,53151.8608,40939.3609,35838.9616,38186.565,5716.8603,50021.9464,44500.0827,55794.8649,-704.4375,-1523.8076,24857.1932
55122.301,27062.1032,53152.1738,40923.3123,35813.2124,38175.7021,5715.8768,50009.0271,44478.3121,55788.7852,-722.8553,-1538.5598,24852.1417
55115.7743,27055.3976,53146.0494,40920.6301,35814.2853,38169.7565,5717.6203,49995.7055,44472.0536,55786.2371,-724.5988,-1536.0564,24853.7511
55130.4817,27060.6726,53144.0377,40934.7564,35840.8839,38172.4834,5721.5989,50009.4742,44493.2878,55795.1331,-705.8233,-1522.1089,24858.132
55143.7587,27065.0536,53140.9979,40941.6407,35852.2385,38172.707,5719.8554,50024.8969,44504.1955,55797.7259,-698.4472,-1516.968,24853.617
55132.1805,27057.901,53138.6286,40931.046,35840.4815,38165.5544,5716.905,50025.6568,44497.3111,55793.1662,-708.7737,-1527.7863,24846.7326
55110.3652,27048.3792,53136.1699,40918.3949,35808.8762,38157.2396,5714.5804,50003.2604,44484.6153,55788.8299,-725.5822,-1540.795,24840.5188
55114.8355,27044.7582,53140.5956,40924.6534,35809.7255,38162.604,5720.2131,49997.583,44485.9564,55792.138,-724.5988,-1536.6375,24843.2457
55131.1523,27045.4288,53138.1816,40927.2909,35832.6137,38165.7332,5715.8768,50018.996,44500.9321,55796.7424,-711.7242,-1524.4782,24844.5421
55137.9919,27049.0944,53137.4216,40933.5941,35849.4222,38166.9402,5714.491,50028.5178,44508.3082,55795.3119,-702.5599,-1519.7396,24847.1349
55127.6654,27052.9389,53140.7744,40928.3638,35842.8955,38163.9004,5713.3734,50015.8668,44505.2236,55803.9397,-709.8466,-1526.2663,24846.1962
55106.8336,27048.2451,53138.9862,40916.5174,35813.7041,38158.9383,5709.7077,49990.0728,44486.3588,55793.2109,-727.2363,-1537.5763,24839.8036
55108.2641,27046.4122,53138.8074,40922.1947,35808.4738,38162.3805,5712.7476,49986.2283,44483.0954,55790.484,-728.2197,-1536.8611,24840.0718
55122.9715,27051.0167,53138.3157,40932.4765,35836.2794,38168.9966,5717.5308,50017.342,44497.0876,55792.8979,-709.489,-1525.7746,24846.9561
55127.6207,27052.4472,53136.7064,40943.0265,35857.1559,38170.7847,5718.112,50028.2496,44506.3859,55791.3333,-700.4142,-1522.4218,24849.4595
55121.2281,27054.9953,53143.6354,40946.1558,35851.0315,38169.9353,5719.6319,50018.6831,44506.073,55793.5685,-701.6659,-1525.6852,24851.65
55098.2505,27052.6707,53140.9532,40932.9236,35826.3999,38164.5262,5715.3851,49998.8794,44480.7708,55786.7289,-720.8884,-1540.5267,24844.1398
55098.8764,27052.6707,53143.0095,40933.5941,35815.2688,38168.9519,5716.2791,49990.6093,44483.453,55785.1642,-722.9,-1544.5501,24843.6928
55118.6353,27057.8563,53142.6966,40943.5183,35836.6817,38172.0364,5718.3802,50012.3352,44501.1556,55793.6132,-707.835,-1532.4801,24847.3585
55129.0959,27062.5055,53140.2826,40949.0615,35854.429,38179.4125,5717.1285,50023.6005,44512.3315,55794.8202,-699.6542,-1522.3324,24850.4877
55116.9813,27055.0847,53139.0756,40937.3492,35834.536,38170.6506,5713.284,50021.8123,44502.3626,55790.7969,-708.4161,-1530.6026,24846.9561
55103.2126,27047.798,53136.304,40920.943,35809.6361,38161.1735,5707.7408,49999.103,44485.0177,55781.7668,-725.5822,-1544.9971,24840.5188
55097.9823,27047.6192,53136.7511,40917.7244,35807.7586,38164.8391,5707.9643,49993.8279,44489.3092,55781.4986,-728.6221,-1547.9028,24841.2341
55123.9997,27055.8,53141.7578,40934.3988,35834.4018,38176.5962,5712.3899,50018.0572,44498.2052,55788.4276,-713.1547,-1533.6424,24847.2691
55131.197,27055.7106,53139.3439,40938.6009,35847.8129,38173.914,5711.2724,50026.9532,44504.6872,55789.5005,-700.5036,-1526.0428,24850.8453
55126.8607,27054.1459,53137.8239,40934.4882,35841.6438,38171.2765,5714.6251,50016.0009,44500.8427,55788.3382,-707.9691,-1531.0943,24846.4644
55107.3253,27052.5366,53143.2331,40920.943,35822.9578,38167.7002,5716.5921,49997.8513,44496.4617,55791.2439,-723.3918,-1541.1079,24844.8551
55101.9162,27055.3529,53142.5625,40918.529,35817.7274,38171.9917,5713.5522,49998.2983,44493.3325,55785.1642,-730.8125,-1539.9903,24845.0339
55130.9735,27062.4161,53142.5625,40934.4435,35843.9684,38179.9489,5713.7311,50023.5111,44505.0001,55791.6909,-715.6581,-1525.7746,24849.4595
55136.7849,27061.8796,53141.4896,40943.2948,35859.4805,38180.9771,5714.3569,50031.8259,44519.037,55798.9329,-706.3597,-1518.7562,24849.5936
55129.9453,27053.6542,53140.9979,40940.5231,35849.2434,38175.9256,5712.7029,50018.6384,44515.4607,55796.6977,-711.4112,-1527.6968,24846.3303
55115.7296,27048.558,53136.8405,40927.5144,35819.7838,38167.879,5705.5503,49989.8046,44492.9749,55785.7901,-727.1022,-1546.4276,24835.6014
55116.2213,27049.9885,53135.7229,40929.9284,35811.2007,38166.9402,5703.3151,49983.0991,44486.1799,55782.8397,-731.7513,-1552.7755,24831.1758
55134.5497,27050.6591,53133.9347,40934.5329,35831.2279,38169.1307,5700.32,50003.1263,44496.0147,55790.2157,-723.9282,-1545.9359,24831.1311
55138.9754,27049.765,53129.7326,40927.8274,35842.0908,38164.1686,5695.1344,50012.2011,44516.8912,55792.9873,-718.6979,-1540.3479,24830.7288
55128.5595,27047.2616,53128.7938,40914.3716,35828.4563,38155.0491,5690.977,50005.3614,44507.4588,55787.1759,-735.864,-1552.8649,24823.755
55104.0173,27038.7232,53125.5752,40902.1676,35799.5778,38142.3533,5686.6407,49982.4286,44486.1799,55777.6988,-757.9029,-1572.2662,24815.9319
55100.2175,27029.5143,53124.994,40900.6029,35793.0064,38137.8382,5683.7797,49974.2925,44488.728,55777.0729,-756.6959,-1573.3838,24817.1836
55114.4332,27029.9166,53121.5966,40903.0616,35813.2124,38139.1793,5681.0528,49995.0796,44503.1673,55776.2235,-742.5696,-1566.9465,24819.5976
55120.6023,27035.147,53122.133,40909.9907,35825.8635,38143.158,5683.6456,50007.7307,44505.7601,55780.2916,-736.8922,-1556.7541,24822.0563
55120.4234,27035.8175,53127.1845,40905.8779,35818.4874,38140.744,5685.6126,50007.686,44498.1605,55789.7687,-738.4121,-1557.8717,24825.3644
55105.6713,27029.112,53127.7657,40896.2667,35788.6702,38138.8664,5683.9585,49986.9883,44479.6532,55787.8017,-752.8514,-1569.137,24819.5529
55102.2738,27024.6863,53120.1661,40887.1919,35784.6022,38137.1677,5680.5164,49980.8192,44475.0935,55780.6939,-754.7289,-1574.3226,24816.2895
55125.3408,27033.0012,53121.5072,40901.8099,35815.0452,38148.7906,5684.2268,50010.9047,44492.0808,55784.5384,-740.0215,-1562.4315,24821.3857
55135.7567,27038.4997,53121.0601,40911.3765,35829.3504,38151.8751,5685.2102,50029.0543,44506.073,55788.9193,-733.1818,-1553.1331,24822.4586
55127.6207,27031.9283,53120.8813,40905.3415,35815.537,38146.8236,5686.1937,50017.0738,44496.7747,55787.757,-743.7319,-1557.4694,24818.3012
55108.8005,27028.0391,53120.6131,40893.5398,35789.1172,38143.2027,5684.4056,49986.0495,44488.8175,55781.3197,-762.1497,-1572.2215,24814.1885
55102.4526,27025.3569,53122.5353,40889.7847,35777.8072,38145.1249,5683.8244,49986.6754,44482.4696,55778.1011,-763.2673,-1576.066,24810.7016
55122.1669,27034.2082,53127.4527,40910.3036,35814.777,38159.6088,5695.492,50023.1534,44510.588,55791.9145,-735.9087,-1550.2274,24821.7881
55142.2387,27047.7533,53132.236,40927.8721,35844.8625,38164.6603,5700.2753,50051.406,44527.3519,55798.9329,-721.1566,-1537.4422,24829.79
55133.2086,27041.9866,53131.0737,40925.011,35839.1851,38158.6254,5698.6213,50035.2681,44518.2323,55794.239,-729.7397,-1546.0253,24828.7171
55108.8005,27035.8175,53131.6996,40915.6233,35815.4923,38155.0044,5698.3083,50013.6316,44500.2168,55787.4441,-742.4802,-1557.4247,24824.9173
55104.956,27036.2645,53134.2924,40911.6894,35805.3893,38161.1288,5697.7272,50018.3254,44503.212,55784.4937,-744.8047,-1561.0456,24825.5432
55130.7946,27050.7038,53137.7792,40935.3375,35837.1735,38171.187,5703.6281,50047.6956,44519.2605,55796.3401,-724.2858,-1552.6861,24832.3828
55141.5682,27058.4822,53137.7345,40936.0081,35849.0646,38170.9635,5702.6446,50064.7277,44521.8086,55795.6696,-717.9826,-1543.3431,24831.7122
55127.5313,27055.6211,53135.6335,40930.1519,35834.4913,38162.8722,5702.8234,50054.7141,44512.6444,55792.4509,-727.5045,-1546.4276,24829.2983
55113.852,27046.4569,53134.65,40922.2841,35812.6312,38159.6535,5702.3317,50034.5081,44506.3859,55784.0466,-742.1672,-1558.3187,24825.5432
55111.8404,27038.6338,53133.1301,40916.6962,35800.2484,38159.43,5699.5153,50029.1884,44502.0497,55781.0515,-746.8164,-1561.448,24827.6442
55125.5643,27044.0429,53132.0125,40926.4416,35820.1414,38163.6322,5699.7389,50048.2768,44516.8912,55786.863,-731.796,-1549.2886,24832.9639
55133.8345,27047.6639,53131.1631,40930.1519,35835.3406,38167.432,5698.8448,50065.0406,44528.0224,55794.239,-728.3092,-1543.5666,24831.5334
55123.1056,27035.9516,53127.4527,40923.1782,35823.1813,38161.5311,5693.3016,50062.716,44520.691,55787.2206,-739.0827,-1554.6978,24822.3245
55107.9065,27030.1402,53128.6597,40911.9576,35800.159,38150.1317,5689.2335,50044.7005,44510.9904,55783.2867,-754.7736,-1564.7113,24819.5976
55097.6694,27027.7262,53130.582,40910.84,35799.5778,38153.7974,5691.5581,50040.6772,44513.0914,55786.55,-753.4772,-1563.2808,24822.0116
55109.9181,27033.2247,53132.236,40925.4134,35821.6166,38162.0675,5695.9391,50065.9347,44529.8553,55798.8435,-736.0876,-1547.5899,24828.583
55128.4701,27037.8739,53133.8453,40932.8789,35830.6915,38164.8839,5695.3579,50084.4419,44536.0243,55802.688,-726.8339,-1545.4888,24831.7122
55116.8919,27038.0527,53135.2758,40931.1354,35820.812,38162.4252,5698.1295,50070.2262,44531.2411,55801.3022,-731.8854,-1551.6132,24828.6724
55096.7306,27030.3637,53134.4712,40916.2492,35803.6011,38156.5243,5696.3861,50038.442,44512.1974,55790.0816,-751.0185,-1566.0077,24825.9902
55091.7685,27027.145,53132.2807,40907.6661,35803.5117,38156.0326,5692.1393,50027.7579,44517.9194,55786.7289,-755.8018,-1567.3488,24827.3313
55117.7412,27033.0459,53127.5868,40912.9411,35823.4048,38159.6088,5692.2287,50050.8696,44534.4597,55789.724,-746.0564,-1557.2906,24826.1243
55140.8976,27036.4434,53129.822,40922.2841,35838.3805,38163.9451,5695.6708,50072.1931,44541.4782,55794.4626,-729.1138,-1543.4325,24829.0747
55140.8082,27040.6455,53135.2311,40927.2015,35838.0675,38171.2317,5703.1363,50069.3768,44539.9135,55801.1234,-729.382,-1544.7289,24832.1146
55115.6402,27026.698,53130.6714,40910.2589,35815.1793,38160.0559,5693.5698,50049.4391,44523.2838,55786.103,-749.4092,-1562.7891,24822.1904
55117.026,27021.87,53130.6267,40907.7555,35806.641,38159.8324,5689.9488,50045.5052,44515.1478,55781.588,-752.762,-1567.6171,24818.7482
55137.8578,27028.7991,53132.5489,40922.4182,35825.7741,38166.4038,5694.3297,50073.7578,44526.2343,55784.9407,-735.5064,-1550.3168,24823.5315
55148.7654,27033.2247,53137.1534,40935.6505,35843.1637,38173.5563,5698.7554,50095.7966,44541.344,55793.0321,-721.1119,-1539.5433,24830.5053
55136.7849,27031.4366,53133.5771,40929.3026,35841.6438,38167.432,5696.8331,50091.9521,44536.7843,55790.2604,-727.3257,-1543.4325,24831.1311
55122.4798,27025.6251,53129.2856,40922.2394,35820.1861,38166.3144,5697.4143,50070.405,44527.2177,55786.55,-738.5463,-1554.6083,24827.7783
55122.4798,27027.7709,53128.6597,40925.2793,35813.3018,38171.6341,5701.7058,50070.5391,44528.5141,55786.9524,-736.4452,-1554.2507,24833.2769
55145.815,27038.9467,53137.2875,40938.4668,35834.8042,38179.3678,5707.8749,50097.7635,44546.6638,55802.241,-715.7475,-1539.5433,24846.2856
55156.1862,27047.0381,53140.5509,40944.0994,35853.2667,38183.6146,5707.9196,50113.0968,44557.5714,55808.8571,-706.4044,-1526.7134,24850.0407
55154.6216,27046.0993,53144.1271,40943.8312,35847.0976,38183.9275,5709.3501,50106.3913,44557.8843,55811.2264,-711.4112,-1528.1439,24850.8453
55135.8908,27044.5347,53147.1223,40937.1257,35830.1997,38184.1511,5713.9099,50091.9074,44553.3693,55807.8736,-722.6318,-1539.588,24845.9727
55143.1328,27048.4239,53148.8657,40935.9187,35833.1054,38186.6097,5716.6368,50087.9288,44552.654,55808.5442,-725.5822,-1543.2984,24843.9163
55166.0657,27061.8349,53154.1407,40950.4473,35861.5369,38199.5291,5720.7495,50114.0803,44566.5568,55813.998,-700.8165,-1527.0263,24851.0242
55186.7187,27069.971,53157.0911,40963.2325,35880.1335,38206.3687,5720.4366,50132.9005,44568.3002,55815.9202,-686.6902,-1516.6551,24849.236
55180.2367,27063.0866,53151.3244,40957.5105,35871.461,38198.9032,5713.5075,50125.9714,44557.3479,55809.7064,-704.3481,-1532.793,24839.0883
55150.3748,27048.6921,53140.372,40948.2569,35835.0277,38184.7322,5702.9128,50094.679,44535.3538,55789.5005,-728.6221,-1557.2906,24824.4703
55131.1523,27036.041,53129.822,40937.3045,35815.4476,38174.5398,5691.8263,50074.6965,44523.8203,55779.3975,-739.1274,-1564.0408,24816.7366
55135.4885,27027.0109,53122.4906,40932.5212,35828.0092,38167.432,5686.909,50085.3807,44523.5074,55780.381,-732.8242,-1560.0622,24815.9766
55136.1144,27019.0537,53115.7851,40935.9634,35841.5097,38165.1968,5686.0149,50097.8976,44527.2177,55781.4986,-724.0176,-1559.5704,24813.5179
55123.2398,27013.3317,53111.0466,40922.7312,35825.7294,38153.3504,5678.0577,50079.2563,44525.0273,55777.0282,-737.4287,-1565.2478,24806.3654
55104.8666,27013.0634,53108.1408,40906.4144,35796.8509,38144.4544,5672.3803,50056.681,44502.0944,55764.2877,-765.3683,-1580.8046,24800.1963
55097.4011,27012.6164,53113.1029,40904.4921,35789.6537,38154.5573,5678.8623,50058.4245,44505.2683,55768.9816,-769.9281,-1576.1554,24805.4266
55112.198,27020.9759,53122.3118,40922.15,35815.8946,38161.7099,5686.5513,50088.5993,44522.6133,55786.1924,-745.6094,-1556.8435,24819.1953
55132.9851,27029.6484,53131.1631,40933.7729,35843.0296,38169.086,5690.5746,50110.9064,44541.4335,55799.7376,-727.8621,-1544.103,24830.6394
55132.5381,27041.6737,53139.2992,40937.1257,35843.2978,38178.429,5702.9575,50111.9792,44547.9155,55803.7609,-725.0905,-1539.2303,24839.8483
55113.8967,27041.5395,53138.8521,40927.6038,35815.4029,38174.7186,5705.0586,50099.1046,44545.3227,55799.067,-740.5579,-1549.3333,24837.4343
55121.4069,27041.629,53144.753,40926.0392,35808.1162,38183.2123,5708.3219,50098.9258,44546.4402,55806.4878,-742.0331,-1548.931,24842.754
55144.3845,27053.3413,53149.5363,40940.0314,35833.7313,38193.2259,5713.7758,50129.2348,44564.411,55817.306,-719.3685,-1530.6026,24850.1301
55161.4612,27055.3082,53149.5363,40946.5581,35853.0432,38193.8517,5712.9264,50154.0899,44571.7871,55821.7764,-708.5055,-1527.3392,24849.4595
55160.4778,27055.8447,53151.9055,40945.5299,35848.5281,38190.3201,5715.4298,50146.2221,44572.5024,55820.7035,-713.4676,-1533.1507,24847.2244
55139.1542,27049.1391,53149.581,40930.9119,35824.0753,38176.1044,5709.1713,50117.4331,44552.2964,55809.617,-733.6289,-1551.2556,24836.4061
55141.5682,27051.0167,53147.9269,40929.1685,35817.8169,38171.7682,5706.1315,50109.3864,44544.2498,55814.0874,-739.4403,-1559.3022,24834.5733
55150.5536,27047.9769,53140.1932,40936.9469,35837.3076,38174.8974,5703.6281,50123.0657,44553.7716,55816.9484,-732.8689,-1550.7191,24830.1923
55152.1629,27041.0925,53138.2263,40943.0712,35847.7682,38177.8479,5701.08,50130.6653,44562.1759,55818.6918,-726.8339,-1541.242,24828.8959
55145.5915,27035.7281,53132.5042,40936.9022,35836.3688,38167.879,5694.598,50115.3767,44550.7765,55807.3372,-734.2994,-1551.8367,24822.6374
55124.1338,27026.8768,53121.5966,40926.0839,35809.055,38158.7148,5686.4172,50086.7218,44527.7989,55789.6346,-752.449,-1572.7133,24814.0991
55118.3224,27021.9594,53124.3235,40923.0888,35795.3757,38161.4864,5687.0878,50082.7879,44528.8718,55787.6229,-752.8961,-1573.7414,24813.3391
55138.3048,27023.1217,53126.8269,40935.0246,35818.3533,38168.9966,5690.5299,50104.2902,44536.7843,55795.7143,-738.0992,-1558.6317,24815.8872
55146.2173,27026.0721,53126.2457,40938.6009,35842.7167,38169.2201,5692.2287,50115.2426,44542.6852,55796.4742,-727.0575,-1550.138,24818.9718
55133.611,27024.1052,53122.4012,40931.0907,35837.1288,38158.1336,5689.3677,50099.507,44532.761,55793.5238,-737.6522,-1559.2128,24816.4237
55108.2641,27010.8283,53117.0815,40913.8799,35808.0715,38147.5389,5684.182,50068.4828,44517.4277,55786.4159,-755.8912,-1575.0378,24809.8075
55109.6499,27010.56,53118.4226,40913.8799,35809.0103,38149.327,5686.4619,50068.6616,44519.4393,55786.103,-750.795,-1574.412,24814.1438
55129.8559,27019.5007,53119.7637,40927.5144,35836.4135,38162.5146,5690.1276,50098.3447,44533.8786,55793.7026,-731.2149,-1554.8319,24826.2137
55135.9802,27022.8088,53120.3002,40933.7729,35851.8362,38169.4883,5690.9323,50117.5672,44544.965,55800.8999,-717.7591,-1541.8679,24831.7569
55144.7868,27028.5308,53125.9328,40940.0314,35849.5563,38178.7419,5701.7505,50124.0492,44546.9767,55799.3352,-714.6746,-1542.3149,24836.3614
55125.0279,27029.0226,53130.6714,40926.2627,35819.2474,38174.0034,5700.0518,50121.0541,44541.1205,55801.481,-727.0128,-1550.7638,24836.1379
55113.1815,27026.4745,53132.0125,40923.804,35805.7916,38170.5165,5698.3083,50108.7606,44538.483,55801.7939,-736.4452,-1554.4742,24834.2603
55134.6391,27031.3025,53132.9513,40933.6835,35835.743,38172.8411,5702.4211,50134.5992,44555.6045,55803.2691,-723.1236,-1545.8018,24838.0154
55137.1425,27033.8058,53131.6549,40941.909,35854.7866,38171.8129,5700.9459,50155.5204,44559.4043,55800.5869,-717.3121,-1539.6327,24839.133
55123.6868,27030.319,53128.2127,40933.7282,35845.3542,38163.8557,5697.2802,50141.5282,44551.4023,55797.1448,-728.6221,-1546.2041,24833.7239
55100.9774,27015.2986,53124.1894,40921.703,35807.3115,38150.8023,5691.2452,50106.7042,44532.5822,55789.0981,-750.8397,-1562.1185,24826.7055
55085.4653,27002.1558,53120.5237,40914.2822,35791.5759,38145.5272,5683.6009,50094.0531,44528.1118,55789.5005,-762.9097,-1570.5675,24819.9552
55098.8764,26994.7797,53115.8298,40917.7691,35810.8878,38147.3601,5679.9799,50103.3515,44535.5326,55794.999,-751.1973,-1560.241,24820.3129
55109.0688,26989.3259,53114.8463,40917.0538,35818.4874,38143.605,5677.2977,50120.2941,44534.3703,55792.8532,-749.4092,-1559.0787,24819.7317
55091.3215,26987.4483,53111.4936,40908.5155,35806.1492,38140.3863,5673.2744,50109.7888,44535.6667,55789.6793,-758.484,-1570.2993,24814.412
55072.7695,26983.2462,53106.7997,40897.9207,35787.8208,38138.1512,5669.7875,50086.23,44518.5453,55781.7668,-769.6599,-1579.5529,24810.2546
55073.0377,26979.2229,53106.1739,40895.3279,35780.8024,38140.6099,5670.9945,50085.0677,44521.5404,55777.1176,-771.0457,-1580.8046,24811.3722
55099.2787,26996.3443,53108.5432,40912.2258,35808.5185,38147.8071,5677.1636,50112.6498,44529.2741,55784.8513,-751.3314,-1566.6783,24815.5296
55112.8238,27003.6757,53110.4654,40923.1782,35821.3037,38156.0773,5677.5659,50127.0443,44539.4218,55783.689,-740.3344,-1556.6647,24816.4684
55104.3302,27003.5416,53108.6773,40925.0557,35804.8528,38158.8489,5675.5096,50114.885,44523.4179,55772.2449,-744.8494,-1562.342,24815.5296
55093.4225,26996.1208,53105.3245,40909.6777,35781.16,38158.4018,5674.5708,50087.7053,44510.9904,55761.9631,-754.1031,-1572.3556,24813.0709
55081.7996,26996.3443,53105.9057,40903.0616,35782.5905,38159.2959,5671.8886,50075.8141,44512.0633,55759.9515,-756.6065,-1572.0427,24812.8027
55106.7889,27004.8827,53108.3643,40915.8915,35804.3164,38168.5495,5675.3755,50106.6595,44527.6201,55770.2333,-739.4403,-1555.9494,24817.5412
55123.9997,27010.9177,53110.5995,40932.6553,35821.7508,38173.1093,5682.081,50123.021,44536.0243,55774.5695,-725.3587,-1542.2255,24824.6491
55110.5887,27000.9488,53107.515,40926.1733,35812.676,38165.4203,5680.3375,50103.6644,44527.2177,55772.4684,-734.2994,-1548.7075,24823.7103
55084.2583,26989.1918,53103.7599,40907.3979,35780.4894,38150.8023,5675.0178,50078.4963,44506.2518,55763.483,-755.3101,-1568.9135,24821.0728
55072.9483,26985.2132,53104.5645,40903.1957,35781.2941,38147.1366,5677.8342,50073.3554,44501.6921,55761.9184,-756.0253,-1571.1933,24826.9737
55082.5596,26975.8254,53098.3955,40903.0616,35798.2814,38149.9976,5679.7564,50084.4866,44509.4705,55768.4451,-739.9321,-1560.241,24831.1311
55097.4458,26979.4017,53096.5626,40905.3862,35812.5865,38145.1696,5683.3774,50090.5663,44510.1857,55777.207,-734.5676,-1551.345,24833.7686
55084.2583,26983.2462,53103.2234,40903.0169,35806.5069,38141.5933,5691.0664,50069.198,44508.04,55783.1079,-738.8592,-1550.1827,24835.065
55052.1612,26972.875,53102.3294,40888.98,35780.8471,38134.5749,5693.8827,50046.8463,44491.9467,55777.5646,-751.6891,-1559.2128,24831.3993
55051.2671,26974.5737,53098.7531,40881.4698,35778.2096,38131.7586,5696.3414,50032.2729,44488.3704,55774.4354,-754.8183,-1564.6666,24831.444
55068.3439,26979.8934,53100.4518,40886.879,35793.677,38139.2688,5699.7836,50041.9289,44494.5395,55783.1973,-738.278,-1549.0651,24836.8531
55075.0941,26991.2928,53099.8707,40893.6739,35813.7488,38139.4029,5699.7836,50054.9823,44496.2382,55783.3314,-728.175,-1537.7998,24838.1943
55053.3682,26992.6339,53092.1817,40884.3756,35797.4321,38131.8927,5693.1674,50024.8969,44474.7359,55777.5199,-742.346,-1554.3401,24828.583
55030.1224,26977.9265,53084.2692,40869.0423,35769.7606,38117.8111,5686.2831,49980.551,44450.3725,55769.2945,-763.5802,-1576.6919,24815.8425
55015.5491,26977.8818,53079.2624,40860.3251,35762.2951,38109.9433,5683.8244,49959.6745,44441.4765,55756.5987,-770.6881,-1584.1126,24809.0029
55028.9154,26991.4716,53081.0505,40874.0938,35790.3689,38113.4748,5687.2666,49977.2429,44448.5843,55754.3188,-758.931,-1572.2662,24812.2662
55045.1428,27002.1111,53081.8999,40887.8624,35803.6011,38115.71,5688.9653,49986.6754,44450.5513,55763.3936,-744.8047,-1565.7842,24813.4732
55032.7599,27000.5465,53078.3683,40888.1754,35795.1969,38112.4914,5687.1772,49969.0175,44439.1966,55756.9116,-751.1079,-1573.205,24807.3936
55015.415,26992.321,53076.8484,40873.1103,35774.3204,38107.3952,5685.2102,49938.3062,44422.9245,55749.4015,-766.2624,-1587.6442,24801.895
55011.794,26994.3774,53077.3848,40877.4912,35772.4428,38110.1668,5686.9984,49922.0341,44422.1646,55746.6745,-768.7211,-1585.6773,24800.7327
55025.1603,27000.5912,53078.2789,40889.0694,35788.1337,38117.7217,5688.6524,49936.0263,44436.2015,55750.2955,-756.3382,-1575.5296,24802.9232
55037.0514,27008.9507,53081.9893,40895.775,35792.6488,38120.1357,5691.4687,49941.5249,44443.801,55756.107,-744.3577,-1565.7842,24809.9864
55027.8425,27011.4541,53083.5092,40890.9023,35775.5721,38113.7431,5689.8594,49932.2712,44430.4794,55753.3354,-755.9806,-1573.6073,24809.0476
55011.8387,27003.4969,53081.0505,40882.9451,35751.5216,38107.8422,5685.9255,49908.2655,44412.7321,55746.9875,-773.415,-1588.136,24806.9465
54998.07,26992.2316,53076.2672,40871.5457,35738.9152,38102.9695,5681.8128,49896.0614,44410.4075,55741.4889,-775.8737,-1590.6394,24804.3537
55013.8056,26998.4901,53076.2672,40881.7828,35757.0648,38108.1998,5681.4104,49914.9263,44417.6495,55740.1925,-761.6132,-1577.6306,24808.4217
55020.8688,26998.803,53074.4791,40888.533,35767.4807,38107.0375,5680.7399,49917.2062,44421.1364,55743.59,-751.555,-1568.5111,24811.9533
55009.4694,26990.0411,53068.9806,40883.8838,35758.3612,38100.1532,5679.8905,49904.9127,44409.9158,55734.4258,-762.1497,-1575.3955,24807.2147
54993.9126,26977.3006,53066.209,40876.016,35732.2097,38092.5983,5673.0509,49878.0459,44389.2628,55722.2664,-775.5607,-1588.4936,24799.3916
54991.4986,26970.2375,53064.1973,40868.9976,35723.9395,38092.6877,5667.5524,49863.4279,44389.1287,55715.9185,-778.69,-1595.1991,24794.6531
55017.1584,26983.6485,53069.7852,40886.2084,35753.6227,38101.7625,5675.1072,49890.9205,44399.634,55718.3325,-759.9592,-1582.8609,24801.9844
55032.447,26993.4386,53076.6249,40895.6409,35767.436,38106.1435,5679.7117,49908.936,44416.0849,55731.9224,-747.4869,-1574.8143,24808.1982
55026.9037,26991.6952,53079.3965,40899.3959,35759.7023,38110.3456,5680.114,49893.9157,44410.8546,55727.7203,-746.727,-1577.2283,24808.5558
55027.7084,26987.6271,53081.4081,40896.982,35743.2961,38109.8539,5687.5795,49875.8554,44402.1374,55725.3957,-748.1128,-1576.8707,24808.69
55036.8726,26989.6835,53084.6715,40900.1559,35747.9453,38111.7761,5693.7933,49870.804,44397.7118,55725.1722,-741.7649,-1573.5179,24813.4732
55057.2127,27001.4852,53094.3722,40911.2871,35778.7907,38126.4389,5702.3317,49893.0216,44412.598,55742.383,-723.1236,-1551.0768,24829.343
55076.614,27008.3696,53100.0495,40916.8303,35794.9287,38135.916,5706.1762,49914.0322,44426.7243,55754.5871,-708.1479,-1534.76,24838.5966
55072.6801,27002.424,53101.9717,40914.6845,35782.1435,38133.9937,5704.2539,49901.9623,44429.9877,55752.4413,-711.0089,-1536.727,24838.9989
55062.4877,26998.7136,53104.654,40905.1627,35756.2602,38129.6575,5707.1596,49878.6271,44423.5951,55750.1614,-722.2742,-1542.3149,24840.2059
55056.2739,27002.871,53107.2468,40907.8002,35756.7072,38133.3679,5717.7544,49878.2694,44425.7855,55755.7493,-718.7873,-1533.5083,24851.1136
55074.96,27003.5416,53101.6588,40915.3998,35775.2144,38136.2736,5715.6086,49898.7436,44436.6485,55762.4102,-710.2042,-1521.4831,24856.2992
55086.3594,27006.6708,53094.0145,40918.5737,35793.7664,38131.088,5711.5853,49912.9146,44436.7379,55761.382,-707.9244,-1522.4218,24854.511
55073.6636,26995.8973,53089.0077,40902.1676,35775.2591,38121.2085,5701.527,49904.9127,44423.5951,55756.554,-725.1352,-1538.0681,24845.5703
55043.1758,26979.7146,53078.2789,40880.4864,35743.6985,38105.9647,5689.8147,49875.1402,44416.4872,55746.6745,-751.7785,-1558.4081,24833.6345
55045.7686,26978.9547,53076.3566,40881.1569,35738.6917,38107.9763,5688.563,49875.3637,44414.8779,55742.9641,-757.7688,-1567.5277,24831.1311
55062.6665,26976.3172,53079.3965,40884.5544,35754.5614,38106.6352,5683.5562,49897.5813,44426.1432,55755.347,-752.3149,-1566.1865,24826.8843
55072.7248,26980.7875,53077.8319,40889.3377,35760.9987,38103.0142,5681.6339,49906.7008,44430.5241,55760.175,-749.4092,-1566.9018,24819.0165
55057.8386,26977.1218,53069.2041,40886.0296,35747.9006,38099.0356,5677.2977,49898.0731,44420.6893,55747.8368,-763.4461,-1579.6423,24805.6054
55031.7317,26966.6165,53067.6842,40868.5058,35720.4974,38092.0172,5673.0062,49873.5756,44407.0548,55735.8116,-783.7862,-1593.9921,24796.7094
55031.9552,26965.9907,53073.4062,40872.8868,35720.1844,38093.4924,5674.7496,49868.7029,44406.1607,55736.7951,-785.7084,-1591.8016,24796.9329
55055.1116,26976.5854,53075.9543,40890.7235,35745.4866,38100.9579,5678.8623,49885.6455,44422.3434,55746.1828,-762.0603,-1575.0378,24804.6219
55070.132,26981.4581,53076.5355,40897.0267,35765.1114,38105.2941,5678.4153,49901.9176,44424.2656,55745.9146,-751.1973,-1563.9961,24806.6336
55063.9182,26982.1286,53076.4014,40896.1773,35760.2835,38108.7363,5681.4998,49890.9205,44415.7273,55741.5783,-756.5618,-1563.6832,24806.3654
55052.2953,26980.6534,53073.4956,40884.3756,35733.0143,38109.4962,5682.1704,49879.2529,44406.6525,55730.4919,-765.9048,-1570.031,24803.5043
55052.5188,26980.6087,53071.171,40886.9684,35734.8919,38116.7829,5684.3609,49880.7281,44401.8245,55728.5696,-762.7755,-1569.6287,24805.3372
55070.1767,26997.9537,53078.86,40903.5534,35766.1396,38132.2503,5690.3064,49911.5735,44426.2773,55744.5288,-737.831,-1555.86,24815.8872
55095.5683,27014.4939,53088.8736,40919.5125,35785.8986,38142.0404,5697.4143,49932.9865,44447.6008,55757.0457,-720.6649,-1541.0632,24826.3925
55098.5187,27023.6135,53098.9319,40932.9683,35792.5594,38146.3766,5705.8632,49929.4996,44445.768,55760.1303,-716.3286,-1537.7104,24830.9076
55080.8161,27025.6698,53108.0961,40930.9119,35779.6848,38151.294,5714.7592,49916.9827,44436.3803,55758.4316,-722.9447,-1542.7619,24833.2769
55084.2583,27037.0245,53116.6345,40935.874,35782.1435,38163.3639,5718.1567,49929.2314,44447.6008,55758.208,-722.9894,-1539.9903,24837.7472
55112.198,27046.4122,53119.9425,40942.5795,35803.1541,38166.9849,5716.8603,49955.1147,44463.6047,55760.9349,-712.5735,-1530.2449,24841.4129
55130.437,27058.6163,53126.7375,40944.9041,35816.6099,38170.2483,5717.0838,49980.8639,44468.7009,55773.1837,-709.0867,-1522.3324,24847.0008
55121.5857,27063.4443,53127.4974,40931.7613,35806.5069,38168.2366,5709.0372,49969.6881,44472.0089,55776.8047,-717.3121,-1530.6026,24845.9727
55102.542,27054.1459,53125.7987,40923.4911,35788.849,38165.6438,5706.6232,49950.3762,44463.2918,55764.4665,-732.0642,-1536.6822,24844.1398
55092.0814,27046.0993,53119.0485,40919.289,35780.1765,38163.9898,5705.9973,49949.2139,44461.8613,55758.4763,-732.7348,-1533.6424,24844.0951
55113.0921,27055.8894,53126.7375,40932.0742,35807.5798,38180.0383,5713.5969,49983.3226,44487.9234,55778.5928,-709.042,-1510.7542,24857.4167
55130.7499,27061.5667,53129.0174,40942.4007,35828.0987,38188.2191,5721.6436,50006.3896,44499.144,55784.5831,-695.4521,-1500.5171,24866.7151
55119.7529,27057.3646,53122.893,40935.3375,35819.0686,38178.8313,5721.8671,49998.7453,44496.9982,55782.1691,-702.0682,-1505.8815,24864.1223
55101.648,27040.4667,53117.2156,40918.3949,35796.538,38165.7779,5717.3967,49972.862,44481.4414,55775.8212,-720.1284,-1524.5676,24856.6568
55096.06,27030.766,53114.444,40914.5504,35787.6867,38160.4135,5714.8933,49954.1759,44478.0439,55772.4684,-731.7066,-1533.4636,24849.3701
55103.0338,27029.0226,53108.4985,40917.6797,35804.8528,38155.1832,5707.0255,49969.2857,44484.0342,55772.3343,-722.8553,-1528.5015,24840.9659
55116.3554,27027.8603,53101.1224,40917.6797,35815.1346,38144.8567,5703.4045,49979.4781,44477.4181,55767.7746,-723.8388,-1534.76,24830.1476
55106.0736,27021.423,53095.2662,40912.047,35803.1541,38132.0715,5697.906,49965.8883,44465.4375,55763.2148,-738.0098,-1550.9427,24817.3177
55085.2418,27013.3764,53096.4732,40901.2735,35777.0026,38123.1308,5692.0052,49940.4073,44447.2432,55758.3869,-752.8067,-1566.276,24809.9416
55086.5829,27015.0751,53098.8425,40895.1491,35774.4992,38119.8227,5689.8147,49938.1721,44448.4502,55753.7377,-759.8251,-1570.5675,24805.6501
55105.6713,27025.2675,53099.4236,40907.8896,35800.9189,38125.0083,5694.9556,49960.9709,44470.489,55757.2246,-745.52,-1562.9232,24810.0758
55111.5274,27030.319,53101.7929,40918.3949,35816.6993,38127.78,5699.6047,49968.7046,44480.7708,55764.1089,-737.9651,-1548.8863,24814.1885
55104.9113,27033.6717,53105.2351,40909.9907,35810.2173,38127.2882,5701.8846,49966.4247,44482.4696,55771.0379,-741.899,-1551.2556,24814.7249
55094.5401,27027.7709,53107.1126,40895.2385,35790.6371,38123.0414,5705.1033,49943.4471,44470.0867,55765.8523,-754.3713,-1562.2079,24812.8474
55109.6946,27036.9351,53119.4061,40908.8284,35797.745,38136.4971,5714.7145,49945.3247,44471.0702,55771.0826,-746.28,-1551.7473,24822.861
55137.679,27055.04,53134.2924,40925.8157,35832.569,38157.8207,5728.5726,49989.1788,44501.6026,55787.8464,-719.9049,-1529.3509,24839.3118
55152.6099,27062.6843,53144.7977,40941.5513,35856.1277,38170.9188,5745.8729,50018.1913,44522.7027,55802.6433,-695.5415,-1508.3849,24856.0756
55148.0502,27073.1449,53155.303,40946.6475,35858.1394,38177.4008,5759.5074,50023.064,44537.0972,55816.7696,-691.3841,-1505.1216,24866.7151
55123.5527,27070.7756,53160.5333,40937.3045,35836.2347,38176.7303,5763.4413,50006.7025,44531.554,55813.1486,-706.3597,-1510.0837,24871.1407
55124.715,27073.5919,53164.0202,40936.4998,35830.4232,38180.7536,5770.0127,50018.6831,44539.7794,55817.5743,-705.8233,-1501.2324,24875.6111
55147.5585,27089.1041,53170.1446,40955.2753,35868.7788,38196.3551,5775.4219,50050.9143,44561.9524,55832.237,-682.801,-1480.177,24884.4624
55159.539,27092.9486,53171.8433,40961.3997,35885.2744,38201.8536,5774.9301,50054.4459,44567.0933,55836.1709,-673.3239,-1476.0643,24888.7986
55142.6858,27081.6386,53160.4439,40948.2121,35861.9839,38190.0519,5762.5473,50036.5645,44543.8921,55823.2963,-684.2762,-1495.3762,24876.3263
55115.6849,27061.8349,53144.8871,40933.3259,35825.2376,38169.98,5743.1906,50009.5636,44517.1148,55805.8172,-707.6561,-1526.3557,24856.1651
55097.9823,27052.4472,53130.8949,40919.1102,35810.3514,38156.2114,5727.6785,49991.5481,44496.9982,55792.2274,-727.4151,-1544.9524,24841.3235
55105.6713,27051.9555,53119.4508,40922.7312,35823.2707,38157.0607,5717.3967,50004.9591,44500.7533,55786.2818,-722.006,-1542.1808,24835.6462
55111.9298,27041.1819,53109.8396,40924.7428,35830.6468,38151.4281,5705.9526,50014.5704,44496.6406,55777.6988,-723.4812,-1546.2488,24825.722
55096.7753,27034.1188,53107.4703,40911.8235,35813.4359,38141.9957,5698.5319,49998.7453,44491.0526,55767.9981,-738.9933,-1559.1234,24814.9037
55079.6539,27034.6999,53108.4538,40907.3085,35788.8937,38140.7887,5696.5649,49973.4879,44480.3238,55765.5841,-752.9855,-1573.7861,24811.6851
55086.8958,27042.8807,53117.9756,40911.4212,35785.2727,38149.1035,5704.4327,49976.7512,44485.4647,55770.5015,-751.9573,-1567.7959,24817.8542
55111.9298,27052.7154,53130.3585,40926.8439,35820.8567,38168.4601,5715.3404,50006.8367,44505.1789,55783.1079,-729.1138,-1546.6958,24829.5218
55141.0317,27072.6979,53145.7365,40949.1956,35858.3629,38182.1394,5734.8311,50047.7403,44527.6648,55798.4412,-706.4044,-1522.4665,24845.0339
55133.9686,27076.7659,53153.0678,40946.5581,35853.3114,38187.4144,5745.9623,50043.6723,44534.9962,55801.9727,-708.729,-1517.728,24853.9299
55133.298,27083.2926,53165.7636,40949.9109,35838.1569,38194.2093,5756.6464,50029.5907,44528.2459,55805.1467,-717.8485,-1521.796,24862.6471
55147.3796,27090.2216,53178.9064,40958.5834,35846.1142,38204.5358,5767.4199,50040.096,44534.4597,55814.0427,-706.8068,-1512.3188,24875.2981
55170.4466,27107.4772,53182.7509,40966.0041,35875.6185,38216.114,5772.5161,50062.4478,44551.4023,55827.8561,-688.2101,-1493.4093,24885.0435
55186.4058,27115.0768,53180.0687,40976.5989,35893.5893,38219.4221,5775.6454,50082.3408,44559.0913,55832.7287,-674.665,-1485.8991,24884.4624
55182.2484,27108.1924,53176.8054,40976.1518,35885.8556,38216.0246,5773.5443,50072.1484,44553.0564,55826.6491,-683.8739,-1496.8961,24876.5498
55163.9199,27095.899,53170.8151,40966.0041,35858.4076,38205.9216,5774.0808,50049.1709,44536.2031,55820.4353,-701.9341,-1513.3023,24868.995
55162.0871,27088.0312,53163.7073,40961.7126,35849.4669,38204.6252,5768.8057,50042.4653,44538.0807,55817.9319,-699.5648,-1514.8222,24866.4916
55169.0608,27085.349,53157.7617,40968.1946,35867.0354,38204.4017,5762.8602,50054.6694,44543.4898,55817.4402,-683.248,-1504.9875,24868.9502
55173.8888,27082.6668,53152.3973,40973.3355,35878.0324,38200.8255,5758.6133,50063.5654,44549.1225,55814.9368,-675.4249,-1497.8796,24869.3079
55162.5788,27082.4432,53156.1971,40967.9264,35870.1199,38197.7409,5757.5852,50056.5022,44550.9553,55821.0611,-680.387,-1499.8466,24869.6655
55140.5847,27072.1614,53151.682,40952.8613,35842.6273,38186.2074,5749.5832,50035.8492,44531.7775,55812.9251,-705.1528,-1515.8057,24858.6684
55129.4088,27064.9195,53145.9153,40944.9488,35828.6798,38178.2949,5739.3461,50027.4897,44528.693,55806.1302,-719.5473,-1527.3839,24851.8735
55142.8199,27067.2888,53146.6305,40950.5367,35838.2016,38183.1676,5737.5133,50041.3477,44543.4451,55810.5558,-705.8233,-1517.3256,24854.511
55162.8917,27074.7095,53148.1057,40959.0751,35857.5135,38184.464,5737.1557,50058.8715,44552.5199,55817.0825,-695.0051,-1509.6813,24856.6121
55157.0356,27071.4015,53148.1504,40951.9225,35850.4504,38180.1724,5737.0663,50049.4391,44543.3557,55813.4615,-704.661,-1519.6949,24853.304
55138.0813,27063.6231,53147.5693,40935.9634,35831.362,38170.1142,5737.0216,50032.2729,44527.1283,55802.1963,-721.9613,-1537.8892,24847.4479
55128.2018,27059.5104,53145.8706,40927.5591,35821.5719,38166.8508,5734.697,50034.6422,44521.3169,55801.928,-727.0575,-1542.5831,24845.7938
55148.6313,27065.4112,53146.2282,40942.5795,35846.8741,38175.7468,5737.2898,50057.441,44548.6307,55811.4052,-712.8417,-1524.7911,24851.65
55154.264,27067.8252,53146.0941,40953.1295,35861.8945,38183.3017,5740.6425,50075.0989,44555.5598,55818.2448,-703.2752,-1515.8057,24853.7511
55142.8199,27059.6892,53139.8356,40941.5066,35841.3756,38171.5447,5733.0877,50063.0289,44546.9767,55813.3721,-715.524,-1526.0875,24851.6947
55129.0065,27045.3393,53136.8405,40929.8837,35815.2688,38164.1239,5728.662,50033.0776,44534.1915,55808.0971,-732.2878,-1540.7503,24845.7491
55119.5294,27041.629,53133.1748,40920.1831,35809.055,38162.291,5721.0624,50025.1204,44535.9796,55806.4431,-740.4685,-1547.1876,24840.7871
55127.2631,27049.5415,53127.8998,40930.9119,35832.4349,38168.0578,5716.2791,50047.0698,44538.9301,55805.9961,-729.382,-1538.7386,24841.547
55143.6692,27056.247,53129.1962,40945.5299,35851.3445,38172.707,5718.4696,50054.4459,44546.9767,55809.0359,-716.4627,-1534.2683,24844.3186
55135.712,27051.1061,53124.2341,40937.6174,35839.5427,38170.6506,5716.1897,50046.3098,44533.5209,55799.6482,-728.7562,-1543.4772,24838.7754
55115.5061,27040.2431,53125.1729,40927.0674,35819.3368,38168.5048,5715.5192,50031.0659,44515.3266,55787.2653,-743.5977,-1553.4908,24828.6724
55107.9512,27035.6387,53128.3915,40922.8206,35810.1279,38167.7896,5714.4463,50029.9931,44519.1264,55792.9426,-746.1458,-1556.4859,24829.1641
55127.8889,27043.0595,53131.6102,40935.4717,35835.0277,38175.1657,5718.9167,50059.3632,44536.3373,55799.6035,-731.0808,-1543.4325,24836.719
55148.4972,27055.9341,53135.4994,40956.0353,35864.085,38184.5087,5730.0478,50080.3292,44550.24,55808.4548,-708.2373,-1529.3062,24844.8104
55143.2222,27061.3879,53138.0475,40955.7223,35848.394,38183.7487,5736.6192,50077.7811,44548.7201,55807.4713,-707.1197,-1531.139,24844.0504
55130.7499,27061.969,53143.3225,40946.6475,35817.5933,38182.4076,5737.6921,50053.7306,44537.6784,55800.4528,-722.6765,-1540.035,24840.2953
55129.1853,27063.176,53148.2399,40949.4191,35825.5953,38191.7059,5740.732,50054.7588,44539.0642,55805.1467,-725.2693,-1535.4753,24846.1962
55149.5254,27074.3072,53156.0183,40961.3997,35856.3513,38202.3454,5747.1693,50081.3574,44554.3975,55814.5791,-701.9341,-1513.1235,24857.4167
55165.1716,27084.2314,53160.8462,40973.6037,35879.1947,38210.2579,5756.0205,50103.3515,44573.1282,55821.5082,-686.5114,-1503.8699,24865.4634
55162.2659,27083.1585,53167.1494,40966.3171,35871.014,38211.1073,5760.178,50104.2008,44573.4411,55820.8376,-693.664,-1508.1167,24868.0115
55144.9656,27077.1235,53169.9657,40960.0586,35842.0014,38203.6865,5761.6532,50088.4205,44561.7288,55811.4052,-706.3597,-1516.8339,24865.2399
55138.7072,27073.7261,53165.6742,40957.6893,35839.498,38204.9829,5756.9146,50080.8209,44561.6841,55807.3372,-708.282,-1518.8903,24862.5129
55160.746,27082.3538,53169.474,40965.7806,35867.7506,38211.9119,5756.5123,50101.2057,44575.0952,55817.9319,-692.0546,-1503.4676,24864.614
55172.3242,27083.7396,53166.3001,40978.9681,35877.2725,38212.6719,5754.7241,50122.8422,44579.4314,55822.7599,-682.1305,-1498.729,24866.8492
55157.885,27071.5803,53157.0464,40972.8438,35864.2638,38202.6136,5748.9574,50107.7771,44571.8765,55815.4732,-694.3345,-1511.8271,24861.3954
55138.9754,27061.2091,53150.2515,40957.8234,35841.5097,38192.3318,5738.765,50084.0843,44553.9057,55808.5442,-713.1994,-1526.624,24851.6053
55142.2834,27052.0002,53143.8142,40949.0168,35828.8139,38191.5718,5732.3724,50072.372,44544.518,55800.6316,-719.9049,-1533.8659,24846.8667
55153.2805,27050.3461,53140.4167,40959.6115,35849.3328,38198.3668,5732.9535,50099.3729,44560.0748,55809.6617,-703.9458,-1522.5559,24855.2263
55159.2261,27047.7533,53136.4828,40957.9575,35861.358,38194.8352,5726.9633,50116.986,44574.1117,55812.4781,-699.3413,-1518.3985,24851.5159
55138.6625,27039.7514,53131.2078,40946.0664,35851.5233,38182.4076,5718.6037,50090.8345,44565.2157,55801.7045,-715.3451,-1533.0166,24841.8152
55119.1717,27027.458,53125.0834,40926.0392,35819.9179,38169.4883,5712.0323,50068.4828,44546.4849,55796.5636,-735.417,-1549.3333,24834.0815
55129.7218,27024.5522,53127.4527,40933.7729,35809.7255,38176.0597,5713.2393,50063.4313,44546.7979,55800.6763,-736.8922,-1552.1944,24835.4226
55143.4457,27026.3404,53128.8385,40940.702,35822.3319,38183.1676,5713.9546,50079.6586,44557.7055,55801.3022,-725.4928,-1542.1361,24839.8036
55152.3864,27030.766,53127.8104,40941.7301,35839.1404,38184.2405,5716.4133,50097.7188,44561.9524,55806.6219,-714.317,-1533.8659,24840.5188
55146.6197,27033.2247,53130.3585,40941.2831,35840.4815,38185.5369,5715.2957,50096.1989,44553.861,55805.6384,-720.039,-1541.2867,24837.1214
55135.0862,27022.9429,53134.0688,40932.5659,35814.9111,38178.8313,5712.5241,50069.3768,44540.4053,55798.9329,-736.5346,-1555.3236,24832.4722
55134.7286,27019.5007,53133.8006,40929.7943,35811.2007,38178.3843,5711.63,50067.7228,44542.5957,55796.1613,-738.7698,-1558.5423,24831.5334
55145.1445,27024.3287,53132.7724,40935.114,35828.9927,38185.3133,5713.7311,50084.7101,44559.8066,55805.3255,-719.4132,-1542.7619,24836.0932
55153.8616,27032.5541,53131.476,40943.4289,35850.5845,38186.118,5715.6086,50104.5585,44563.6064,55809.1253,-712.2159,-1531.7202,24835.6909
55147.8714,27035.8175,53136.5275,40944.01,35842.0461,38185.0004,5718.9614,50094.1426,44563.5617,55811.4499,-716.2392,-1535.3858,24837.6131
55137.4108,27039.3044,53139.8803,40937.3045,35819.605,38184.7322,5725.3987,50080.4633,44557.1244,55808.6336,-726.9233,-1545.8018,24835.1991
55137.1425,27043.0595,53144.6189,40939.5844,35817.2804,38192.5553,5726.8292,50090.611,44559.7619,55806.8901,-725.314,-1545.0418,24837.2555
55175.0064,27059.6445,53153.9172,40958.6281,35851.5233,38208.6486,5733.7582,50125.6138,44580.1467,55815.6073,-700.4589,-1523.2265,24847.7608
55189.6691,27070.3733,53158.8793,40971.2344,35867.2589,38212.1801,5740.8661,50142.2435,44593.3789,55830.0018,-687.1372,-1503.6464,24857.2826
55177.8227,27076.9,53167.0153,40976.1518,35866.0072,38217.1869,5749.0915,50144.5234,44593.1554,55839.8366,-685.3491,-1501.3665,24862.4235
55160.3436,27076.8553,53164.5566,40969.5804,35854.0267,38217.0528,5750.3432,50125.5244,44582.8736,55830.8959,-698.8049,-1514.5987,24861.2612
55153.7722,27070.9544,53162.992,40968.4181,35848.9752,38217.7234,5750.5667,50122.3058,44584.7511,55830.8065,-699.0284,-1518.8903,24862.6024
55168.7032,27073.9496,53162.7685,40979.7281,35869.8964,38220.0927,5750.8349,50144.9704,44601.202,55832.4605,-684.8127,-1506.5521,24867.7433
55179.7003,27070.3733,53155.3924,40982.8573,35875.0373,38214.2812,5749.2256,50153.4641,44602.6325,55828.169,-679.5824,-1502.9758,24862.7812
55167.5856,27059.1974,53149.9833,40967.3452,35857.0218,38199.3949,5735.2781,50144.7916,44586.6287,55819.8541,-696.6591,-1523.1818,24848.1631
55141.8811,27050.2567,53146.3176,40950.045,35822.6001,38190.6778,5729.9137,50114.7509,44563.0699,55813.0592,-724.0176,-1540.0797,24840.9212
55128.8724,27045.6076,53141.9814,40946.6028,35807.2668,38182.8547,5724.2811,50104.6479,44556.7667,55810.2429,-733.763,-1550.2721,24835.825
55139.333,27047.2169,53140.0591,40950.6708,35822.3766,38183.0782,5720.8389,50124.675,44567.8085,55811.6734,-720.3072,-1538.8727,24838.1943
55146.1279,27048.7368,53138.718,40957.4211,35846.4718,38187.8614,5721.6436,50140.7683,44575.3187,55814.1321,-710.1595,-1530.1555,24840.8318
55141.5682,27054.1906,53140.4167,40957.0634,35845.1754,38193.1365,5723.5658,50139.2931,44571.2954,55814.1321,-714.1829,-1530.3791,24843.4693
55124.6703,27048.9156,53138.9862,40938.4668,35824.7459,38186.4756,5721.6436,50127.8043,44556.7667,55814.7132,-728.3986,-1544.863,24841.4129
55132.851,27047.3063,53141.2661,40937.7515,35821.3931,38186.8333,5726.2927,50120.8305,44555.5151,55817.619,-730.142,-1542.1808,24843.5587
55161.4612,27059.0633,53147.7928,40959.5221,35850.4057,38198.0538,5735.5016,50140.5448,44579.342,55829.0184,-709.1761,-1522.1089,24850.6218
55171.3854,27064.1148,53149.8939,40966.8982,35870.6117,38202.0772,5735.5016,50154.537,44590.5626,55831.3429,-698.5813,-1512.6318,24853.0805
55157.4826,27057.8563,53142.0261,40962.7408,35857.603,38190.8119,5732.9535,50149.3961,44583.1418,55830.2701,-709.5784,-1523.7182,24847.7608
55137.8131,27050.972,53137.2875,40946.2452,35826.2658,38182.05,5725.2198,50124.7197,44561.9524,55817.619,-732.2878,-1542.1808,24836.8979
55136.2038,27048.2004,53135.2311,40940.3443,35822.3766,38181.8265,5724.0129,50110.5487,44563.3382,55813.3721,-740.8261,-1545.31,24831.5781
55154.4428,27052.5813,53134.2477,40954.8283,35851.0315,38190.0966,5729.9584,50134.9568,44586.6287,55825.8891,-716.6862,-1525.5064,24839.3565
55170.9384,27057.6328,53135.1864,40965.0654,35869.36,38193.2706,5736.6192,50158.5156,44593.7365,55828.6607,-702.7835,-1514.8222,24843.8269
55169.2396,27060.0915,53142.4284,40958.4492,35858.9441,38198.5456,5738.6309,50152.7935,44592.1719,55833.0417,-705.4657,-1518.0856,24847.2691
55151.8053,27054.0118,53145.6918,40953.0401,35840.258,38201.1831,5742.386,50135.7615,44579.9232,55830.4489,-719.2343,-1525.8193,24846.2856
55149.9277,27055.2635,53150.5197,40953.5766,35840.4368,38199.6185,5744.6212,50139.606,44583.5888,55829.1972,-717.625,-1519.5608,24848.789
55168.3009,27066.3947,53152.3973,40965.3336,35859.4805,38202.6136,5747.2587,50163.3883,44597.581,55833.2205,-700.5036,-1506.1498,24851.6053
55185.8246,27078.0176,53153.9619,40982.008,35882.5028,38209.5426,5752.2655,50188.2434,44604.1971,55838.272,-687.4055,-1497.9243,24856.0756
55173.9335,27068.8981,53150.5644,40970.9215,35861.3133,38206.1899,5748.9127,50181.9402,44600.8444,55833.3099,-695.765,-1502.037,24856.478
55162.4894,27063.3101,53149.1339,40955.4988,35832.3008,38200.0208,5746.6775,50153.9111,44585.6899,55827.9902,-715.4793,-1521.9748,24850.7112
55167.675,27069.2557,53153.8278,40960.148,35842.0014,38199.1714,5745.7834,50148.2338,44587.2992,55828.7948,-719.8602,-1525.0593,24849.3701
55179.6556,27070.3286,53155.303,40967.8817,35863.2803,38200.6466,5741.7154,50164.327,44597.5363,55832.997,-707.6114,-1514.3305,24849.996
55180.7284,27070.418,53153.0231,40970.5192,35875.3055,38197.3833,5740.0167,50172.8207,44603.7948,55836.1262,-700.9953,-1510.486,24850.8453
55163.0259,27063.176,53147.7481,40955.2753,35856.2618,38192.3318,5730.1819,50154.4476,44593.2448,55831.3429,-714.1829,-1522.6901,24844.8104
55133.7451,27043.3724,53142.9648,40935.1587,35823.3154,38182.0947,5722.6717,50126.3738,44576.6151,55823.0728,-739.5744,-1541.3761,24831.3993
55125.7879,27027.458,53138.3604,40936.2316,35814.33,38174.7633,5719.0061,50124.675,44573.1729,55817.0825,-740.1556,-1549.8698,24827.1078
55141.7023,27036.1304,53136.0358,40946.6922,35839.1404,38178.8313,5719.9895,50153.1065,44587.4333,55818.4236,-722.8553,-1539.7668,24830.1029
55147.9608,27041.9866,53136.7511,40952.9954,35855.0102,38190.6778,5721.9565,50174.6535,44596.5976,55818.513,-713.11,-1529.5744,24829.9241
55138.8413,27041.1372,53137.6004,40946.4687,35848.1705,38188.6214,5720.0342,50171.8819,44597.8492,55824.0563,-720.2178,-1533.1507,24830.5053
55127.4866,27042.1207,53141.0873,40939.495,35823.4942,38183.704,5720.8836,50161.7789,44587.8804,55820.6141,-729.695,-1541.0185,24830.3264
55136.2038,27052.9836,53146.8987,40949.1956,35827.7857,38188.532,5728.7961,50169.1103,44590.4285,55829.4207,-722.1848,-1534.5365,24837.7025
55156.9909,27058.4375,53147.3905,40959.8351,35854.1161,38197.2939,5730.8525,50186.947,44602.6772,55834.9639,-704.2587,-1520.9019,24842.7987
55169.4632,27058.0351,53146.2282,40967.077,35869.36,38200.0208,5730.0478,50193.7419,44604.376,55834.2934,-693.8875,-1511.9612,24845.4809
55161.3271,27054.593,53149.1339,40959.9692,35852.5962,38192.0189,5729.1538,50180.0627,44593.6918,55827.9902,-704.8398,-1520.0526,24845.3468
55139.6459,27045.9652,53147.2564,40943.4289,35826.3552,38178.6972,5724.5493,50153.5982,44571.0719,55819.273,-725.5375,-1540.5715,24840.6976
55135.0862,27039.4832,53148.4634,40945.3958,35823.0025,38182.6311,5724.4152,50143.1823,44567.2274,55821.2399,-724.6882,-1541.0185,24839.1777
55152.6099,27046.2781,53150.0727,40959.1645,35849.6904,38191.1248,5724.2811,50169.6467,44581.9348,55832.1029,-706.9409,-1527.2498,24843.201
55156.365,27049.6309,53143.6354,40957.4211,35857.4688,38189.6049,5719.766,50185.5165,44581.8901,55831.2982,-704.0799,-1525.4617,24840.4294
55155.3816,27050.972,53139.8803,40953.0848,35843.0743,38188.0403,5720.6601,50182.6108,44582.7842,55826.6044,-712.9759,-1532.9272,24836.5402
55145.5915,27049.9885,53140.9979,40944.4124,35817.0569,38184.6428,5719.9895,50161.913,44568.7473,55818.6024,-725.8505,-1546.8746,24833.9921
55138.3048,27050.7932,53143.6801,40945.7982,35813.7041,38187.1909,5717.7991,50149.2172,44562.5335,55820.1671,-727.5492,-1546.2041,24835.6014
55157.0356,27067.3335,53146.9434,40951.0285,35835.4747,38199.1714,5720.4813,50171.7925,44576.7939,55824.8609,-711.8583,-1533.106,24839.893
55173.7547,27079.9398,53153.6043,40960.9973,35859.3911,38213.4765,5724.2364,50196.3347,44586.8969,55826.5597,-694.6921,-1519.5161,24843.7822
55171.5642,27079.0011,53157.0911,40966.4065,35857.9159,38214.8176,5726.2033,50185.9635,44585.6452,55826.3808,-693.9322,-1518.9797,24847.6714
55150.196,27069.3898,53154.9901,40950.7155,35828.8586,38203.0606,5719.7213,50164.0141,44573.1282,55823.2516,-714.3617,-1533.1954,24845.2127
55149.2125,27058.3928,53152.442,40945.3064,35817.5486,38195.1928,5718.2014,50153.9558,44573.8882,55816.099,-723.9729,-1538.5598,24842.0835
55161.5953,27056.9175,53145.3341,40952.3696,35837.9781,38192.7788,5719.5872,50165.9364,44582.1583,55816.0543,-712.7523,-1530.2002,24843.9163
55151.8947,27049.1391,53141.132,40952.6825,35846.4271,38184.2405,5712.2558,50174.9218,44581.6219,55816.0543,-710.2042,-1529.3956,24843.8716
55131.0629,27038.9467,53139.165,40942.4007,35830.8703,38179.5913,5708.9925,50156.5486,44570.3119,55813.998,-723.5259,-1537.7551,24838.1495
55109.6946,27026.8768,53132.1913,40925.8604,35802.3047,38169.9353,5707.3385,50126.1503,44547.6025,55803.7609,-742.3013,-1557.6929,24826.3031
55104.062,27025.4016,53126.8269,40923.6252,35798.2367,38164.7497,5708.5901,50113.1415,44538.3489,55802.241,-743.5083,-1561.3586,24824.7385
55118.6353,27033.8953,53128.3915,40933.6835,35819.6944,38170.6953,5717.6203,50127.9831,44541.8358,55813.7745,-724.8223,-1545.7124,24834.5286
55132.5828,27040.2879,53131.1184,40942.8477,35839.1404,38175.8362,5722.4482,50132.9452,44551.7153,55820.3906,-711.0536,-1534.4918,24839.4459
55120.1999,27038.7232,53129.375,40942.1772,35829.4845,38166.8508,5721.9565,50108.6265,44538.5277,55813.2827,-716.3286,-1537.8445,24838.1495
55099.234,27038.1421,53128.4809,40931.4483,35815.1346,38162.4252,5722.5823,50075.9035,44521.2275,55806.8007,-725.4481,-1547.1876,24833.8133
55092.4838,27040.1537,53134.2477,40932.3424,35818.1745,38165.6438,5728.4385,50068.9298,44521.5851,55807.6501,-724.867,-1545.2206,24837.2555
55112.8685,27054.9506,53140.2379,40949.5533,35847.0976,38179.4125,5744.0847,50093.8743,44535.3091,55814.1321,-705.0186,-1524.4782,24849.4148
55118.4565,27060.0915,53139.5227,40955.1412,35863.7273,38178.0267,5746.007,50102.5468,44540.0476,55813.1486,-698.5813,-1515.6269,24851.0242
55102.3185,27061.522,53137.958,40942.5795,35848.1258,38165.7779,5745.3811,50082.0279,44529.3635,55805.102,-707.0303,-1522.243,24844.4974
55080.4138,27056.8281,53136.0805,40929.9731,35825.9976,38158.7595,5742.4754,50049.5732,44505.5366,55793.8814,-726.1634,-1541.0185,24836.4061
55065.7511,27056.4258,53136.7064,40927.8721,35817.4592,38156.8819,5741.4472,50038.8891,44502.5861,55796.7424,-730.142,-1545.5782,24836.719
55080.3691,27065.1877,53135.3652,40935.8293,35834.7148,38163.498,5740.9108,50053.6412,44508.7105,55795.1331,-718.385,-1532.2566,24838.8201
55100.1281,27075.1119,53138.8521,40948.9274,35850.2269,38172.4387,5742.9671,50065.7111,44513.5832,55797.86,-709.936,-1524.657,24840.7871
55091.6344,27068.8981,53137.3769,40943.0265,35833.3737,38166.225,5739.972,50051.406,44510.3198,55796.6977,-717.7144,-1534.5365,24838.7754
55070.4896,27060.2703,53130.6267,40930.5543,35796.985,38151.7857,5733.8029,50023.5111,44502.3179,55786.4159,-740.2003,-1550.0486,24830.8182
55069.9085,27060.6279,53132.0125,40938.5562,35796.9403,38156.5243,5737.2898,50015.9562,44496.3723,55786.2371,-735.5958,-1546.8299,24833.9474
55091.2768,27068.5852,53135.3205,40948.7933,35817.5933,38163.6322,5735.0099,50032.3176,44505.5813,55797.2789,-718.0721,-1533.4189,24839.9824
55108.0853,27084.142,53145.5576,40961.4444,35839.1404,38175.2104,5743.1906,50040.4984,44508.3529,55806.3537,-706.8515,-1522.8242,24845.7938
55099.681,27078.5093,53147.614,40958.3598,35836.0559,38175.5233,5742.6989,50032.9882,44494.316,55802.9562,-711.9924,-1529.485,24843.4693
55087.0299,27070.6415,53150.5644,40950.5367,35813.0783,38170.4271,5742.3413,50019.3089,44485.3753,55798.4412,-728.1303,-1535.7435,24839.133
55084.3477,27067.9146,53152.1291,40955.4541,35814.8664,38170.2483,5747.3481,50009.7871,44487.2528,55801.7492,-726.6104,-1534.8494,24839.6695
55096.2836,27069.4345,53149.4468,40957.287,35831.1385,38174.4504,5743.9953,50019.4877,44498.2946,55803.5374,-717.4462,-1527.6074,24843.5587
55099.681,27067.6017,53146.3623,40959.7009,35831.362,38170.3377,5738.6756,50024.4498,44501.9156,55801.6151,-710.3831,-1524.657,24844.6316
55089.8015,27064.6513,53141.3108,40953.3978,35811.8713,38158.4913,5733.3112,50004.3333,44487.834,55795.3566,-722.1401,-1538.2469,24838.5519
55065.9746,27047.9769,53130.3585,40932.0295,35773.1581,38142.5321,5720.8389,49976.6171,44464.8117,55773.2284,-746.727,-1558.0058,24826.7949
55067.4945,27042.6124,53131.029,40921.3901,35760.0152,38139.1793,5715.5192,49961.2838,44454.5299,55764.6006,-752.5831,-1566.0077,24820.4917
55098.7422,27050.8826,53135.3652,40936.2763,35788.402,38145.1249,5721.6883,49975.0525,44470.0867,55781.3644,-733.8524,-1546.3382,24823.8444
55109.8734,27051.1061,53128.615,40944.0994,35799.8461,38146.6448,5717.0838,49977.4218,44476.7028,55781.0515,-724.8223,-1541.3761,24823.0845
55094.6295,27042.3889,53126.4246,40936.8128,35784.4234,38139.4029,5712.7923,49960.345,44472.9477,55773.4519,-733.4501,-1553.4908,24817.0942
55081.6208,27042.1654,53129.5091,40927.9615,35770.3418,38138.5088,5710.3783,49942.4636,44458.2403,55771.4403,-746.9505,-1563.1467,24812.8921
55085.1971,27041.3607,53127.8998,40926.8886,35763.815,38139.0452,5712.7029,49937.9486,44450.6407,55771.3062,-747.3975,-1562.2526,24814.2779
55114.8802,27053.073,53133.9794,40945.6193,35788.1337,38151.741,5723.0741,49967.4529,44472.3666,55788.2041,-725.0458,-1542.1361,24828.0466
55129.7665,27057.8116,53140.1932,40959.1198,35812.4524,38160.8158,5732.0148,49992.4868,44485.0624,55795.1778,-711.4112,-1526.4452,24836.0932
55123.9997,27056.6046,53142.2049,40956.6164,35802.7518,38160.4135,5735.7252,49982.0709,44486.4035,55790.4392,-716.5074,-1529.3509,24836.8084
55111.3039,27055.7106,53140.0591,40938.9585,35778.4778,38155.9432,5732.9983,49953.0137,44472.8136,55782.7502,-732.109,-1543.5666,24833.5004
55110.231,27054.3247,53144.3506,40935.5611,35767.5701,38156.6584,5733.3559,49943.3577,44472.4113,55785.7454,-729.0691,-1541.689,24837.5237
55132.0016,27063.2654,53146.0941,40946.6028,35799.5331,38163.9004,5733.1771,49972.1467,44484.213,55792.8979,-710.4278,-1528.278,24845.4809
55137.2766,27065.4559,53142.6519,40951.9225,35817.1016,38168.5942,5731.9254,49988.3294,44496.8194,55794.7308,-704.9739,-1524.2547,24846.2409
55127.2631,27054.5036,53136.3934,40946.2899,35805.6575,38162.7828,5729.422,49984.2167,44491.5444,55793.345,-720.3966,-1531.6308,24842.2176
55099.6363,27043.0148,53129.4197,40930.4649,35773.024,38149.327,5722.0012,49958.1993,44473.6183,55782.8397,-743.0166,-1553.1331,24829.3877
55088.684,27037.4715,53126.2457,40922.9994,35762.3845,38140.6993,5715.698,49954.4889,44469.1479,55772.1555,-746.4141,-1557.2459,24823.2633
55108.0853,27034.2529,53125.2176,40935.2481,35784.7363,38139.5817,5714.8933,49967.8999,44480.4579,55775.3742,-726.1634,-1544.3265,24821.7881
55120.647,27039.7067,53127.8551,40944.9488,35799.7119,38141.5486,5719.0955,49983.1438,44496.1935,55795.9378,-714.3617,-1532.9272,24828.3595
55116.1319,27034.5658,53127.2292,40940.4784,35785.5409,38140.0287,5715.6086,49968.3917,44485.0177,55794.6414,-727.4151,-1540.0797,24824.6491
55107.2806,27029.2461,53125.2176,40934.22,35766.0502,38139.2688,5714.8486,49943.1342,44462.6212,55788.964,-743.5083,-1552.9096,24821.654
55099.681,27032.2412,53125.3517,40930.1519,35762.4292,38139.4029,5712.8817,49933.6123,44460.8778,55787.4888,-744.3577,-1557.38,24820.6258
55116.266,27041.7184,53125.1281,40944.4124,35789.2513,38146.4213,5713.284,49961.2391,44479.2509,55791.6462,-727.0575,-1545.3547,24825.4538
55131.197,27056.5599,53134.65,40955.3647,35813.123,38161.2629,5721.6436,49988.9553,44501.9156,55799.4246,-712.2606,-1529.0827,24833.5898
55120.9152,27064.696,53144.8871,40949.1509,35802.9753,38162.1569,5726.1139,49994.4985,44505.0448,55807.7842,-715.3004,-1526.0428,24835.9591
55104.7772,27066.8864,53146.0941,40944.77,35782.367,38156.1667,5727.455,49981.7133,44496.5512,55804.2079,-730.5443,-1536.6822,24834.9309
55101.3798,27067.2441,53146.1388,40947.8545,35777.1367,38157.7313,5729.422,49983.9038,44500.4404,55803.2691,-733.003,-1540.4373,24836.4508
55113.0921,27073.1449,53145.8706,40953.8895,35799.9355,38161.0394,5728.7067,50004.2439,44505.4024,55799.2458,-725.8058,-1534.4024,24835.5567
55124.5362,27072.5191,53140.9085,40956.9293,35813.8382,38162.7828,5722.9847,50019.9795,44510.141,55793.792,-720.3072,-1529.3062,24833.1428
55122.301,27064.5618,53133.8453,40948.7486,35797.7003,38160.1453,5718.8272,50009.3848,44502.3179,55788.3382,-730.4102,-1543.4325,24827.2419
55107.2806,27059.4209,53132.0572,40934.4882,35772.5769,38160.19,5711.183,49983.3673,44481.4414,55783.6443,-750.4374,-1561.8056,24818.7929
55099.681,27055.3529,53127.1398,40929.1685,35767.2572,38157.7313,5703.1363,49983.725,44483.1848,55779.3975,-753.9243,-1565.8289,24815.619
55121.0046,27060.4938,53124.3235,40949.9556,35798.3708,38171.6788,5705.6397,50020.5606,44501.7368,55779.4422,-734.1206,-1550.4062,24821.4751
55137.9025,27061.522,53120.1661,40960.2374,35821.2143,38180.4854,5706.3103,50035.5363,44510.1857,55774.5695,-723.5706,-1543.7901,24822.2798
55130.8393,27058.5716,53124.6364,40957.1081,35813.7041,38177.9373,5708.3219,50025.1204,44510.4092,55783.689,-732.6454,-1546.7852,24825.1408
55116.5342,27053.3413,53127.6762,40945.5299,35797.0744,38173.7798,5710.2442,50009.0718,44499.7698,55783.9125,-750.3033,-1557.6482,24817.273
55109.8734,27054.6824,53130.2691,40940.2549,35793.364,38174.8527,5716.5921,50005.3614,44500.4851,55780.9174,-750.8844,-1554.966,24820.1787
55132.2699,27069.5686,53137.6004,40962.3832,35822.3766,38186.118,5728.662,50036.8774,44518.8135,55793.9261,-725.9399,-1528.0098,24831.5781
55151.0006,27082.3091,53146.4517,40975.526,35840.5262,38189.739,5735.6358,50063.2077,44532.8057,55805.9067,-708.0138,-1515.9845,24838.5519
55141.3894,27081.2809,53150.3856,40966.4512,35829.0821,38185.2239,5735.9487,50062.7607,44531.9563,55808.0077,-710.3831,-1525.3723,24838.8648
55126.9501,27075.2013,53152.9784,40954.6494,35807.1774,38177.1326,5735.6358,50042.063,44519.9311,55799.827,-724.5988,-1539.3198,24835.3332
55127.7995,27075.0225,53151.7267,40948.7486,35801.9471,38178.4737,5735.2781,50032.4517,44514.4325,55798.4412,-725.5822,-1537.3975,24837.3896
55145.9491,27079.4034,53151.8161,40953.0401,35832.4796,38178.2949,5738.2733,50053.6412,44522.658,55802.4645,-711.7689,-1527.6968,24841.6811
55161.7742,27074.4413,53148.9998,40953.2189,35842.9402,38175.9256,5736.0381,50058.9162,44522.0321,55805.7725,-711.4559,-1526.8922,24839.1777
55149.9277,27067.3335,53141.7578,40942.9371,35821.8402,38164.5262,5732.6406,50045.684,44514.7902,55799.4694,-729.1138,-1538.9174,24829.9241
55122.7927,27063.936,53134.9182,40932.1189,35797.9238,38156.0326,5730.9419,50018.9066,44503.3908,55789.5005,-747.0846,-1549.7357,24823.5315
55115.7296,27060.2703,53134.0241,40930.6437,35797.5662,38158.3124,5731.8807,50006.3896,44500.351,55791.0651,-747.934,-1549.6463,24824.7385
55134.2815,27060.9409,53134.1136,40936.4551,35822.9578,38162.8275,5733.5794,50023.6899,44518.2323,55799.3799,-726.9681,-1537.4869,24830.8629
55139.5565,27057.9904,53128.6597,40939.8973,35831.5408,38159.0724,5728.0362,50039.3361,44525.3849,55796.3848,-718.2509,-1529.1274,24832.8745
55134.5497,27062.282,53130.0455,40941.9984,35828.3222,38162.604,5730.2713,50036.1621,44521.6745,55798.1282,-725.6269,-1529.8426,24835.6462
55120.2893,27061.4326,53132.9513,40933.5494,35817.638,38157.0607,5731.4336,50018.3254,44510.9457,55799.9164,-741.7202,-1540.4373,24830.2817
55114.1202,27056.3364,53129.6432,40924.9216,35812.0054,38151.4728,5730.1372,50013.4528,44507.4141,55795.1778,-746.28,-1545.3547,24829.8347
55128.5148,27056.7834,53130.2243,40931.8507,35827.3834,38155.362,5728.4832,50028.0261,44524.0438,55801.7045,-734.4335,-1534.7153,24833.1428
55139.2883,27065.4112,53137.4663,40942.3113,35836.7711,38160.8158,5730.5843,50049.1709,44533.5656,55807.7395,-722.6318,-1525.9534,24839.133
55137.4555,27066.3053,53143.4566,40942.7136,35833.329,38160.8158,5734.6076,50050.6461,44535.8902,55805.1914,-724.5988,-1529.7979,24839.9377
55122.8374,27057.5881,53142.2049,40932.9236,35816.1628,38158.2677,5731.9701,50029.3672,44515.1925,55797.1895,-741.6755,-1544.4607,24832.6957
55116.1766,27046.5463,53139.478,40929.7496,35814.1065,38160.9499,5730.7184,50018.4596,44513.4491,55795.9378,-742.346,-1543.3431,24831.3993
55129.0512,27051.6425,53137.1087,40940.5231,35831.8537,38165.2862,5731.4336,50040.8113,44532.0904,55805.102,-725.8952,-1528.6356,24835.825
55142.3728,27053.5648,53137.9133,40949.6427,35841.5991,38164.3027,5730.8972,50054.6247,44545.6803,55805.9961,-712.797,-1524.8358,24839.6695
55131.0182,27048.111,53136.8405,40944.9935,35830.1103,38156.7031,5726.0245,50035.8492,44528.0671,55797.3683,-720.0837,-1537.3081,24834.4392
55100.2175,27043.283,53137.7345,40936.9469,35810.3514,38152.8139,5726.248,50009.9212,44508.5317,55793.792,-736.7581,-1550.4062,24828.583
55091.2321,27042.4336,53139.1203,40938.6456,35811.0666,38158.0889,5730.1372,50009.3848,44503.7484,55796.6083,-738.9039,-1549.6463,24829.03
55106.2077,27041.9419,53136.1699,40946.1111,35832.7031,38161.9781,5729.1538,50034.9998,44520.1099,55799.1117,-724.7329,-1536.6822,24831.6675
55124.8491,27044.7582,53134.9629,40954.3365,35851.4786,38168.4154,5729.109,50057.7986,44530.5258,55803.8503,-711.5006,-1524.9252,24836.7637
55117.3836,27041.4501,53132.0572,40945.8876,35840.7497,38165.5544,5727.2315,50043.717,44515.0137,55796.0719,-722.0507,-1532.6142,24831.8911
55098.8317,27032.7777,53128.2574,40928.7661,35808.6526,38156.3902,5724.147,50016.7608,44503.6143,55788.517,-742.346,-1544.5054,24821.2963
55097.2223,27036.9351,53133.3536,40928.185,35810.0832,38157.1054,5728.215,50009.5189,44509.694,55799.7376,-738.8145,-1541.9126,24825.7667
55114.2097,27042.9701,53137.1981,40935.9187,35834.3124,38165.4203,5729.3326,50033.8376,44523.0156,55806.7113,-723.3918,-1529.8873,24833.411
55130.6158,27047.8874,53137.5557,40946.1111,35847.5,38169.2201,5731.0313,50049.6179,44532.761,55808.6783,-715.7028,-1525.417,24836.0485
55125.7879,27040.3326,53133.5771,40942.8477,35835.3853,38167.0743,5727.3209,50053.0601,44527.3072,55804.342,-726.521,-1536.5034,24832.3828
55100.6645,27028.0838,53130.9396,40921.8371,35803.5117,38159.3853,5720.6154,50029.6354,44515.729,55795.8037,-753.969,-1553.5355,24826.929
55086.5829,27023.4793,53129.9114,40918.9314,35793.3193,38155.0044,5717.8438,50014.4362,44505.7154,55789.5899,-760.138,-1556.3071,24823.4868
55107.5488,27029.6931,53127.5868,40928.185,35819.9179,38156.6584,5719.5425,50046.131,44518.6347,55794.3285,-742.1672,-1541.8231,24827.9572
55131.7334,27043.7747,53132.5489,40945.5746,35846.4271,38166.3144,5725.1304,50065.1747,44534.415,55800.7658,-723.3918,-1530.8261,24832.651
55135.5332,27047.5298,53139.7462,40948.5698,35841.1968,38168.9966,5729.8243,50060.6149,44531.3305,55800.3187,-725.8058,-1532.9719,24834.0368
55122.1222,27050.1226,53144.4848,40939.0479,35824.9247,38171.6341,5731.9701,50043.6723,44520.9593,55797.9494,-738.7251,-1542.5384,24831.8464
55124.402,27057.0517,53146.8987,40935.7399,35827.2046,38175.0315,5734.7864,50038.5761,44526.5919,55801.3916,-734.0759,-1541.6443,24835.512
55135.0862,27067.3335,53145.7365,40937.6174,35848.4387,38178.4737,5735.4569,50061.6431,44541.9252,55803.5374,-723.6153,-1531.7202,24837.3002
55149.6148,27068.2275,53139.2097,40939.5844,35861.671,38175.6127,5732.3724,50079.2563,44551.5364,55804.2079,-718.8767,-1522.6007,24838.3284
55138.9307,27058.3034,53137.6451,40938.1986,35846.9635,38171.8576,5729.9137,50062.3584,44543.3557,55803.5374,-723.3918,-1533.3742,24834.6627
55112.4215,27045.0711,53134.0688,40924.8769,35813.9724,38161.4864,5723.387,50033.8376,44526.6813,55795.3566,-743.866,-1550.585,24827.5101
55111.8404,27038.6785,53130.3585,40919.0208,35806.0598,38153.4845,5721.3753,50034.5081,44523.105,55790.3498,-746.8164,-1551.9708,24826.169
55129.4088,27041.7631,53133.1301,40931.6719,35834.223,38156.3455,5725.801,50052.3895,44543.1322,55803.4033,-728.0409,-1540.3926,24830.237
55141.0317,27047.0828,53132.996,40936.2316,35845.1754,38159.0724,5723.8787,50073.0872,44551.6258,55819.0495,-721.7377,-1532.6142,24832.9192
55134.5497,27042.836,53130.2243,40923.8487,35824.7459,38154.7809,5717.9779,50063.7442,44536.5608,55811.8075,-737.8757,-1542.9407,24827.5548
55124.402,27034.9234,53127.8551,40915.3551,35809.502,38155.1385,5716.5027,50036.1621,44528.4694,55806.756,-748.6939,-1552.5073,24825.0067
55125.922,27031.3472,53127.3186,40922.3288,35813.0336,38154.4679,5721.1518,50035.5363,44528.0671,55802.7327,-747.4422,-1555.0554,24827.2866
55140.2271,27041.4948,53130.9396,40932.7894,35831.9432,38159.4747,5727.8126,50061.2855,44548.0049,55810.5558,-733.3606,-1533.6871,24833.5004
55160.6119,27052.4472,53136.2146,40938.3774,35850.7633,38166.8061,5728.9302,50084.9336,44566.5121,55819.3624,-722.1848,-1520.0526,24837.8813
55157.1697,27050.8826,53139.4333,40935.8293,35845.0413,38168.326,5730.0478,50084.3525,44557.8843,55816.3673,-730.7678,-1530.3344,24834.2603
55133.0298,27041.9419,53141.8025,40923.6699,35823.0472,38162.4252,5727.1421,50064.1465,44547.6025,55815.4732,-742.0778,-1539.6327,24831.8464
55126.5478,27045.0264,53144.753,40924.9216,35826.8917,38164.705,5731.0313,50061.2855,44542.9534,55813.6851,-741.3179,-1538.9621,24833.9027
55142.5517,27056.8281,53147.7481,40942.2666,35846.3377,38180.3066,5737.3792,50084.8442,44557.4373,55821.0164,-718.9661,-1519.9631,24842.2176
55150.6877,27063.6678,53149.0892,40952.1013,35859.1676,38183.6146,5739.0332,50098.6576,44569.0602,55824.5033,-707.3432,-1509.6813,24846.5985
55143.2669,27055.2635,53146.1388,40948.4804,35847.6341,38177.982,5737.111,50095.7966,44563.4723,55820.2565,-715.0322,-1519.7396,24844.2292
55130.5711,27052.5366,53146.9882,40943.7418,35827.5622,38173.1987,5733.937,50080.1951,44550.8659,55814.9815,-733.4054,-1535.2517,24837.9707
55128.9171,27056.4705,53146.3176,40940.1655,35824.8353,38175.6127,5733.8923,50079.8821,44546.4849,55809.5276,-735.6852,-1538.5598,24833.411
55141.8811,27058.0798,53143.2331,40954.5153,35849.1987,38185.1345,5738.4968,50090.2981,44556.8562,55813.238,-718.3403,-1525.5958,24838.5519
55148.9443,27055.9341,53141.5343,40955.2306,35855.0996,38182.3182,5734.6076,50103.575,44576.2575,55827.2302,-714.2276,-1518.175,24839.4907
55131.5099,27049.318,53137.2875,40940.389,35835.8771,38168.2813,5726.3374,50092.6226,44567.0933,55823.2069,-732.1537,-1534.8494,24832.4722
55114.3885,27040.0643,53134.2477,40929.1238,35816.6993,38161.0841,5720.0342,50071.0756,44551.1788,55813.1039,-743.2848,-1551.8367,24823.6656
55114.5226,27035.5046,53139.165,40936.9469,35818.398,38162.8275,5719.4084,50066.9181,44550.1953,55814.2662,-741.9437,-1548.2157,24823.4421
55136.4273,27046.0546,53143.7695,40952.5484,35839.498,38166.8955,5723.2529,50090.2086,44559.4043,55815.9202,-729.695,-1536.8164,24831.1758
55152.6546,27050.1226,53145.3341,40959.0751,35854.3843,38169.6671,5726.7398,50105.5419,44568.8814,55821.9552,-719.9049,-1526.7581,24835.9144
55140.3165,27047.1275,53144.8871,40949.9556,35841.7332,38168.4601,5725.354,50100.5352,44557.7055,55818.2001,-730.4996,-1536.414,24832.5169
55124.8938,27039.2597,53144.8871,40939.1373,35814.33,38167.7002,5725.0857,50077.7364,44544.518,55811.1817,-743.8213,-1546.8299,24831.2205
55123.3739,27037.7398,53146.7646,40936.4998,35814.0171,38168.7731,5726.3374,50068.8404,44546.3061,55812.031,-741.4967,-1541.242,24833.9921
55144.4292,27046.5463,53151.1456,40943.1607,35841.912,38175.8362,5728.7514,50099.7752,44568.1214,55817.4402,-725.7164,-1526.7134,24840.8765
55160.3884,27055.3082,53151.7714,40950.492,35861.8945,38175.9256,5729.3773,50120.1153,44576.5704,55819.3624,-721.4695,-1522.5559,24838.9542
55146.3515,27046.4122,53149.4468,40945.1276,35846.7847,38173.3775,5725.7563,50100.6693,44568.3897,55812.7016,-734.5676,-1529.1721,24834.305
55127.5313,27031.4366,53145.2447,40927.3803,35816.1181,38167.6108,5719.3637,50069.1533,44552.9222,55805.6384,-752.6726,-1545.3547,24829.1641
55129.0512,27030.766,53144.2612,40927.8721,35809.8149,38171.187,5720.4813,50065.13,44550.3294,55807.4713,-748.2469,-1545.4441,24827.0184
55146.1279,27033.1353,53142.2049,40933.6835,35836.4135,38176.9538,5721.7777,50089.5828,44560.5218,55809.17,-734.7912,-1539.1856,24830.2817
55151.4477,27035.9963,53136.2593,40938.0645,35841.912,38171.4106,5716.2791,50099.4623,44571.2507,55808.8124,-733.1371,-1536.727,24829.6112
55141.6129,27038.8126,53135.2758,40940.4337,35831.4514,38170.1142,5717.0838,50093.7402,44569.4625,55808.0077,-737.0263,-1537.8892,24828.2701
55126.1455,27028.3073,53134.4712,40929.5261,35815.1346,38164.9733,5716.2791,50071.3438,44555.5151,55811.4052,-751.4209,-1545.9806,24827.1525
55122.8821,27021.6018,53133.3983,40924.3852,35808.0268,38165.7779,5715.8768,50065.5323,44551.2235,55811.8969,-752.3149,-1547.724,24827.5995
55138.4836,27033.8058,53134.1583,40935.0693,35835.3853,38177.5349,5721.42,50096.2883,44572.9494,55812.8804,-733.7183,-1538.2916,24830.5947
55153.6381,27038.6338,53136.304,40947.0946,35859.1229,38183.8381,5720.4813,50118.5954,44590.1155,55815.8308,-720.8437,-1531.4966,24833.1875
55140.7635,27031.3472,53137.511,40941.1937,35850.808,38182.7205,5719.4084,50113.2756,44574.0223,55813.0145,-730.5443,-1535.967,24833.9921
55128.1571,27028.6649,53136.0358,40931.8507,35829.4398,38176.8197,5718.3355,50088.197,44563.6511,55806.1749,-746.3694,-1548.0369,24832.2487
55124.3573,27034.6999,53136.3487,40935.6952,35826.5787,38173.8245,5719.4978,50092.1756,44565.0816,55805.6384,-743.4636,-1548.3499,24833.8133
55138.126,27044.5347,53133.5771,40942.2219,35848.8858,38178.2949,5718.872,50120.0706,44580.2361,55812.2545,-726.2528,-1535.2517,24837.7919
55146.6197,27045.4288,53132.4148,40943.6524,35857.9159,38174.5845,5711.4512,50122.3505,44583.8571,55816.9931,-722.0507,-1532.7483,24834.4392
55136.5614,27037.9633,53131.6996,40935.6952,35847.6341,38168.2366,5708.6796,50108.3583,44569.7308,55815.3391,-734.3441,-1542.0467,24829.0747
55114.3885,27035.2811,53135.3652,40926.4416,35821.8402,38170.6059,5709.1713,50096.0201,44556.8115,55807.6948,-747.0846,-1553.759,24825.7667
55105.9842,27032.5541,53138.9862,40927.0227,35811.916,38172.2152,5711.2277,50093.3379,44557.6608,55807.3372,-748.1575,-1555.0554,24830.5947
55129.6771,27045.2946,53141.2661,40941.596,35845.4883,38182.3182,5717.3967,50120.2941,44573.6647,55819.4071,-733.1818,-1540.5715,24838.1943
55147.8714,27056.0235,53141.4896,40953.0401,35866.8566,38187.325,5725.1304,50144.3893,44587.5674,55827.9902,-720.2625,-1534.5812,24841.7705
55141.9258,27047.5745,53139.6568,40949.2403,35857.3794,38182.2288,5722.627,50137.3261,44584.3488,55820.4353,-727.9515,-1537.8892,24837.3896
55120.9152,27038.455,53135.2758,40937.2598,35825.8635,38173.3775,5719.0508,50107.3748,44567.5403,55808.4548,-752.8961,-1552.3285,24827.7783
55124.6703,27034.2082,53131.6102,40936.7234,35818.9344,38173.2434,5716.2791,50098.0318,44564.8581,55816.0543,-756.9194,-1554.6978,24829.4771
55138.2154,27039.4832,53129.3303,40945.8876,35833.6419,38176.9538,5714.2675,50118.5507,44570.2225,55815.652,-741.8096,-1546.2488,24829.6559
55144.0269,27037.4268,53125.8881,40948.2121,35842.3591,38177.9373,5713.0605,50131.0676,44573.5306,55815.1603,-736.0876,-1541.242,24826.7502
55134.7286,27026.5192,53125.1729,40940.2549,35833.4184,38166.4038,5709.5289,50115.4214,44566.5121,55808.9018,-746.0564,-1549.378,24819.24
55115.0143,27022.6747,53125.5752,40931.4036,35812.5865,38158.9383,5706.8914,50102.5021,44559.9407,55804.5655,-757.4111,-1561.8056,24814.9484
55104.5984,27019.8584,53123.787,40929.2579,35802.9753,38164.8391,5705.8185,50104.335,44556.9903,55803.2691,-758.5734,-1560.2857,24814.859
55119.5294,27022.9876,53127.6315,40942.9818,35829.2162,38174.1375,5711.2277,50124.228,44568.792,55808.9465,-739.6638,-1542.449,24820.4917
55140.0036,27034.3423,53132.7724,40952.3249,35854.1161,38183.5252,5715.1169,50149.8878,44583.0971,55817.7978,-728.8009,-1529.1721,24826.7949
55129.4088,27032.1518,53132.1466,40944.8594,35845.3542,38173.601,5714.3569,50133.9734,44575.1399,55816.0096,-737.4287,-1536.0564,24823.1292
55113.7626,27022.9876,53136.304,40932.1189,35826.1317,38166.8061,5715.7427,50112.0687,44559.4937,55808.3653,-753.8348,-1550.898,24819.5529
55110.4099,27023.6582,53138.6286,40929.7049,35825.327,38169.6224,5718.0226,50111.264,44559.4043,55808.1418,-754.5501,-1548.0369,24823.5315
55134.8627,27033.0459,53143.4566,40947.9886,35851.9703,38187.0121,5726.8739,50133.9734,44579.6549,55823.5645,-728.9797,-1527.3392,24835.825
55144.608,27038.1421,53138.5839,40957.1081,35867.0801,38191.6612,5728.7514,50147.8761,44591.099,55829.1078,-719.8602,-1518.3985,24838.5966
55130.437,27032.5989,53132.683,40952.1461,35848.0811,38184.5087,5722.8506,50140.053,44587.7463,55823.2963,-731.1702,-1530.4685,24832.0699
55106.6548,27024.7757,53132.5042,40934.0858,35813.123,38173.7798,5716.5474,50117.6119,44572.2342,55817.2613,-751.6444,-1549.691,24825.3644
55107.5041,27024.3287,53134.6053,40937.3939,35813.6594,38177.6243,5721.42,50115.1979,44574.827,55824.8609,-747.6211,-1543.1195,24831.6228
55127.9336,27033.0012,53129.1068,40950.0897,35837.2182,38181.9159,5720.6601,50134.4204,44580.549,55823.2069,-731.0808,-1531.7202,24832.8298
55141.5235,27040.1984,53126.6034,40954.113,35848.9305,38181.8265,5716.5921,50154.0005,44585.2876,55823.2069,-727.1916,-1529.3956,24829.3877
55126.369,27033.7164,53124.5023,40947.631,35843.4767,38173.8245,5717.4861,50140.813,44580.0573,55815.4732,-737.071,-1537.2187,24825.1408
55110.4099,27031.8389,53130.8055,40940.4784,35818.1745,38170.1142,5717.8438,50123.9151,44572.6365,55809.1253,-748.2469,-1548.5734,24826.3031
55109.6052,27033.7611,53132.683,40937.8409,35817.8616,38176.5515,5718.2014,50132.6323,44579.5655,55809.17,-747.2187,-1546.4723,24829.9241
55130.0347,27037.9633,53136.0358,40952.8166,35852.2385,38188.085,5723.9234,50158.1132,44595.3906,55820.0777,-728.935,-1531.8543,24834.9756
55136.4273,27035.0128,53135.8123,40958.4939,35861.5816,38189.9178,5721.5095,50173.7595,44598.9221,55829.1078,-719.9049,-1525.1487,24835.3779
55138.2154,27035.6834,53136.3487,40951.8778,35848.4387,38186.0733,5717.2626,50156.4592,44587.8357,55823.3857,-729.2479,-1534.1789,24834.618
55128.1571,27027.5027,53140.1485,40940.2996,35826.534,38182.1841,5720.8389,50144.2552,44573.9776,55815.4732,-743.2401,-1544.3712,24833.6345
55120.8258,27019.6348,53139.9697,40942.1325,35817.0569,38176.2385,5724.2364,50136.0297,44575.1399,55817.4402,-744.5812,-1541.5996,24835.6462
55134.505,27026.6533,53139.5227,40953.7107,35836.3241,38178.6972,5721.8671,50139.9189,44584.3488,55820.927,-731.5278,-1528.0098,24838.1943
55147.6032,27030.9001,53137.3769,40954.1577,35857.0218,38182.2735,5716.5921,50154.0452,44594.8094,55821.8211,-725.8952,-1526.9369,24833.411
55135.3991,27029.6484,53132.236,40944.9488,35842.9849,38174.1822,5711.8535,50148.0103,44584.3935,55819.3624,-733.5842,-1534.9388,24825.4538
55111.438,27028.3073,53135.6335,40937.1257,35820.7673,38173.6457,5712.4346,50137.1473,44575.6316,55812.2098,-747.5764,-1544.4607,24821.5199
55112.1533,27027.458,53139.2097,40935.6505,35816.1181,38177.0432,5715.7874,50141.1706,44578.895,55811.2264,-751.1079,-1541.4208,24823.4421
55130.7052,27039.8408,53143.3225,40941.8195,35842.1803,38179.9042,5717.0391,50167.188,44595.8823,55826.6044,-738.3227,-1529.5744,24829.2536
55142.8646,27044.0876,53139.7909,40948.4357,35856.2618,38181.0665,5715.0275,50173.223,44603.7054,55829.7783,-730.3208,-1526.2663,24824.8726
55138.9307,27046.9487,53138.6286,40952.906,35850.5398,38177.222,5713.8205,50162.3601,44600.1291,55824.101,-735.1041,-1532.4354,24826.7055
55118.8588,27038.4103,53136.304,40940.4337,35821.8849,38169.6224,5711.4065,50143.4505,44577.5986,55814.7132,-744.8047,-1544.9077,24822.3692
55115.7743,27036.5775,53140.3273,40937.7515,35815.3135,38170.8741,5712.4794,50131.2912,44570.5801,55815.3838,-746.8611,-1541.7784,24821.6093
55135.5779,27043.0595,53144.0377,40945.6193,35837.7099,38173.3775,5716.145,50139.8295,44582.7395,55819.8094,-731.3937,-1528.278,24827.9124
55147.6479,27049.765,53143.3225,40954.9624,35855.1443,38177.1326,5715.7427,50158.0238,44593.4236,55827.2302,-715.8816,-1521.7513,24831.2652
55142.5964,27045.7417,53143.099,40952.8613,35842.0014,38176.8644,5716.8603,50156.5933,44589.1768,55820.2118,-723.7047,-1527.3839,24827.0184
55129.1406,27042.1654,53141.6684,40940.702,35818.9791,38172.9305,5713.5969,50135.4039,44575.2293,55814.7132,-739.4403,-1541.4208,24825.1408
55132.8063,27040.109,53142.2049,40937.975,35814.4194,38173.0646,5711.63,50129.95,44570.446,55815.2497,-743.7766,-1544.1477,24830.237
55153.1017,27042.8807,53144.1718,40955.0071,35840.9733,38186.3862,5717.9332,50157.5321,44586.1369,55822.6258,-721.693,-1523.8971,24834.9756
55158.1532,27044.0876,53145.6023,40965.6018,35855.7254,38190.9013,5717.352,50172.9101,44599.2798,55828.3478,-710.1595,-1513.9282,24838.9989
55145.4127,27044.49,53146.9434,40963.9925,35837.7993,38191.9295,5718.2908,50168.8868,44591.7249,55826.1126,-717.1333,-1519.2032,24837.3896
55131.6887,27036.3986,53146.3176,40950.7155,35812.0948,38188.1744,5714.8486,50147.5185,44569.999,55816.8143,-739.6638,-1534.8494,24830.9076
55127.0396,27030.766,53139.5674,40945.217,35809.5467,38185.9839,5708.4113,50143.0035,44565.5286,55808.3206,-744.6259,-1542.6725,24828.7171
55138.7519,27039.2597,53133.2642,40947.0052,35826.6234,38192.8235,5706.4444,50172.4184,44582.6948,55813.0145,-729.2926,-1531.8543,24830.9523
55148.7207,27039.9749,53130.9843,40949.9109,35835.1171,38190.946,5704.2539,50191.1938,44586.1816,55817.0378,-724.1964,-1531.5413,24829.4324
55139.1095,27029.7378,53129.4644,40945.3064,35824.0753,38185.1792,5701.3035,50170.6749,44572.1895,55809.2147,-734.2547,-1543.2537,24824.3362
55120.2893,27023.6582,53125.6646,40933.2365,35803.1988,38178.7419,5701.527,50143.8528,44556.722,55803.895,-748.5151,-1555.6365,24817.7648
55108.8452,27022.0488,53127.2739,40929.5708,35799.7566,38173.5116,5701.7505,50126.8655,44553.6822,55798.7988,-748.6045,-1554.653,24817.0942
55123.0609,27030.8107,53131.6102,40936.9022,35825.1035,38175.9256,5706.5338,50149.262,44568.4344,55803.7609,-738.1439,-1539.6774,24819.9999
55131.9122,27037.9633,53134.0241,40946.6475,35846.5612,38176.6856,5710.9147,50165.9364,44571.1166,55806.0408,-732.3325,-1535.1623,24824.3362
55118.5906,27038.1868,53129.8667,40938.3774,35828.5457,38169.1754,5711.0935,50151.8995,44555.6492,55802.5986,-739.5744,-1543.0301,24822.101
55098.3846,27042.7912,53133.8006,40930.8672,35812.1395,38163.4086,5711.9429,50129.056,44536.6055,55799.4246,-754.416,-1553.6249,24819.7764
55095.166,27048.3792,53140.2379,40931.9848,35818.1745,38162.7381,5715.6086,50107.5089,44537.7678,55800.6763,-754.2372,-1547.9028,24823.0845
55112.3768,27059.1974,53138.7627,40942.7583,35841.2415,38165.4203,5722.2247,50115.4214,44555.2468,55808.0524,-733.5842,-1531.3625,24829.7006
55116.1766,27065.6794,53139.7462,40947.0052,35854.3396,38170.6953,5729.6902,50126.8655,44568.5238,55813.1933,-721.7377,-1525.9981,24834.4839
55109.8287,27071.7144,53142.2943,40944.3229,35846.5165,38171.2317,5735.2334,50116.4496,44553.861,55809.3488,-727.8621,-1532.4801,24832.2487
55093.8249,27063.3996,53140.9532,40932.4318,35817.191,38161.5758,5737.0663,50089.4934,44539.243,55802.5986,-741.1838,-1542.1808,24828.2254
55078.6704,27059.5104,53139.478,40928.0956,35811.469,38159.0724,5735.5016,50073.2213,44539.8241,55801.1234,-738.4568,-1542.449,24828.8959
55097.0882,27067.8699,53137.4663,40935.6058,35840.7944,38165.7779,5737.6921,50088.1523,44540.6288,55801.8833,-723.7941,-1531.1837,24832.4722
55113.9861,27076.2295,53138.4945,40943.2054,35851.1209,38169.6671,5741.8942,50094.4108,44541.3888,55812.5675,-714.4064,-1523.6735,24839.893
55107.9959,27082.6668,53143.0095,40945.0829,35839.811,38171.2317,5747.4375,50078.8987,44531.9563,55810.7793,-715.1216,-1524.0312,24842.754
55090.0698,27075.246,53139.8803,40931.2248,35812.9442,38159.6982,5740.1061,50043.6723,44513.1809,55802.7327,-733.4501,-1539.6774,24835.4226
55076.8822,27071.1333,53134.4712,40926.3074,35793.8111,38155.1832,5736.0828,50025.031,44501.8262,55794.999,-741.3179,-1546.517,24831.0417
55088.8181,27074.6648,53135.4994,40941.0596,35818.845,38166.3591,5740.5084,50041.0348,44510.1857,55798.173,-727.0575,-1533.3742,24837.0767
55104.1961,27075.8271,53132.7724,40949.7321,35838.7381,38175.1657,5742.8777,50052.0319,44524.0438,55801.5704,-716.1051,-1524.8805,24841.5023
55096.7306,27073.9496,53133.443,40946.7369,35829.5292,38172.2152,5740.0614,50031.6024,44518.0982,55794.239,-724.2858,-1532.4801,24836.9873
55075.4964,27067.2441,53135.6782,40940.7914,35802.7071,38168.4601,5738.0944,50000.9805,44498.1158,55784.9407,-739.9321,-1544.8183,24827.7783
55075.9882,27067.6464,53139.9697,40939.8973,35799.3543,38169.8906,5740.1508,49997.4042,44491.7232,55785.7007,-742.346,-1543.5219,24828.4042
55096.9541,27065.0089,53138.3157,40942.2666,35819.8285,38170.5612,5736.798,50008.1778,44498.1605,55788.5617,-732.556,-1533.4189,24831.2652
55105.4478,27062.7737,53133.6665,40941.6407,35819.2921,38167.119,5731.1207,50019.3089,44500.8427,55791.4227,-726.6998,-1530.9155,24829.7453
55090.1592,27049.5415,53128.2574,40932.253,35801.1872,38152.2328,5723.2529,50002.3663,44489.3092,55782.6608,-738.6804,-1543.8795,24821.341
55067.8074,27037.3821,53124.6364,40914.1928,35769.1348,38135.916,5714.6251,49970.2692,44463.9623,55768.6687,-758.037,-1565.5607,24813.2497
55066.1981,27034.6999,53125.4411,40914.3269,35770.8782,38131.6692,5715.9662,49958.0652,44463.9176,55767.3275,-758.4393,-1565.4713,24813.965
55081.6655,27036.2645,53122.3118,40919.6466,35796.1804,38134.6643,5717.8885,49972.5938,44475.8981,55767.5064,-744.7153,-1549.7357,24813.6967
55099.681,27041.629,53124.547,40927.0227,35803.1988,38138.6429,5722.1353,49981.9815,44486.2247,55777.1623,-734.0312,-1539.6774,24820.3576
55094.9425,27042.2101,53124.4576,40924.9216,35788.2679,38134.2173,5724.4599,49971.9232,44481.6202,55781.4986,-738.4568,-1541.689,24823.7997
55081.6208,27036.4434,53124.8599,40912.9858,35766.8102,38131.8927,5721.7777,49937.1886,44479.9662,55776.2682,-750.4821,-1549.691,24824.962
55080.235,27030.8107,53125.5305,40910.1695,35764.4856,38132.8315,5720.5707,49928.6056,44479.4297,55774.7483,-751.7785,-1557.2906,24824.5597
55100.3516,27035.3258,53127.0951,40914.5951,35789.6984,38135.1113,5722.0012,49947.6492,44491.455,55782.3479,-733.9865,-1544.1924,24830.9523
55116.0425,27033.4035,53128.1233,40923.8487,35802.0365,38138.0171,5722.7612,49962.8037,44502.7649,55791.7356,-720.7096,-1535.967,24834.7521
55102.7656,27028.0391,53129.822,40917.635,35786.6585,38133.0997,5716.5474,49956.724,44489.3986,55791.2439,-730.8125,-1549.1992,24831.3546
55088.1475,27029.0226,53128.7491,40906.9955,35765.5138,38122.5944,5716.7709,49940.0496,44469.8185,55781.3197,-745.9223,-1559.6151,24825.0514
55097.8929,27027.8603,53132.1913,40908.2472,35766.4078,38129.7469,5719.5425,49927.8009,44470.3102,55783.242,-744.8494,-1555.9047,24825.8114
55123.5527,27038.5444,53134.2924,40920.8089,35795.1522,38138.8664,5723.7446,49951.7173,44486.2694,55787.4888,-731.1702,-1544.5501,24830.9523
55132.091,27054.1012,53139.6121,40922.6418,35811.3348,38143.7391,5726.0245,49972.1467,44499.9933,55798.8435,-718.7873,-1534.313,24836.9426
55118.4118,27058.9739,53140.7744,40917.0538,35797.7003,38141.2804,5726.7845,49962.4461,44498.7416,55797.5024,-729.8291,-1537.6657,24835.3779
55102.7656,27054.3694,53135.7676,40908.5602,35774.7674,38139.5817,5724.3258,49950.1973,44487.6105,55790.5287,-746.8164,-1549.5121,24830.5947
55099.0999,27051.2402,53137.1981,40908.2025,35771.5935,38143.5603,5724.9069,49960.7027,44488.5045,55789.5452,-746.28,-1544.9971,24831.7122
55108.3982,27049.6756,53134.9629,40915.7127,35787.9996,38141.8616,5727.9021,49981.9815,44502.4073,55791.1098,-728.0409,-1531.0943,24832.9192
55123.955,27047.1275,53136.9299,40929.9731,35812.5418,38145.4825,5732.283,50002.2769,44505.9389,55795.1331,-720.3519,-1521.9748,24837.6131
55113.9861,27039.6173,53136.3487,40922.9994,35801.5895,38134.6643,5726.0245,49986.8542,44498.6522,55791.5121,-734.1206,-1535.207,24831.2205
55089.578,27025.5357,53127.8104,40903.4193,35773.5157,38119.5545,5712.7029,49947.0681,44474.0653,55777.9223,-750.795,-1556.0836,24821.2963
55084.1242,27019.9478,53125.6199,40894.7915,35761.4905,38117.8558,5710.87,49935.1323,44465.7505,55778.5928,-751.1079,-1559.6151,24821.4304
55102.2291,27022.3171,53126.514,40901.944,35777.8966,38122.192,5712.6582,49949.7056,44474.7806,55779.2634,-741.6755,-1552.552,24818.7482
55116.5342,27025.7592,53128.1233,40907.3085,35788.2231,38130.5516,5713.3734,49964.1895,44486.9846,55782.1691,-730.8573,-1545.0418,24818.5694
55113.852,27034.5211,53126.7822,40913.8352,35777.3602,38134.4855,5714.1334,49961.7308,44485.7329,55780.2469,-736.2664,-1544.5054,24817.0495
55103.1232,27037.2033,53125.1281,40914.1481,35760.3729,38135.6031,5715.4745,49944.8776,44477.8204,55776.0447,-746.4141,-1553.0437,24814.5908
55091.0532,27031.1683,53127.0057,40907.8449,35755.3661,38133.9043,5715.9662,49941.659,44476.3452,55774.793,-752.2255,-1552.6861,24817.8542
55106.4312,27044.8476,53131.9231,40924.3852,35790.1901,38144.5885,5725.1304,49970.2692,44499.2334,55788.2488,-731.3043,-1536.9952,24826.9737
55124.402,27059.868,53135.9464,40940.8808,35813.7935,38156.5243,5732.9983,49997.6277,44514.522,55794.7755,-716.1945,-1526.8028,24833.3663
55119.887,27063.3101,53139.0309,40941.1937,35810.1279,38166.1803,5736.5298,50005.2273,44507.727,55794.3732,-717.7144,-1527.8757,24837.7919
55111.3933,27055.3529,53138.718,40929.1685,35793.364,38165.1968,5733.6688,49987.1224,44497.4005,55790.0369,-736.4452,-1537.9339,24834.1709
55113.3156,27060.1809,53140.9979,40929.7496,35791.0842,38169.8906,5732.2383,49975.4101,44504.5084,55793.345,-735.1935,-1534.6706,24832.5169
55133.7898,27070.5521,53140.8638,40939.0479,35816.2522,38173.2434,5729.3326,50003.2157,44518.5453,55799.1117,-717.178,-1525.104,24834.7968
55138.9754,27072.6532,53142.1155,40943.7418,35828.3669,38179.8148,5726.5162,50023.824,44532.3586,55803.2691,-707.4773,-1519.3373,24841.2341
55129.4982,27064.4277,53138.271,40940.6573,35813.8829,38176.9538,5721.1965,50012.961,44524.7144,55791.6015,-719.7708,-1526.6687,24836.0038
55107.5935,27052.3131,53136.7511,40922.0606,35790.4136,38164.5262,5717.9779,49990.9222,44503.0332,55779.7104,-744.1789,-1543.5666,24827.8677
55100.2175,27046.4122,53135.857,40913.254,35785.4515,38160.637,5716.5027,49997.5383,44506.0283,55787.1312,-746.6376,-1542.449,24830.7735
55124.0444,27049.0497,53135.857,40923.6252,35808.295,38164.4815,5718.559,50016.8502,44520.4675,55795.4907,-730.4102,-1531.6308,24834.0815
55135.5332,27050.7932,53137.0193,40932.6106,35826.9811,38169.7565,5720.6154,50032.6306,44528.8271,55797.9941,-720.8884,-1524.4782,24833.9921
55132.0016,27050.0332,53139.2545,40927.8721,35821.3931,38171.1423,5722.7165,50029.099,44530.0788,55797.3236,-727.5045,-1527.5627,24836.3167
55121.2728,27048.4686,53141.4896,40919.4678,35804.8081,38169.3989,5722.8059,50007.8201,44522.7474,55790.5287,-739.2615,-1536.9952,24835.512
55122.8821,27044.7582,53144.5742,40916.8303,35807.0433,38165.1074,5726.561,50006.5684,44522.6133,55794.2837,-740.8261,-1535.3858,24836.7637
55132.9404,27046.6805,53143.099,40920.2725,35824.0753,38164.0792,5725.2645,50032.1835,44534.9067,55799.067,-729.6503,-1528.725,24839.5354
55138.3495,27056.0235,53145.96,40925.8157,35832.8819,38163.0063,5726.4715,50047.8745,44544.6968,55809.3041,-722.3636,-1520.4549,24840.7871
55132.1357,27057.0517,53146.7199,40925.5922,35820.9014,38160.9052,5724.1023,50039.202,44535.4432,55810.0194,-730.0079,-1526.4452,24834.618
55111.7957,27051.4637,53148.7763,40914.5504,35803.467,38150.5787,5722.8059,50008.5354,44519.6629,55802.2857,-746.7717,-1541.6443,24827.823
55104.509,27045.2052,53145.0212,40905.3862,35799.1755,38145.7508,5720.6154,49999.8182,44519.4393,55799.1117,-750.1692,-1547.9475,24820.5811
55119.2611,27055.8894,53138.0028,40908.8731,35810.1726,38144.4097,5714.5804,50009.5189,44528.4694,55803.0456,-741.0496,-1541.5996,24820.7599
55123.9103,27057.5434,53134.6947,40912.6729,35813.8829,38142.9344,5713.0158,50025.031,44534.4597,55807.4713,-734.5229,-1538.381,24819.4188
55115.9531,27059.3762,53131.6102,40904.8498,35808.3397,38141.1016,5714.2675,50024.1369,44519.2158,55803.4927,-741.452,-1549.378,24815.0826
55096.5071,27050.7932,53131.1631,40890.9917,35787.7314,38130.0151,5709.3501,50003.1263,44504.2402,55796.6083,-759.9145,-1565.0243,24812.1321
55092.1708,27044.937,53130.0902,40886.4766,35781.4282,38131.6245,5706.7573,49993.962,44501.245,55797.86,-766.2624,-1563.9961,24813.8756
55122.5245,27052.0449,53129.5985,40899.6195,35806.5963,38143.8285,5711.9876,50009.7424,44513.002,55802.5092,-749.7221,-1551.4791,24819.687
55127.2631,27048.558,53129.1068,40901.497,35822.1084,38136.4524,5708.9925,50016.3585,44525.966,55803.3139,-741.452,-1544.5501,24820.894
55118.7694,27047.6639,53135.0076,40906.6379,35819.8285,38136.4971,5714.491,50010.2788,44533.7445,55811.0476,-737.384,-1536.9952,24829.2089
55102.8103,27043.9088,53136.2593,40905.7438,35800.606,38140.1628,5720.3472,49994.5879,44519.3499,55806.6666,-744.6259,-1542.6725,24832.8298
55096.5518,27042.9701,53135.2758,40901.9887,35791.3524,38147.226,5721.1518,49989.5364,44517.6065,55803.4927,-754.3266,-1548.0816,24830.4605
55114.2991,27048.7815,53136.7958,40911.8682,35811.6925,38153.1268,5721.0624,50014.4809,44537.7678,55810.0194,-741.7202,-1536.9505,24836.0485
55127.4866,27050.212,53134.7841,40919.2443,35825.1482,38156.122,5719.5872,50029.9484,44539.0642,55814.0427,-730.1867,-1528.1886,24832.9639
55121.1834,27048.0663,53136.7511,40911.7788,35806.7304,38146.0637,5718.3355,50017.3867,44521.2275,55810.6005,-738.6804,-1535.207,24828.6724
55100.5751,27036.7116,53135.4994,40899.4853,35779.5507,38139.984,5715.0275,49994.4985,44509.3364,55797.0554,-754.3713,-1554.2507,24824.2468
55095.6577,27031.4366,53138.7627,40904.8498,35778.3884,38141.5039,5715.8768,49994.0962,44512.2868,55797.7259,-755.2654,-1557.5141,24823.2186
55104.5984,27030.1402,53136.1699,40911.5106,35800.6954,38147.7624,5714.4016,50016.5373,44519.3946,55802.1516,-744.0001,-1550.7191,24821.9669
55119.7529,27033.94,53139.9697,40923.2229,35822.3766,38153.3504,5714.4016,50028.8755,44524.1779,55807.2925,-734.21,-1541.1079,24824.8726
55110.3652,27038.4103,53143.4119,40922.8206,35821.8402,38153.6186,5718.2014,50018.1913,44520.0652,55807.6501,-737.0263,-1543.7901,24828.136
55094.5401,27033.3141,53144.7977,40911.5553,35802.26,38153.4398,5719.8554,49999.9523,44513.0467,55802.5092,-747.0399,-1548.484,24831.3546
55098.6528,27032.3753,53144.4401,40908.4707,35792.1124,38157.8654,5718.2461,49997.8513,44515.6395,55803.4033,-745.52,-1547.4558,24831.4887
55120.4234,27034.8787,53145.6023,40919.5572,35813.7041,38163.9004,5725.041,50016.6267,44532.6269,55807.1136,-729.8738,-1531.8096,24836.9873
55133.5663,27041.3607,53142.8754,40926.4416,35835.6088,38169.533,5725.6222,50024.4498,44539.5559,55807.6054,-717.2674,-1522.6007,24840.6529
55123.5527,27036.7116,53138.2263,40921.1218,35820.0073,38162.3358,5717.9779,50018.1019,44533.2974,55807.963,-728.3092,-1535.9223,24832.5169
55102.9444,27028.4414,53137.5557,40911.7788,35791.5759,38150.6681,5711.0488,49996.7784,44523.2391,55802.8221,-747.7552,-1553.2225,24824.8726
55091.5897,27023.6582,53131.2972,40904.7604,35779.2377,38135.3796,5703.8516,49986.0048,44508.487,55796.9213,-754.1925,-1561.3139,24818.5247
55103.8384,27027.7709,53130.4926,40910.2142,35797.6109,38138.8217,5704.4327,50019.4877,44518.6347,55800.1846,-745.0283,-1549.7357,24818.8376
55115.059,27038.0527,53128.6597,40913.2987,35813.2571,38142.7109,5704.7009,50034.5081,44533.0739,55803.2691,-739.5744,-1544.2371,24816.9154
55099.5469,27037.3821,53125.6646,40904.8498,35799.1755,38140.6099,5697.9954,50015.1962,44516.6677,55795.759,-754.1925,-1557.6035,24810.344
55086.6723,27025.6251,53126.2457,40894.7021,35779.9083,38132.8762,5695.1791,49989.3576,44507.28,55792.7191,-770.3304,-1570.4781,24806.3654
55085.7782,27025.044,53128.5703,40893.0928,35778.5672,38128.8975,5695.492,49995.8396,44506.3859,55793.0321,-769.8387,-1570.2546,24808.5558
55107.9065,27033.3588,53132.236,40908.3813,35805.5234,38140.5652,5701.8846,50023.8687,44526.7707,55803.0456,-745.1177,-1552.2838,24819.7317
55125.3408,27036.2645,53130.7608,40922.5076,35828.5904,38148.7459,5707.9643,50038.7549,44537.0972,55809.9747,-729.4267,-1538.0681,24825.7667
55121.4069,27038.4997,53134.7394,40921.7924,35820.6332,38149.5506,5712.9264,50035.8939,44530.347,55810.5558,-735.1041,-1537.5316,24826.4819
55104.8219,27032.8224,53136.0358,40911.4212,35796.0016,38144.8567,5713.3734,50012.4246,44524.2673,55806.5772,-747.0399,-1546.0253,24823.3527
55106.9677,27033.8506,53135.9911,40913.7011,35795.778,38152.5457,5716.8603,50007.8201,44531.9563,55809.5276,-745.073,-1543.8795,24828.0466
55125.2514,27037.2033,53131.9678,40921.0324,35821.0802,38154.6468,5715.5192,50033.7481,44546.8426,55815.1156,-729.9632,-1534.1341,24832.9192
55129.1853,27040.5114,53134.6053,40924.8322,35835.7877,38155.2726,5713.8205,50055.5187,44551.9388,55824.6374,-718.4744,-1522.1983,24838.3731
55126.8607,27047.4851,53136.3487,40922.8653,35826.8023,38148.5671,5714.2675,50044.2535,44543.9368,55820.3459,-726.7445,-1526.9369,24833.6792
55117.2942,27040.0643,53131.6996,40914.6845,35804.1376,38145.3037,5713.0605,50014.5257,44527.9777,55808.8571,-745.073,-1539.4092,24826.5713
55111.6168,27030.766,53126.2457,40909.0519,35801.6342,38140.7887,5710.9147,50007.0602,44520.0652,55805.6384,-752.6278,-1548.2605,24823.7997
55123.9997,27034.1188,53129.5091,40916.0256,35822.7342,38144.0967,5710.1548,50040.096,44548.8542,55822.6705,-735.8193,-1532.9719,24831.5334
55138.886,27036.7563,53126.1116,40920.7642,35828.0092,38145.3037,5704.5221,50057.1281,44552.967,55820.3906,-729.2926,-1531.3178,24831.444
55124.2232,27028.3967,53119.272,40909.0072,35813.4359,38135.916,5699.6942,50043.1359,44542.3722,55815.3838,-742.4802,-1541.689,24824.3362
55104.4643,27018.9643,53115.5169,40896.9373,35791.3077,38125.6342,5698.2636,50020.5606,44527.3966,55807.4266,-759.3781,-1558.8552,24818.4353
55096.7753,27019.5454,53115.4275,40887.7283,35783.3952,38125.053,5696.9225,50015.1962,44521.7192,55805.8172,-762.0603,-1566.2313,24815.3061
55122.301,27024.0605,53120.5237,40900.29,35805.9704,38137.1677,5698.3083,50038.8443,44537.6784,55809.3041,-745.073,-1549.9145,24820.4023
55130.2582,27031.8389,53124.547,40915.9362,35823.5389,38148.9694,5704.8798,50060.9726,44548.1837,55817.619,-730.0079,-1536.2352,24825.2302
55116.8472,27030.7213,53128.6597,40909.9013,35808.742,38147.9859,5702.4211,50049.2603,44548.4966,55818.3789,-736.2217,-1540.5715,24825.3644
55099.0552,27022.4512,53125.3517,40896.669,35788.3126,38141.638,5696.9672,50027.6685,44535.4879,55810.2876,-754.863,-1556.3518,24816.2001
55103.7043,27020.216,53127.4527,40905.7885,35789.5195,38146.5107,5697.8613,50029.1884,44535.622,55808.8124,-756.0253,-1555.1001,24813.8309
55122.1669,27030.5425,53133.6218,40926.4416,35819.2921,38159.8324,5705.148,50059.1844,44549.1672,55812.791,-742.1225,-1537.8892,24820.6705
55132.1357,27035.8622,53133.2642,40927.738,35832.8372,38156.5243,5703.8963,50076.2612,44551.1341,55811.9416,-735.9982,-1533.1954,24820.1787
55124.4467,27036.4881,53133.443,40917.9479,35823.7177,38145.3037,5700.32,50063.7442,44548.586,55809.3041,-745.8329,-1541.7784,24813.6073
55100.7092,27032.5989,53128.7491,40909.4542,35802.6177,38138.33,5699.0683,50045.5946,44537.0078,55801.2575,-766.5753,-1555.5918,24808.8241
55089.7121,27030.6319,53126.201,40900.6923,35794.7052,38139.1793,5697.1908,50040.6772,44536.7843,55794.3732,-765.726,-1561.4927,24806.9018
55109.6052,27033.4035,53124.6364,40911.4212,35816.6546,38143.8285,5696.9672,50055.2952,44554.9786,55798.2624,-748.7833,-1551.8367,24807.7959
55114.8355,27033.9847,53124.4129,40917.7244,35829.2609,38142.7109,5695.7155,50069.9133,44556.275,55805.5043,-745.52,-1545.4441,24808.7794
55100.5304,27022.2723,53123.0271,40907.8896,35809.4573,38132.5632,5690.9323,50060.8385,44544.6521,55804.2973,-754.4607,-1551.8814,24805.7395
55089.6227,27014.7175,53122.8483,40900.8712,35785.7645,38131.6692,5689.5465,50045.9522,44531.9563,55801.481,-770.241,-1561.4927,24804.2643
55080.5479,27015.7009,53123.1612,40908.1131,35784.6022,38140.2522,5694.5533,50058.2457,44531.5093,55800.9446,-770.0622,-1558.7658,24810.0311
55096.9541,27023.2111,53124.994,40922.5971,35814.1512,38147.3601,5699.4259,50086.4089,44547.7366,55809.8853,-752.2255,-1541.2867,24818.7929
55114.8355,27028.1732,53126.2457,40930.1072,35835.3406,38152.0987,5701.974,50097.54,44564.3663,55818.3789,-738.3674,-1531.7649,24821.4751
55109.9628,27021.3783,53126.201,40922.2394,35819.4709,38145.9743,5699.8283,50079.6139,44551.6706,55816.7249,-747.9787,-1540.7056,24818.5694
55088.9075,27010.2024,53123.8765,40912.0917,35797.8344,38137.3465,5693.5251,50058.0221,44535.8455,55808.7677,-761.1662,-1553.759,24814.0544
55085.063,27011.6776,53124.6364,40909.0519,35793.9005,38140.3863,5693.2569,50057.3516,44540.897,55805.9961,-763.9825,-1554.7872,24816.0213
55114.1202,27023.3005,53125.0834,40919.0655,35823.4495,38148.0753,5696.9225,50082.8326,44555.3362,55809.8406,-748.9622,-1542.9407,24819.3294
55129.8559,27030.0061,53131.4313,40923.7593,35839.051,38152.501,5700.32,50088.197,44571.8765,55819.8541,-735.6405,-1531.9437,24821.654
55124.6703,27027.1003,53136.8405,40921.9712,35823.4942,38148.7459,5701.3035,50084.1737,44566.378,55816.7696,-740.1556,-1538.1575,24820.0446
55103.4361,27019.009,53137.4663,40908.3813,35798.9073,38140.1628,5698.5319,50065.5323,44556.2303,55811.8522,-757.0982,-1554.4295,24812.5792
55100.7539,27015.2986,53137.4663,40910.7953,35795.7333,38140.2075,5703.0916,50067.1417,44557.1244,55809.7959,-756.5618,-1555.2789,24812.9368
55117.3836,27019.2325,53138.8521,40920.8983,35822.2872,38147.8518,5704.0304,50089.9404,44571.7424,55818.066,-744.9389,-1538.5598,24821.2069
55129.9453,27021.9594,53133.3983,40920.8983,35833.0607,38152.5904,5700.1859,50100.8034,44578.8056,55821.5976,-740.1109,-1536.3246,24821.9669
55127.3972,27022.8088,53129.3303,40924.0723,35826.6234,38152.054,5700.6329,50091.5945,44576.481,55818.4236,-744.4471,-1537.5316,24822.4139
55112.8685,27015.6115,53127.3633,40911.0188,35801.366,38149.5506,5697.6378,50063.0289,44563.4276,55809.9747,-759.6463,-1546.517,24820.4023
55109.024,27019.8137,53132.3701,40912.2258,35802.1706,38152.2775,5702.1528,50064.1912,44567.1827,55820.2565,-756.1147,-1543.9242,24826.7949
55123.5974,27028.7991,53134.2477,40921.4795,35829.0821,38160.1006,5705.5056,50094.7684,44576.6598,55826.0679,-739.9321,-1530.5579,24832.5169
55137.1872,27036.2198,53134.1583,40926.8439,35841.8673,38164.1686,5706.5785,50115.7343,44588.5062,55833.3993,-732.1984,-1525.0146,24834.4839
55135.3097,27034.6552,53133.1301,40929.5261,35835.1618,38162.2016,5705.8185,50106.5254,44582.6501,55829.9571,-738.2333,-1536.8164,24831.2652
55113.9414,27024.0605,53132.9066,40916.6962,35804.4058,38152.0987,5701.7505,50081.7597,44559.136,55817.3507,-756.0253,-1552.0155,24820.8493
55105.0454,27027.3238,53131.6996,40913.2093,35803.2882,38153.6633,5702.3764,50076.7976,44555.6939,55814.9368,-756.3829,-1551.7026,24816.9154
55120.6917,27034.8787,53128.2127,40921.0324,35826.847,38161.4864,5701.8846,50095.2154,44567.0038,55822.0446,-743.1507,-1545.2206,24818.1224
55131.3311,27029.112,53125.4411,40926.0839,35837.4864,38156.7031,5694.8662,50104.5138,44565.5286,55823.2963,-738.3227,-1541.4655,24815.3955
55125.3408,27018.8749,53125.0387,40917.9032,35822.6448,38147.5836,5690.7982,50089.3593,44557.8396,55812.7016,-750.7056,-1551.8367,24808.5111
55106.1183,27012.1694,53123.2506,40904.4474,35796.5827,38138.2406,5688.4289,50078.541,44539.6006,55802.7327,-770.3304,-1567.17,24804.5325
55091.7685,27009.5766,53123.2059,40901.1841,35787.0609,38137.7935,5688.4289,50076.6188,44539.243,55801.8386,-772.4762,-1568.8241,24806.9018
55105.2243,27014.3151,53121.2837,40908.6496,35807.1774,38143.5156,5688.9206,50095.126,44556.9456,55807.4713,-758.7969,-1555.9494,24810.8357
55114.5226,27018.249,53117.6627,40912.36,35822.8236,38149.2376,5691.1558,50108.5818,44570.3566,55813.8192,-746.6823,-1546.2041,24815.4849
55110.231,27015.1645,53113.7288,40904.4027,35807.7139,38145.6614,5688.3395,50096.4224,44563.3829,55810.8687,-755.623,-1550.0933,24814.1438
55093.7355,27006.7155,53114.3546,40894.3892,35790.3242,38139.1346,5686.909,50078.541,44555.7386,55806.756,-769.4811,-1561.0009,24811.9086
55084.8842,27000.2782,53118.3779,40891.4387,35783.8422,38140.3863,5688.9206,50076.5741,44549.9718,55803.8056,-770.2857,-1566.1418,24811.6851
55114.9249,27013.2869,53123.1165,40911.0188,35809.949,38148.5671,5697.6378,50100.8928,44564.5899,55810.5558,-752.6278,-1550.1827,24817.7201
55134.505,27027.2791,53133.3536,40925.5028,35831.5408,38158.6701,5707.4726,50125.6138,44581.0407,55825.8891,-739.038,-1535.7435,24826.2584
55127.3972,27024.6416,53133.4877,40923.1782,35820.4991,38153.9315,5707.7855,50114.125,44577.8668,55825.3974,-746.3694,-1540.5715,24824.6044
55108.13,27017.0867,53130.8055,40912.9858,35800.6507,38147.7177,5704.3433,50089.0464,44566.1545,55818.5577,-757.9923,-1553.3566,24820.6705
55100.3516,27012.7952,53126.9163,40907.0402,35797.2085,38146.2425,5701.8846,50093.4273,44565.2157,55819.1836,-763.1332,-1553.8037,24818.1671
55118.5906,27019.1431,53128.8832,40918.7973,35818.3533,38153.8868,5704.4327,50118.8189,44578.135,55825.4868,-748.9622,-1537.7104,24822.2351
55130.3923,27031.6154,53130.6267,40931.2248,35837.0841,38155.0491,5710.0207,50137.8179,44586.1369,55829.6442,-734.3441,-1525.5958,24825.9008
55123.8209,27030.4978,53129.3303,40922.9547,35829.8868,38153.8868,5709.9313,50130.8888,44572.6365,55825.755,-745.3412,-1535.9223,24822.2351
55111.3039,27026.5192,53130.9396,40916.115,35811.469,38156.2561,5707.4279,50113.0968,44555.7386,55818.066,-758.6181,-1548.0369,24820.447
55107.1465,27025.2228,53132.1913,40911.1977,35798.4602,38149.6847,5704.3433,50102.1892,44552.9222,55816.0096,-761.9262,-1552.9543,24817.7648
55120.9599,27026.0721,53131.476,40916.2492,35807.2221,38146.9131,5702.0187,50115.6449,44569.1049,55818.6471,-753.4772,-1543.5219,24818.3459
55128.7383,27032.8671,53136.1252,40925.1004,35821.1249,38150.2658,5703.3598,50140.366,44579.342,55820.927,-746.1458,-1538.2916,24821.8775
55119.9764,27027.9497,53136.7958,40917.1432,35821.9743,38151.6963,5702.3317,50136.5662,44576.5257,55823.5198,-754.2372,-1545.2653,24817.9436
55093.3331,27022.3618,53131.4313,40901.0947,35792.5147,38141.638,5698.5319,50104.6479,44560.7007,55814.0427,-774.9796,-1563.549,24812.2215
55087.0299,27017.8467,53125.9775,40898.8148,35786.1668,38139.7158,5692.7204,50099.1046,44560.2536,55810.6899,-775.6054,-1560.6433,24810.0758
55113.9414,27022.63,53127.0951,40919.6019,35814.33,38151.0258,5697.4143,50128.9219,44575.5869,55820.033,-759.691,-1545.8912,24818.8376
55125.7879,27026.3851,53125.8881,40920.8983,35825.0588,38148.7459,5696.6096,50140.6342,44576.7939,55817.619,-749.0963,-1538.1128,24821.8328
55122.1669,27025.9827,53126.2904,40920.2725,35816.431,38143.2027,5696.7884,50128.3854,44569.1049,55814.5791,-750.5715,-1541.242,24820.8493
55108.3982,27019.6795,53127.2739,40914.8186,35798.7285,38137.1677,5694.1509,50100.6693,44555.3809,55806.8007,-763.1332,-1555.7259,24815.3955
55098.1611,27020.0819,53129.4197,40906.2803,35792.1124,38134.7984,5691.3793,50090.3428,44553.9951,55817.2613,-765.1448,-1560.5092,24813.7414
55113.8967,27027.6815,53129.5985,40918.2161,35813.7041,38142.9791,5693.5698,50120.8305,44569.0155,55822.4469,-751.4656,-1543.7007,24817.8542
55123.9997,27032.1071,53132.7277,40927.0227,35828.0987,38153.9315,5695.9391,50146.2668,44586.4052,55827.5431,-739.1721,-1531.9437,24821.4751
55115.6849,27021.423,53128.7044,40924.7428,35820.4991,38152.7692,5695.805,50145.7304,44587.0757,55826.2914,-746.8611,-1540.7056,24819.5082
55095.2554,27015.5221,53124.4576,40912.5388,35793.9899,38147.226,5695.3579,50124.3621,44572.2342,55820.48,-763.4908,-1557.5141,24813.2944
55088.4157,27011.6776,53122.8036,40905.6991,35785.7645,38141.8616,5689.6806,50124.2727,44569.2837,55815.2497,-770.9563,-1561.3586,24807.6618
55111.5274,27020.0819,53126.2457,40922.3735,35814.0171,38152.4563,5693.391,50152.6594,44596.0164,55823.1175,-753.3878,-1541.1079,24815.9319
55124.1338,27028.5755,53127.2292,40926.7545,35830.6468,38160.4135,5694.8662,50169.155,44605.4041,55830.1806,-740.3791,-1532.5248,24819.5529
55113.9414,27022.0488,53125.3964,40920.1384,35822.9578,38153.2162,5694.2403,50159.3202,44594.3624,55829.7783,-750.4821,-1542.0467,24816.6472
55099.234,27010.5153,53124.8152,40903.4193,35797.7003,38141.7274,5689.2335,50131.6935,44571.9659,55821.4188,-770.7775,-1559.2128,24811.7745
55099.4128,27011.2753,53125.7987,40901.0053,35791.1736,38137.0783,5688.2501,50117.7013,44569.3284,55816.9484,-770.7775,-1563.7726,24810.8357
55117.0707,27015.1198,53125.7093,40907.8449,35809.0103,38143.6944,5689.2335,50134.7333,44587.7016,55822.0446,-754.0137,-1548.7075,24814.1885
55125.162,27017.2656,53124.994,40919.0208,35822.6448,38147.4048,5688.9653,50151.3183,44590.2944,55826.1573,-748.1128,-1545.3547,24814.6802
55118.7247,27019.0984,53127.1845,40917.8585,35823.2707,38144.7673,5687.5348,50150.4242,44585.2429,55818.9601,-756.4276,-1551.4344,24810.7016
55104.9113,27013.3764,53130.0455,40910.3483,35799.0414,38138.9558,5686.596,50132.0064,44573.2176,55812.6122,-770.0622,-1558.1846,24807.1253
55105.1348,27013.0634,53125.8434,40912.1811,35791.3077,38143.8285,5687.9818,50113.7227,44572.6812,55813.998,-768.1847,-1558.9893,24807.7512
55119.3058,27020.9759,53122.8036,40920.5854,35806.4175,38152.5457,5686.1043,50134.5545,44575.0952,55815.6967,-751.8679,-1548.7522,24808.8688
55129.0512,27027.145,53122.1777,40924.0276,35821.9296,38154.7362,5680.9634,50146.7586,44584.0806,55814.2662,-743.1507,-1546.4723,24809.8075
55126.6372,27028.2179,53126.8716,40922.8653,35813.0336,38159.0724,5684.6291,50140.1871,44582.0689,55820.2565,-749.7221,-1552.5967,24811.551
55103.9279,27015.2539,53121.9989,40909.2307,35779.1483,38150.6681,5675.5096,50117.4331,44564.9475,55807.2031,-770.0622,-1567.6171,24803.7726
55097.4011,27012.4823,53117.0368,40904.2686,35775.9744,38147.673,5670.2346,50112.3369,44554.8445,55796.966,-777.036,-1571.8639,24797.1565
55109.6946,27017.8914,53115.3828,40909.9907,35798.952,38154.155,5672.4697,50132.3193,44567.7638,55800.0058,-761.6132,-1558.1846,24800.241
55123.5527,27026.8321,53118.0203,40917.2326,35814.0618,38166.2697,5677.9683,50151.2289,44572.7259,55810.0194,-747.934,-1542.449,24809.0923
55126.2796,27028.6649,53120.7919,40917.5903,35801.1872,38164.5262,5680.7399,50143.6293,44568.3897,55807.4266,-752.5384,-1547.4558,24812.4003
55111.1698,27021.0207,53122.1777,40910.2142,35785.3174,38157.6419,5679.8458,50127.849,44553.6375,55800.8105,-765.8601,-1557.4247,24809.9864
55101.2009,27014.0022,53121.5072,40902.3464,35783.6634,38155.8985,5680.6505,50124.5409,44542.6852,55800.274,-769.2575,-1561.6715,24806.3207
55118.1883,27021.6465,53124.9493,40911.6,35807.7139,38159.7877,5686.4172,50137.4602,44555.828,55808.8124,-754.0137,-1550.138,24809.3605
55122.1222,27025.8486,53126.5587,40914.7739,35822.1531,38157.6866,5689.9041,50138.6672,44557.3479,55808.4548,-746.8611,-1544.5501,24814.0991
55110.3204,27030.9895,53129.375,40914.3269,35812.676,38154.155,5694.598,50123.0657,44545.7697,55807.1136,-749.7221,-1547.0535,24816.4237
55089.1757,27031.8836,53126.8716,40904.9839,35793.1852,38147.8965,5694.1509,50086.7218,44523.5968,55796.8765,-765.6366,-1562.8785,24810.6122
55080.995,27027.8603,53127.1398,40895.5514,35788.089,38140.2969,5692.3628,50075.68,44520.7804,55795.5801,-771.9845,-1567.2147,24807.7065
55093.3778,27032.3306,53123.1165,40900.1112,35812.676,38137.9277,5694.6874,50087.5711,44526.4131,55797.1895,-757.724,-1550.6744,24814.5461
55096.9988,27036.041,53115.9192,40907.6661,35821.4378,38137.4806,5697.8166,50078.2281,44529.8553,55792.0933,-746.5929,-1540.3926,24815.172
55082.202,27030.8107,53120.6131,40900.3794,35811.7819,38135.4243,5702.4211,50058.1563,44524.5802,55790.931,-757.5899,-1545.9359,24811.0592
55060.9678,27031.7048,53125.0387,40889.3824,35788.7596,38132.295,5705.8185,50037.0562,44504.866,55790.1263,-767.7376,-1558.0952,24812.1768
55060.4314,27030.9895,53123.2506,40890.9917,35783.5293,38135.3348,5707.1149,50026.0592,44493.9584,55788.8746,-765.8601,-1558.3634,24813.6073
55072.9483,27033.0906,53125.1281,40899.4853,35801.8577,38139.0452,5707.249,50046.1757,44507.9058,55792.9873,-752.1808,-1544.5948,24817.5412
55080.8609,27043.0595,53126.2904,40907.6214,35816.8334,38138.7323,5707.3832,50052.4342,44510.1857,55795.2225,-746.8611,-1537.7998,24821.5646
55072.3672,27045.3393,53123.9659,40907.3979,35807.8033,38134.6196,5708.009,50027.3556,44500.798,55791.1992,-754.6842,-1545.4441,24819.2847
55046.9309,27038.0527,53121.4178,40890.2764,35776.8238,38122.192,5703.5834,49993.8726,44483.2742,55783.5996,-777.2148,-1563.102,24810.5675
55041.79,27035.8175,53123.4741,40887.5048,35774.4098,38120.8509,5700.6329,49980.2381,44477.5075,55783.689,-775.9184,-1563.9067,24809.8075
55058.9561,27039.5279,53120.5684,40904.5368,35797.0297,38131.1327,5699.6495,49992.3527,44484.3918,55787.9806,-751.9573,-1549.9592,24813.0262
55067.9415,27040.7796,53118.6014,40909.5436,35803.1988,38131.4456,5697.4143,49996.6443,44484.3024,55780.7386,-745.2071,-1545.2206,24813.205
55055.514,27034.1635,53113.6394,40902.9722,35788.9831,38124.7401,5695.2685,49976.8406,44477.8651,55773.8543,-751.0185,-1552.0155,24806.9018
55034.3692,27026.3404,53113.5947,40891.1258,35763.9492,38120.1804,5689.3677,49954.0865,44454.217,55766.1206,-766.173,-1566.9018,24799.8834
55032.9834,27026.2063,53114.1758,40890.0976,35763.7256,38120.4933,5689.77,49946.8893,44455.3345,55770.5462,-762.552,-1566.0077,24802.2079
55057.9727,27039.2597,53120.8813,40910.5271,35789.5643,38129.8363,5698.8895,49964.1001,44473.7077,55779.7551,-740.7814,-1548.4393,24811.0592
55068.031,27044.3559,53123.787,40922.15,35795.1522,38133.2338,5700.6329,49980.7745,44486.0011,55787.1759,-730.0526,-1535.3411,24815.8872
55063.65,27042.3889,53126.8269,40922.7759,35784.6022,38133.4573,5703.3151,49967.6317,44478.1333,55783.7337,-737.7863,-1540.3032,24817.4965
55042.1923,27037.0692,53130.0902,40916.875,35760.6411,38128.8081,5705.1033,49937.591,44461.9954,55769.2945,-754.7736,-1553.5355,24815.7084
55044.1146,27036.1751,53136.9746,40917.322,35755.9025,38123.7566,5707.3385,49936.1604,44462.9341,55770.725,-753.1196,-1555.1001,24812.8474
55063.1136,27036.9798,53140.5061,40922.5076,35781.92,38129.7469,5706.6679,49961.9991,44472.6348,55785.9242,-739.4403,-1542.6278,24816.6919
55081.0844,27042.2101,53137.7792,40929.5261,35793.0064,38128.8528,5705.6844,49968.1681,44483.5871,55785.0748,-731.6172,-1536.3693,24821.1175
55067.4051,27041.8972,53132.996,40919.5125,35775.6615,38124.8742,5703.2257,49950.1973,44472.5901,55778.6822,-743.3742,-1546.9193,24817.3624
55047.9591,27031.6601,53128.7044,40904.2686,35745.8889,38118.8393,5694.598,49933.8806,44460.2072,55768.9816,-767.3353,-1563.0126,24807.6618
55052.2506,27027.3238,53128.3468,40903.8216,35744.9502,38111.5973,5693.7039,49920.2013,44460.3413,55767.2828,-769.5258,-1562.5656,24807.2147
55072.3225,27035.2811,53127.8104,40916.9197,35766.229,38120.4039,5698.1295,49935.5346,44469.3267,55773.1837,-746.727,-1547.3664,24815.0378
55079.9668,27035.1022,53123.2059,40922.3735,35780.4,38120.7168,5698.7554,49951.8067,44480.9049,55773.2284,-738.0545,-1543.2537,24817.4965
55072.5907,27029.0673,53120.926,40908.1131,35764.8432,38114.5924,5694.0615,49940.0944,44475.4511,55770.4121,-747.3975,-1545.3994,24812.8474
55067.271,27019.9925,53120.5684,40898.2784,35740.0775,38116.2465,5692.3628,49908.1314,44458.4191,55760.3091,-763.4014,-1557.7376,24809.0029
55066.0193,27020.5736,53124.4129,40903.3746,35741.6421,38120.9403,5699.1577,49900.4871,44465.3928,55761.4714,-762.6414,-1551.6132,24816.6025
55083.9454,27035.147,53132.236,40917.8585,35776.0191,38127.5564,5708.9925,49929.7231,44480.6814,55776.4918,-739.1274,-1532.6142,24828.136
55102.6314,27040.6455,53132.683,40921.703,35789.2066,38133.7702,5709.1266,49954.5336,44491.0973,55781.4538,-726.8339,-1525.9981,24830.1923
55096.1494,27037.5609,53128.6597,40913.3881,35777.539,38124.4719,5701.4376,49945.8164,44485.2859,55773.899,-744.313,-1539.3198,24820.7599
55075.5411,27033.5376,53124.8152,40896.0432,35755.0085,38117.677,5694.8215,49921.453,44465.3034,55766.3888,-764.966,-1558.6764,24813.5179
55067.4051,27032.6883,53122.2671,40890.2317,35748.7947,38118.0346,5692.0052,49926.6386,44468.2539,55767.1934,-767.38,-1561.5374,24811.1486
