FC3,FCz,FC4,C5,C3,C1,Cz,C2,C4,C6,CP3,CPz,CP4
55664.9566,27496.8445,53547.7996,41459.62,36261.8566,38637.3103,5908.2806,50231.0246,44475.0041,55878.1475,-238.8507,-1127.0195,25349.8256
55642.6495,27493.5365,53546.1456,41449.4723,36233.6487,38637.8914,5907.1183,50204.1578,44462.8894,55868.9386,-253.6029,-1135.8261,25344.5953
55656.7758,27492.8212,53547.7102,41453.1827,36253.0947,38642.4512,5907.9677,50210.7739,44472.0536,55877.611,-242.7399,-1126.4831,25349.3786
55680.2452,27495.8163,53551.1971,41466.7279,36277.8604,38646.6533,5911.1863,50232.9022,44484.6153,55882.7966,-223.4727,-1113.6979,25358.2299
55689.9458,27504.1312,53556.6509,41478.7531,36285.6388,38650.5872,5913.6897,50240.5018,44483.8554,55881.8579,-214.3979,-1105.7854,25362.6555
55679.6193,27495.5481,53558.7072,41472.4499,36260.9625,38645.4463,5917.4448,50224.8555,44478.8039,55883.199,-221.8187,-1109.1381,25364.3543
55665.94,27486.9651,53558.6178,41466.1914,36238.7002,38646.0721,5919.0094,50199.0616,44469.5503,55879.3098,-230.4912,-1116.8271,25366.5447
55668.9799,27488.5744,53553.1193,41467.1302,36244.1987,38642.9876,5915.2991,50199.464,44475.4511,55879.6227,-219.4047,-1111.3733,25368.2882
55675.5066,27497.4704,53547.442,41476.5626,36266.5951,38643.5241,5913.3321,50213.0091,44479.6979,55883.0649,-202.328,-1095.7718,25373.2055
55673.8079,27495.7269,53544.0445,41479.1107,36262.393,38643.6582,5913.2874,50212.428,44478.3568,55880.8744,-206.3066,-1093.0449,25371.4174
55674.5231,27485.1322,53543.6869,41475.4003,36250.2337,38640.7524,5912.9745,50194.2784,44465.5716,55876.3593,-220.0305,-1102.7008,25368.467
55665.1354,27475.6104,53539.6188,41463.7774,36229.0889,38635.6115,5906.8501,50165.4893,44455.7369,55868.3574,-229.8653,-1116.8271,25363.192
55677.25,27479.4102,53539.0824,41467.1302,36240.2648,38633.5105,5904.5702,50170.5408,44464.3646,55869.7879,-222.7128,-1112.5356,25361.8062
55694.6397,27483.0759,53539.753,41475.1768,36261.2754,38632.7058,5902.3798,50190.7915,44473.0371,55876.1805,-209.5252,-1099.5716,25363.5943
55697.6795,27484.5958,53541.4964,41474.7298,36265.3881,38635.2539,5903.4526,50200.0898,44476.7922,55881.992,-211.8945,-1096.5317,25366.7235
55692.3151,27484.3276,53546.3691,41468.8736,36245.9868,38637.5785,5903.3185,50180.2415,44469.595,55873.0513,-229.2395,-1110.0769,25360.2862
55682.3909,27476.2809,53548.9172,41447.2818,36224.7527,38630.7389,5899.474,50155.4757,44455.7816,55861.3837,-247.4338,-1126.5725,25352.2843
55695.1314,27484.0593,53554.8627,41457.4742,36237.4932,38633.1528,5907.923,50164.8188,44471.4278,55877.2534,-234.6486,-1113.6979,25360.2415
55715.3374,27487.9932,53556.4274,41469.8124,36257.2074,38634.9857,5909.0406,50189.3163,44487.9234,55882.6625,-216.2755,-1098.8563,25365.0248
55716.0974,27480.9748,53547.2184,41463.1963,36255.4193,38624.838,5900.9492,50184.3095,44478.1333,55877.1193,-219.2259,-1106.3665,25355.9947
55696.249,27474.5822,53540.2894,41450.0982,36235.5262,38616.4784,5893.2155,50163.6118,44465.3481,55870.8608,-238.3143,-1122.8621,25349.0657
55680.3346,27472.9729,53542.1669,41445.4043,36221.1764,38615.6738,5893.5285,50147.8314,44448.629,55865.6752,-249.7584,-1135.5132,25345.5341
55689.0517,27478.2479,53542.3458,41448.9359,36233.2463,38623.0946,5891.5615,50166.741,44457.7485,55867.0163,-242.7846,-1129.3441,25348.7974
55713.1916,27491.9719,53539.8424,41453.9427,36261.3648,38636.4609,5895.853,50194.0995,44481.799,55873.8559,-223.7409,-1110.0769,25356.7994
55719.2713,27497.1575,53540.1553,41462.8386,36268.7409,38641.1548,5903.4079,50204.8284,44485.5988,55873.4089,-219.4494,-1105.7854,25357.6934
55703.1333,27486.071,53538.8589,41463.4198,36252.6476,38636.9526,5903.095,50195.7983,44472.2772,55868.268,-229.3736,-1115.7542,25354.2513
55687.7553,27475.208,53540.2894,41447.9077,36235.1239,38630.4706,5900.9492,50166.4281,44460.0284,55868.3574,-240.8177,-1125.2314,25352.3737
55693.5668,27478.7843,53541.5411,41450.0982,36245.7186,38633.8234,5903.4526,50168.0821,44466.9127,55875.51,-237.152,-1118.4365,25355.95
55702.4181,27479.1867,53540.3788,41456.8484,36265.0752,38634.7175,5902.4245,50179.6603,44477.4628,55876.7617,-223.7856,-1106.4559,25360.6439
55702.5075,27476.1468,53543.6422,41466.5043,36272.6748,38633.287,5906.2243,50182.0743,44477.2393,55874.75,-218.8683,-1101.8962,25364.399
55689.32,27471.8106,53542.0775,41455.3732,36256.0898,38625.1509,5900.9045,50164.6399,44470.8019,55870.0114,-234.5145,-1112.7591,25359.1239
55683.285,27469.4413,53542.0775,41452.2886,36241.1141,38626.8497,5903.3185,50151.3183,44469.8185,55873.6324,-245.1539,-1119.6882,25359.9733
55685.8778,27474.5822,53539.9765,41457.9213,36251.8877,38634.4492,5903.4079,50169.6467,44477.1051,55878.8627,-235.0956,-1107.6629,25361.225
55699.5571,27486.6968,53537.8307,41468.6054,36270.2161,38644.284,5905.6878,50202.4591,44494.763,55883.9589,-216.9907,-1092.8661,25367.9752
55702.9098,27491.5248,53536.7131,41474.6851,36272.4066,38648.7991,5905.7325,50215.8254,44494.9865,55882.0814,-215.2473,-1094.3413,25364.8013
55692.8515,27485.9816,53536.4449,41464.6268,36254.3464,38641.7806,5900.7257,50205.7225,44480.7261,55875.957,-226.1102,-1114.8155,25358.4534
55679.664,27486.2051,53534.5227,41455.2838,36240.8459,38634.4492,5898.2223,50190.7021,44465.8846,55868.8492,-244.3939,-1125.6784,25351.9714
55693.1198,27488.0379,53533.1368,41463.5986,36256.4921,38638.6067,5897.5518,50199.0169,44476.3899,55870.1009,-237.2861,-1115.6201,25352.7313
55703.3122,27488.7085,53525.8949,41465.2526,36266.7739,38638.7855,5890.2651,50210.8634,44484.1683,55870.1009,-227.496,-1108.4676,25350.3174
55705.8156,27491.1225,53523.5703,41461.0058,36265.5669,38638.4279,5885.5265,50214.1267,44477.5522,55865.3623,-231.8323,-1115.4413,25346.2046
55696.4725,27489.5132,53523.168,41454.0321,36254.6593,38638.0702,5882.5761,50199.3746,44472.5007,55861.0708,-247.1656,-1127.9583,25342.5837
55688.0236,27488.3062,53522.1845,41446.7454,36241.2035,38639.009,5877.7481,50175.9946,44458.4638,55857.4498,-260.7107,-1136.2284,25338.4709
55699.6912,27490.2284,53520.4411,41454.792,36251.5748,38645.6698,5875.3341,50184.5777,44464.2305,55859.1932,-253.3793,-1128.7183,25340.6167
55720.0313,27496.2634,53524.9114,41464.8503,36265.8799,38653.5823,5878.2399,50210.5504,44488.8622,55867.9104,-239.4319,-1116.7377,25348.4845
55716.3209,27491.6142,53528.5324,41459.0389,36264.5388,38654.1635,5879.581,50216.6301,44490.7397,55865.9881,-238.5825,-1118.4365,25347.9481
55701.5687,27488.6638,53529.8735,41457.2954,36254.6146,38653.4035,5879.7598,50210.2375,44481.352,55857.9415,-249.8478,-1127.6901,25343.2542
55689.8117,27483.2994,53532.4663,41456.8484,36242.7235,38650.6319,5885.7054,50195.1277,44475.764,55851.5936,-254.4969,-1134.3062,25341.9131
55698.8865,27483.8358,53533.0027,41461.1846,36245.5398,38651.2578,5887.0465,50203.0849,44483.453,55863.1271,-243.7681,-1122.9515,25349.915
55717.4385,27491.3013,53533.0474,41472.137,36272.3172,38655.6834,5888.4323,50230.9799,44491.9914,55870.5032,-224.9032,-1105.383,25355.2794
55715.7397,27490.4072,53530.8123,41471.8688,36279.0227,38651.7048,5887.8511,50235.2268,44490.6503,55872.2913,-218.4212,-1103.9972,25354.1619
55702.0605,27481.3771,53529.337,41462.7492,36262.1695,38646.2957,5888.924,50218.5971,44482.9166,55867.3292,-236.0791,-1116.9612,25351.5244
55690.4376,27475.968,53531.3487,41457.4295,36247.3279,38641.7359,5893.2155,50198.6593,44475.5852,55865.7199,-246.7185,-1124.2926,25350.0938
55691.3316,27477.5773,53532.1534,41460.7376,36264.4494,38641.423,5896.3448,50209.6564,44487.2081,55874.7947,-236.5708,-1117.5424,25352.2843
55717.4385,27485.3557,53539.753,41470.0359,36291.3162,38648.8885,5900.1446,50235.5844,44505.1342,55889.0998,-224.5903,-1104.6678,25359.7945
55726.9156,27493.5812,53546.0562,41476.6967,36291.7632,38649.9614,5907.9677,50248.5484,44515.1031,55898.0852,-218.5553,-1097.7387,25365.1142
55711.4035,27492.0613,53544.6256,41469.5442,36280.9002,38647.2344,5915.5673,50240.1441,44517.5171,55900.4098,-222.1316,-1099.214,25365.3377
55697.2772,27481.4218,53541.0494,41457.1613,36264.5835,38642.7641,5912.0804,50214.7973,44497.4899,55893.8384,-235.5427,-1110.2557,25360.6886
55707.3355,27489.4685,53544.6256,41462.034,36278.1733,38646.4298,5910.4264,50233.4386,44503.7484,55897.2359,-231.0723,-1105.0254,25361.1356
55728.8826,27498.8562,53544.8492,41466.5937,36303.8778,38651.3919,5911.1416,50261.6465,44525.8319,55902.6003,-219.3153,-1095.1459,25364.5778
55730.5366,27504.4888,53547.442,41470.7065,36304.5037,38649.0673,5915.612,50265.5357,44531.0622,55902.3768,-215.0685,-1091.1226,25368.0199
55711.0012,27496.5763,53542.3905,41460.9164,36280.1403,38638.3832,5912.3933,50237.6407,44510.6328,55896.9676,-225.9314,-1104.489,25364.2201
55694.5503,27489.1108,53539.3506,41450.9922,36261.5883,38637.355,5907.2077,50214.1714,44497.3111,55885.9706,-243.7681,-1121.1187,25359.8392
55705.6367,27490.6754,53539.9765,41457.9213,36267.7574,38641.0654,5909.7111,50229.3259,44507.6376,55894.5984,-237.6884,-1115.3072,25362.9684
55722.177,27493.8941,53534.5674,41464.7609,36286.9352,38647.1897,5907.923,50240.9935,44521.451,55900.3204,-222.7128,-1106.0089,25364.4884
55723.6075,27493.8494,53536.8025,41471.3323,36294.4901,38650.9895,5908.4594,50244.5698,44520.4228,55901.6615,-216.2308,-1101.0468,25365.0248
55706.3073,27485.0428,53536.2661,41462.7492,36267.7127,38648.2626,5905.5537,50224.4979,44506.9224,55890.4409,-229.3289,-1112.8485,25356.4417
55684.6261,27481.3771,53531.8851,41451.931,36245.5398,38638.0702,5899.474,50200.2686,44493.4219,55884.7189,-247.8361,-1126.2596,25352.7761
55689.4541,27478.7396,53526.8784,41455.8649,36252.5582,38638.249,5898.0882,50206.7506,44497.5793,55887.4458,-242.7846,-1119.1964,25357.8722
55714.8904,27492.3295,53532.2875,41468.2478,36286.3541,38648.665,5903.5867,50240.9488,44510.0069,55898.9793,-221.4611,-1100.6445,25365.5165
55713.6387,27488.1274,53530.544,41468.516,36291.8973,38650.8107,5899.1164,50240.8594,44506.2518,55894.4196,-219.8964,-1100.421,25363.0131
55690.7058,27479.4102,53527.1019,41460.6929,36267.3998,38641.7359,5890.5333,50218.7312,44501.1556,55885.7024,-237.6437,-1113.2061,25356.2182
55679.3958,27469.3072,53526.9678,41456.6249,36251.1724,38642.7641,5886.51,50197.8993,44491.0973,55882.2155,-253.7817,-1126.8407,25350.675
55685.252,27474.7163,53527.9959,41458.5471,36261.5436,38645.9827,5888.924,50202.5485,44486.9399,55879.9803,-250.6524,-1124.0244,25351.7032
55704.6086,27478.382,53524.9561,41463.2857,36274.4629,38643.1664,5888.2535,50224.6767,44498.1158,55882.6625,-239.4319,-1119.554,25349.4233
55705.6367,27476.0127,53527.5042,41459.0836,36270.7973,38642.63,5885.9736,50229.6388,44503.9272,55882.5284,-235.2297,-1113.9661,25348.4398
55685.5649,27469.3072,53527.5489,41452.8251,36252.6476,38635.9245,5886.0183,50213.1432,44489.935,55872.1572,-248.0149,-1126.036,25339.1862
55681.3627,27467.1614,53524.7326,41451.8863,36236.0179,38631.9906,5883.649,50191.6856,44480.0109,55864.2,-260.0402,-1132.7416,25334.09
55685.5202,27464.5239,53526.8337,41449.7852,36241.0694,38632.0353,5879.1339,50199.3299,44490.5609,55874.3924,-257.8944,-1131.8922,25336.2805
55699.6018,27471.9894,53526.0737,41462.7492,36271.4231,38641.9147,5885.5712,50219.9382,44499.6804,55883.0202,-238.4931,-1116.6036,25341.9131
55703.8486,27474.6716,53525.0008,41459.2624,36274.3735,38647.7709,5888.8346,50227.0013,44499.9039,55882.439,-235.1403,-1116.1119,25345.6235
55690.6164,27467.9661,53526.6101,41444.7784,36252.5582,38638.2043,5887.8064,50215.1102,44492.8855,55878.5051,-249.0878,-1127.6007,25344.8188
55682.7039,27466.0885,53530.4099,41451.7075,36241.1588,38638.7408,5893.0814,50209.8799,44488.6833,55877.7899,-253.9605,-1131.3111,25343.6565
55696.3384,27471.6318,53531.9299,41457.653,36259.8002,38645.0887,5899.0717,50222.4863,44494.8524,55884.3166,-244.081,-1121.2081,25347.501
55725.1722,27483.8358,53535.372,41470.1253,36290.735,38653.7611,5905.4196,50248.7719,44510.3198,55890.888,-225.082,-1104.489,25355.9053
55728.0779,27494.0729,53538.9036,41479.3789,36298.2899,38662.7018,5909.4429,50249.9789,44523.5074,55898.9793,-221.1928,-1099.4375,25358.811
55718.8243,27494.1623,53544.5362,41473.3887,36280.1403,38658.2762,5913.958,50232.8128,44516.3101,55897.9511,-233.8886,-1108.2441,25356.0394
55706.0838,27482.4947,53543.5528,41457.2507,36258.9061,38649.3802,5911.4546,50217.3901,44507.5929,55893.0337,-249.2666,-1121.4316,25353.7148
55713.4151,27486.2945,53542.9716,41458.7259,36271.2443,38657.5162,5914.1815,50233.7962,44517.83,55901.7509,-242.0247,-1111.2839,25359.3922
55736.4374,27494.5647,53545.922,41473.5675,36295.1607,38665.9205,5915.9696,50255.8351,44537.3207,55910.8704,-224.5903,-1096.3082,25365.3824
55737.108,27495.2352,53543.9104,41472.584,36291.8079,38661.4949,5910.784,50257.4891,44544.3839,55913.5526,-225.4844,-1097.0682,25364.399
55725.9768,27486.2498,53541.0494,41459.2624,36268.5621,38648.5755,5903.2738,50236.389,44530.5705,55908.367,-242.7846,-1116.5142,25356.5311
55705.9497,27474.4481,53536.2214,41443.2585,36253.05,38639.5454,5897.9094,50217.3454,44518.7688,55893.5702,-259.8166,-1129.9253,25350.7197
55713.1916,27476.1468,53534.2544,41450.5452,36265.8352,38640.9312,5902.9609,50234.4221,44524.4908,55893.7937,-248.1937,-1121.521,25350.7644
55728.6143,27479.0525,53538.1883,41463.9562,36288.7233,38646.5192,5904.749,50258.0255,44545.0544,55908.7694,-232.5028,-1106.59,25354.8771
55718.2431,27473.2858,53533.8074,41459.5306,36278.6204,38639.8137,5899.6528,50262.5853,44542.0593,55903.8967,-241.4882,-1112.9826,25352.0161
55696.4278,27465.5968,53532.9133,41448.4441,36249.3843,38638.0255,5893.9755,50238.1772,44523.2391,55895.403,-250.1607,-1129.97,25346.1599
55685.5649,27458.7572,53530.3205,41442.6774,36239.5048,38639.0537,5892.6344,50217.4795,44510.2751,55889.7257,-257.3133,-1141.7717,25341.6002
55692.2704,27464.658,53530.544,41445.1361,36253.3629,38637.6232,5893.3049,50237.3725,44520.7804,55892.6761,-246.4056,-1130.5958,25346.2493
55708.6319,27472.347,53527.236,41451.6181,36280.4532,38638.8749,5888.477,50263.4346,44537.6784,55895.9842,-232.771,-1114.6367,25348.9316
55713.3257,27474.2693,53529.7394,41453.0039,36284.0742,38639.9925,5890.8463,50261.1995,44544.7415,55898.9793,-229.4183,-1113.5191,25346.2493
55697.5454,27473.3752,53530.0523,41447.1924,36272.4513,38642.2276,5891.2933,50244.2569,44530.2129,55895.1348,-239.3872,-1123.3538,25347.9481
55678.7699,27468.4578,53535.0591,41434.0943,36256.4474,38639.4113,5887.9405,50229.1024,44518.3218,55888.5187,-256.1957,-1134.932,25344.7741
55684.1344,27467.7873,53533.718,41439.2799,36259.0849,38638.1596,5887.27,50237.7301,44529.7658,55890.9774,-250.7418,-1129.7017,25343.0754
55709.0342,27476.7727,53534.7015,41460.827,36288.0081,38649.2461,5894.7802,50271.7942,44548.7201,55897.0571,-232.771,-1110.3898,25346.4282
55716.4997,27483.3441,53538.5013,41473.1205,36297.4852,38651.6601,5897.82,50285.1158,44563.1593,55899.8287,-227.809,-1105.9195,25348.7974
55705.4132,27478.5608,53539.0824,41467.3537,36277.6816,38646.4745,5898.3564,50273.5376,44556.9903,55896.9229,-242.5611,-1117.4083,25346.6964
55686.2354,27472.3023,53536.2661,41455.3732,36255.3298,38644.8652,5895.6742,50252.3035,44539.1089,55882.5284,-262.2306,-1129.7464,25340.8849
55698.0371,27482.5394,53540.2,41457.8319,36269.9926,38651.5707,5899.5187,50273.8059,44549.7483,55896.61,-254.5416,-1118.9729,25347.6799
55724.2781,27490.2731,53541.6305,41469.8124,36299.184,38658.4997,5903.7656,50304.5619,44565.7074,55905.4613,-235.0956,-1102.1197,25354.4748
55725.9768,27495.1458,53543.1504,41473.031,36307.4541,38661.0925,5904.5255,50302.3267,44555.2021,55903.8073,-233.4863,-1105.9642,25349.6468
55704.385,27484.1934,53541.8093,41453.4509,36280.2744,38651.8836,5896.2107,50276.6669,44542.5957,55895.6265,-250.9207,-1122.9962,25342.226
55692.4045,27476.728,53540.7364,41448.2206,36253.1394,38650.9895,5896.9706,50260.9313,44534.7726,55892.6761,-263.2588,-1132.9651,25339.4544
55710.1518,27483.21,53545.2068,41452.4674,36267.8915,38655.2811,5897.1494,50276.3093,44553.1458,55901.3933,-253.737,-1123.3091,25343.433
55733.7552,27489.5579,53544.6256,41460.7376,36292.5678,38662.6571,5899.027,50300.5385,44565.618,55906.5342,-239.9236,-1113.0273,25343.5224
55736.3927,27490.6754,53547.2184,41462.1234,36295.6524,38662.2995,5902.648,50308.1381,44563.2041,55906.1319,-241.0859,-1117.8553,25344.9529
55714.5327,27484.3723,53549.9007,41452.8698,36277.011,38654.7893,5900.3681,50296.7387,44553.414,55899.6499,-257.358,-1126.8854,25341.8684
55690.6611,27477.7114,53549.096,41442.275,36258.9061,38649.4249,5896.7471,50282.3442,44549.8377,55897.4147,-266.3434,-1135.1109,25340.9743
55698.4395,27480.6619,53546.4138,41448.8912,36271.0655,38653.94,5898.9376,50293.5201,44559.2254,55900.4992,-253.1111,-1122.7727,25345.7129
55726.0215,27478.6949,53546.9949,41472.0029,36297.9323,38664.8476,5905.1514,50313.3237,44575.274,55909.2164,-233.4416,-1103.9972,25353.6701
55725.4851,27471.9894,53547.2631,41474.6404,36303.0732,38662.6124,5906.8054,50312.9661,44575.1399,55912.3904,-234.1121,-1104.4443,25355.0559
55712.6999,27471.9447,53546.5032,41461.7211,36285.7729,38658.7679,5904.1232,50297.1411,44562.3994,55906.2213,-248.1937,-1115.8884,25353.3125
55698.0819,27464.9709,53543.5528,41450.3664,36260.0684,38650.9895,5897.9541,50274.7893,44554.7551,55897.9511,-255.7039,-1122.281,25349.6021
55705.2791,27469.1284,53540.5129,41452.1098,36266.9975,38651.3472,5895.2272,50283.283,44563.1593,55899.6946,-247.0315,-1115.6648,25348.7974
55723.6075,27474.8504,53543.5528,41464.448,36291.7632,38654.387,5898.0435,50312.6085,44575.6763,55910.0658,-233.3075,-1105.5619,25351.2561
55730.0001,27476.4597,53542.4352,41466.1914,36295.2501,38654.1188,5895.8083,50312.2509,44576.7045,55904.7461,-235.0062,-1105.4277,25350.4068
55711.8505,27469.5307,53542.1222,41455.1944,36276.9216,38649.9166,5892.0979,50295.7106,44558.3314,55895.0901,-247.1209,-1118.8388,25345.1318
55694.4609,27458.3101,53541.5411,41444.0632,36258.0121,38645.3122,5887.8064,50278.1868,44545.6803,55892.8996,-259.459,-1133.3227,25338.7392
55702.2393,27456.4773,53539.5741,41447.7289,36273.3901,38645.4016,5886.7335,50292.0449,44555.9174,55896.7441,-254.8993,-1127.0642,25338.5156
55731.8777,27475.0739,53541.5411,41461.0952,36295.8312,38654.9234,5888.0746,50324.3655,44569.9543,55902.198,-238.7613,-1112.4909,25341.8684
55732.6823,27477.3538,53541.9881,41464.0009,36299.0946,38653.8059,5891.8744,50328.8805,44573.2623,55905.953,-233.6651,-1107.3053,25346.0258
55714.7563,27467.1167,53539.8424,41452.7804,36280.5873,38649.4249,5889.7734,50313.1449,44561.4606,55897.6382,-248.5067,-1117.8553,25342.8519
55708.766,27466.7591,53544.268,41449.7405,36264.8517,38652.42,5890.8463,50300.4938,44559.0913,55897.9511,-259.5484,-1124.382,25344.5506
55718.9137,27473.6434,53544.8492,41459.0836,36279.0227,38654.6105,5896.3001,50314.9331,44567.5403,55902.7344,-248.0596,-1110.8369,25352.5525
55739.7902,27476.3703,53546.5032,41467.8901,36297.3511,38660.422,5897.5518,50339.2071,44579.6996,55911.094,-232.4581,-1099.7504,25358.0064
55740.9525,27471.2294,53546.8161,41465.5209,36297.1723,38660.1537,5895.1825,50344.4374,44579.1632,55909.574,-229.463,-1102.9243,25356.3076
55720.7018,27470.0671,53543.5528,41456.3119,36280.5873,38655.594,5894.0649,50319.7163,44569.1496,55899.4263,-243.8128,-1113.7426,25350.3174
55704.8321,27461.1264,53539.2612,41450.8581,36263.7341,38654.0294,5890.0416,50283.9535,44558.242,55888.2952,-260.7554,-1125.7231,25343.2542
55714.1751,27457.0584,53537.786,41451.3946,36267.3104,38656.2198,5888.7452,50306.3947,44564.724,55894.5537,-261.5601,-1124.8291,25344.3718
55725.7533,27463.764,53534.925,41455.4179,36278.4863,38653.94,5884.7219,50339.967,44572.9941,55895.9395,-244.5728,-1113.385,25342.5837
55723.6969,27467.1167,53536.132,41460.38,36280.8555,38654.3423,5884.9007,50338.7153,44568.8367,55894.5984,-238.8507,-1112.5356,25342.4048
55707.9166,27457.3267,53531.7063,41453.3615,36262.9294,38646.9215,5882.1738,50309.2557,44556.7667,55891.5138,-254.0946,-1125.9019,25337.2192
55682.3909,27446.5978,53527.1019,41442.275,36247.2385,38636.7291,5875.2894,50290.525,44545.4121,55881.0979,-274.2112,-1142.4422,25327.3845
55687.6659,27453.0798,53529.2029,41443.4373,36264.2705,38638.0255,5876.0941,50298.9292,44551.6706,55884.7636,-266.701,-1135.3344,25328.7256
55714.7115,27465.5074,53534.0756,41460.0223,36296.5912,38652.9118,5883.8278,50330.1322,44572.7706,55893.749,-245.2433,-1118.4365,25335.6993
55725.2616,27468.9049,53540.8258,41468.2031,36299.3628,38658.5891,5889.8181,50338.8494,44584.617,55897.817,-244.4834,-1115.8884,25339.7673
55710.3306,27472.4811,53546.5926,41461.9446,36274.5523,38653.5823,5893.4838,50325.8854,44572.9941,55893.1679,-253.0664,-1123.5774,25340.9743
55695.802,27470.7377,53548.649,41456.9825,36256.6262,38650.5872,5895.9872,50316.4977,44559.5384,55893.7043,-259.9061,-1130.8193,25340.3038
55701.7028,27470.1566,53547.6655,41460.5141,36267.668,38656.0857,5897.3283,50321.1915,44571.6977,55900.4098,-250.2501,-1120.8057,25346.9199
55722.8029,27476.8174,53548.8725,41468.5607,36289.8409,38666.3228,5900.234,50347.0749,44592.8872,55908.367,-235.0956,-1105.0701,25354.3854
55731.2965,27479.0972,53549.543,41477.6355,36304.2802,38676.247,5905.062,50353.5122,44596.4187,55911.6751,-227.809,-1098.4093,25357.157
55716.1421,27476.5939,53548.1572,41467.756,36287.0246,38674.2353,5904.8384,50344.1244,44580.5937,55903.3155,-244.1704,-1108.8699,25351.7032
55707.7825,27471.4082,53547.6655,41459.9776,36272.3619,38665.0711,5906.716,50327.5394,44576.8386,55905.6401,-258.6991,-1117.6318,25349.7362
55724.3675,27478.382,53551.7335,41465.2973,36285.6835,38669.005,5908.4147,50338.9835,44586.7628,55909.887,-248.909,-1112.6697,25352.5078
55745.1546,27490.6754,53557.7685,41482.8658,36317.1548,38674.5483,5913.198,50366.8785,44605.4041,55911.0045,-225.1267,-1094.6095,25357.5146
55751.1896,27494.7435,53556.6062,41483.3575,36322.2063,38677.4987,5913.3321,50379.2167,44609.4275,55912.2115,-223.6962,-1094.1178,25357.0676
55730.9389,27485.7581,53553.7899,41471.3323,36296.5912,38670.7038,5906.0007,50353.9145,44593.7365,55904.7908,-240.46,-1110.7475,25347.9481
55712.9681,27476.9068,53549.4983,41451.7075,36273.9712,38661.316,5899.7869,50325.7513,44582.3371,55898.3982,-259.8614,-1125.6784,25341.1978
55729.3296,27483.5676,53554.5051,41465.0291,36289.0363,38669.2733,5902.1115,50334.8261,44590.2944,55902.7791,-250.3842,-1115.0837,25348.3951
55754.6765,27493.7153,53555.3992,41484.9669,36303.6543,38671.5978,5907.0289,50358.1613,44603.169,55910.3787,-229.0159,-1097.8281,25354.4748
55748.6415,27493.6706,53558.8413,41480.4518,36303.8778,38667.2169,5906.8948,50363.8387,44607.2817,55916.1901,-228.1666,-1095.3695,25354.5642
55727.9438,27485.4898,53554.8627,41471.2876,36289.3939,38662.7018,5903.3632,50347.9242,44597.3575,55916.5031,-239.5213,-1105.6066,25354.743
55711.3141,27476.5491,53549.3642,41459.5753,36272.049,38656.5775,5899.3399,50329.5958,44581.0407,55909.9317,-251.77,-1114.5473,25352.9549
55723.4734,27474.8504,53551.3759,41465.4315,36279.4697,38657.9186,5901.888,50337.4636,44588.5509,55913.0609,-239.3425,-1106.143,25357.0229
55748.1945,27480.4831,53554.818,41482.4635,36305.8448,38668.2898,5908.8618,50367.9514,44605.9853,55921.1075,-223.3833,-1093.4025,25364.399
55752.7542,27487.8591,53560.2719,41488.2302,36311.3433,38673.6542,5912.751,50389.4538,44615.3283,55927.2319,-217.5272,-1083.7913,25369.9422
55741.4889,27490.3178,53565.9939,41485.9504,36304.5484,38671.8214,5917.2213,50376.4451,44618.4129,55933.1775,-222.0869,-1087.5016,25374.189
55730.626,27489.4238,53564.7422,41481.033,36290.2433,38669.6756,5919.3671,50366.0738,44616.1777,55933.7139,-232.5475,-1098.5434,25374.7255
55738.315,27498.6774,53563.6693,41487.8726,36301.1956,38680.3597,5922.5857,50377.2944,44616.2671,55937.6925,-224.8138,-1093.3131,25375.6195
55750.5637,27507.7969,53563.0882,41497.9756,36319.0323,38687.7805,5922.4963,50405.5023,44625.2972,55944.5769,-213.5485,-1079.8126,25375.9325
55752.486,27501.9407,53558.3943,41495.9639,36314.7408,38686.3053,5918.473,50408.6763,44624.269,55935.055,-218.4659,-1082.8525,25371.2386
55741.176,27497.7386,53553.0746,41483.0446,36291.8079,38676.9623,5913.958,50386.548,44602.1408,55921.0628,-233.8439,-1098.0517,25361.672
55721.2383,27490.6754,53553.4322,41474.0145,36271.5572,38670.1226,5910.6499,50364.4198,44586.0028,55911.4963,-246.4056,-1109.5852,25354.6089
55718.2431,27482.1818,53552.404,41474.9086,36272.5407,38670.6591,5909.7558,50367.9067,44597.4469,55909.9317,-242.2035,-1104.3549,25356.2182
55734.1129,27482.1371,53550.9288,41484.0728,36298.5134,38670.4803,5908.5041,50381.9883,44609.4722,55912.7033,-228.256,-1096.7553,25359.4369
55739.3879,27485.624,53555.3098,41492.9688,36311.0751,38670.0332,5909.2641,50384.2235,44611.5285,55917.9336,-220.7905,-1092.2402,25363.9519
55715.0692,27479.9466,53558.5284,41482.4635,36289.1257,38664.1324,5905.8219,50366.4315,44598.1175,55914.2232,-233.9333,-1098.7669,25360.2415
55704.385,27476.4597,53555.8015,41473.6122,36272.943,38662.7913,5906.3584,50344.7056,44585.2429,55908.0541,-245.3774,-1108.3782,25358.3193
55717.8855,27480.7513,53555.6674,41475.445,36280.7214,38669.318,5906.2243,50354.7192,44591.5014,55909.4399,-239.6554,-1104.8019,25360.465
55739.4773,27491.0331,53561.0765,41488.7667,36302.8497,38676.6493,5909.9346,50388.1127,44615.2836,55916.9501,-220.9693,-1092.1508,25366.7235
55752.6648,27500.242,53567.0668,41496.3663,36314.6961,38686.5288,5913.2874,50399.7356,44612.7802,55918.1571,-216.2755,-1084.8194,25367.1706
55747.658,27503.7289,53566.7092,41488.4984,36297.8429,38686.4394,5914.7626,50387.1292,44602.4984,55919.0959,-227.6748,-1094.2072,25366.0083
55736.8845,27499.7503,53566.9774,41479.2001,36277.2346,38682.9078,5916.9978,50369.3819,44594.8988,55923.2086,-237.7778,-1106.143,25364.4437
55751.0555,27506.6346,53568.3185,41484.6092,36291.2267,38688.5852,5914.7179,50382.9271,44602.8113,55927.3213,-227.496,-1099.7951,25366.5
55767.417,27513.0272,53568.6761,41493.2817,36317.3783,38698.2858,5917.0872,50409.8386,44613.8978,55929.1542,-210.5981,-1086.8758,25373.5632
55766.7911,27512.9825,53565.2786,41492.4324,36318.4512,38701.8621,5914.0027,50419.0922,44613.5402,55930.0035,-208.81,-1086.0264,25374.0549
55745.8699,27504.1312,53562.9541,41484.7434,36288.0081,38693.4578,5908.1912,50394.0582,44593.5577,55927.3213,-225.4844,-1099.3034,25369.9869
55723.0711,27484.2381,53555.7121,41469.4101,36265.2987,38679.0633,5899.3399,50367.2361,44579.0291,55918.8724,-241.8905,-1114.3237,25360.5545
55715.9185,27479.142,53554.1028,41461.0952,36271.8701,38674.28,5896.613,50369.3819,44582.4713,55918.7382,-242.0247,-1108.2888,25363.5496
55731.3412,27488.0379,53555.578,41476.7861,36303.1179,38677.2752,5901.1281,50389.8114,44588.0145,55922.7616,-227.8984,-1092.8214,25371.7303
55730.8495,27485.7581,53555.7121,41476.4732,36305.1742,38671.7767,5901.3516,50389.0514,44584.0359,55927.4554,-226.7361,-1093.8048,25371.7303
55708.1401,27473.9116,53552.0464,41460.38,36279.6932,38662.6124,5900.8151,50362.4529,44569.0602,55918.4253,-241.3988,-1112.0886,25363.3708
55684.492,27466.3568,53547.4867,41446.1643,36259.5767,38651.4813,5901.6645,50329.8193,44552.7881,55903.6732,-260.5319,-1125.7231,25355.95
55685.3861,27470.7824,53547.3078,41452.1545,36273.8818,38655.6834,5905.2855,50317.66,44551.8941,55903.6732,-250.8759,-1117.9894,25357.5593
55703.0886,27479.142,53547.8443,41468.4266,36302.9838,38660.6455,5913.0639,50335.4967,44558.9572,55915.0279,-227.5854,-1100.108,25367.1706
55700.3617,27477.7114,53546.6373,41463.5539,36310.4939,38657.8292,5915.2097,50330.7134,44552.8775,55911.3622,-224.8585,-1099.5716,25364.0413
55679.217,27477.5326,53542.4799,41457.4742,36285.2812,38649.3355,5913.958,50298.7504,44535.175,55905.2378,-237.9566,-1108.557,25356.4417
55664.5989,27473.4646,53541.2282,41449.8746,36270.082,38647.145,5916.2378,50279.7961,44523.6862,55906.7577,-246.495,-1116.5589,25355.3689
55675.4619,27482.6288,53543.1057,41454.2556,36283.9401,38644.9546,5920.2164,50289.5862,44528.5141,55904.5225,-239.1189,-1109.9428,25358.2299
55695.7126,27495.1905,53541.0941,41463.4645,36310.5386,38647.6815,5923.5692,50297.454,44539.9582,55907.4283,-223.2492,-1099.214,25361.0015
55688.9176,27501.6725,53543.7316,41463.7774,36309.0187,38647.2791,5923.1669,50292.7601,44537.589,55905.7742,-223.3833,-1104.8913,25361.0909
55660.7097,27493.3577,53545.4303,41450.9028,36281.3026,38637.5785,5921.2893,50261.0207,44514.0749,55896.3418,-242.0694,-1117.453,25357.5593
55643.1413,27488.5297,53542.3905,41442.7668,36259.1743,38635.6115,5920.127,50229.5047,44497.5346,55893.2573,-247.5232,-1127.1536,25353.7595
55658.0275,27489.8708,53541.1835,41449.6511,36263.153,38638.7408,5922.4069,50237.3278,44501.6921,55899.2475,-235.5427,-1122.8174,25356.0841
55679.4852,27495.9505,53539.4847,41459.9329,36286.22,38643.0323,5924.0609,50259.1878,44508.7105,55902.3321,-220.7011,-1106.4112,25362.1191
55671.3939,27493.6259,53541.5411,41460.5588,36292.5231,38643.4346,5922.7198,50261.2889,44510.2751,55897.5041,-217.5272,-1104.2207,25364.5331
55647.0305,27486.4733,53538.7695,41445.7172,36264.1811,38636.4609,5920.5741,50239.7418,44489.935,55881.9473,-238.0013,-1117.4083,25358.8557
55631.429,27483.5229,53535.372,41437.7153,36244.0646,38633.7787,5916.2825,50211.7574,44476.3005,55874.8394,-249.4007,-1126.4831,25353.983
55637.6427,27482.9417,53534.2097,41447.9077,36252.737,38635.3433,5917.3554,50216.2725,44488.1469,55882.3496,-238.9848,-1115.4413,25357.9617
55652.6631,27485.8475,53532.0193,41460.9611,36264.8964,38634.3598,5914.6285,50232.9916,44496.6853,55882.0367,-225.2162,-1107.6182,25356.5311
55652.7525,27479.6337,53529.4265,41458.1448,36261.4989,38626.8497,5908.9512,50232.7681,44495.0312,55878.1475,-228.0325,-1112.8932,25351.4796
55641.219,27471.3635,53525.2243,41450.9028,36242.2764,38622.424,5904.3914,50206.3036,44476.0323,55870.235,-240.9965,-1124.1138,25348.2163
55619.8061,27461.797,53522.0951,41441.6492,36218.8071,38614.1092,5900.9045,50181.7167,44456.5415,55863.9318,-256.9109,-1135.3791,25341.3767
55627.6292,27464.3004,53523.0339,41441.6492,36229.4018,38619.0265,5903.2291,50189.3163,44465.1693,55860.9366,-246.7632,-1127.8242,25343.1201
55637.6427,27467.4296,53517.3118,41450.9475,36248.3114,38619.6971,5902.335,50206.393,44475.4064,55860.1767,-233.084,-1119.1964,25347.501
55640.8167,27465.0604,53517.7588,41454.9708,36245.4951,38619.8312,5899.3399,50196.8265,44471.8301,55862.4119,-232.5028,-1122.8174,25348.261
55626.6904,27450.487,53515.926,41444.6443,36223.0986,38614.3327,5896.3448,50163.7906,44459.8943,55860.3108,-246.5397,-1129.9253,25345.2212
55612.3853,27441.4122,53513.8696,41443.2138,36210.3134,38612.3657,5894.7802,50140.4554,44448.5396,55854.857,-255.4357,-1134.5297,25341.332
55614.3075,27438.5065,53509.1311,41444.242,36212.191,38609.907,5894.6908,50142.9588,44451.7583,55854.3652,-246.5844,-1129.0759,25342.3601
55627.4951,27436.6736,53501.9785,41447.3265,36236.6885,38612.3657,5893.3049,50153.1065,44462.0401,55858.5674,-230.2229,-1117.6318,25346.2046
55638.0004,27429.3423,53500.7715,41446.9242,36235.4815,38610.9799,5892.1874,50153.777,44459.0896,55859.5061,-232.7263,-1116.8718,25346.9199
55624.947,27419.3734,53495.273,41434.3178,36210.8052,38598.0606,5888.0299,50136.3426,44443.3987,55849.8502,-249.9819,-1133.0098,25340.572
55604.4728,27409.941,53492.9931,41420.0574,36187.6041,38592.6515,5879.4916,50111.0405,44432.8487,55845.5139,-264.5999,-1143.5151,25334.4476
55617.9285,27406.0071,53497.5976,41432.932,36202.9374,38604.8555,5884.1407,50122.9316,44443.1305,55854.1417,-247.702,-1129.7017,25339.9909
55646.047,27416.11,53494.826,41447.9971,36230.7876,38609.7729,5889.371,50144.2552,44455.871,55856.7345,-228.4348,-1115.8884,25344.4612
55648.2375,27418.5687,53491.3391,41443.6162,36227.5243,38605.6602,5886.957,50147.8314,44452.2947,55853.2476,-233.7545,-1120.314,25341.5108
55623.7847,27406.5435,53484.4995,41423.8125,36197.1706,38589.9693,5876.1835,50120.7411,44442.2364,55843.9493,-257.6709,-1143.2469,25332.7936
55605.7692,27395.1888,53484.9018,41413.8883,36182.8655,38585.7671,5871.5791,50091.4603,44426.2326,55839.3002,-269.2044,-1153.8416,25327.9656
55618.4649,27399.4356,53485.617,41422.6502,36196.9024,38593.8138,5872.9649,50092.5332,44430.5241,55841.0436,-262.0071,-1144.2304,25328.2338
55646.5834,27410.1198,53489.6851,41436.6424,36219.0306,38605.5261,5875.3341,50124.0492,44443.354,55842.7423,-242.0247,-1129.4782,25331.7207
55645.0635,27414.009,53492.8143,41433.5132,36224.8868,38604.9896,5876.7647,50141.6177,44447.4667,55847.5703,-239.9236,-1125.6337,25334.7158
55628.702,27409.1363,53491.6967,41423.6337,36208.4359,38597.6583,5872.786,50126.4185,44441.5659,55844.3964,-252.3959,-1139.2236,25329.1279
55615.0228,27409.6727,53489.3721,41416.7941,36192.3426,38593.4561,5874.2166,50107.5089,44438.9731,55840.8201,-267.0586,-1149.1925,25326.8927
55617.4368,27413.8749,53491.3391,41424.036,36196.9024,38600.0276,5879.0445,50119.0424,44446.6174,55847.1233,-254.7204,-1139.5812,25337.5322
55630.4008,27419.4628,53495.273,41427.5676,36217.3319,38601.6816,5881.8161,50138.2649,44472.8136,55859.4614,-239.2083,-1124.6949,25340.7061
55642.873,27425.7213,53497.4635,41437.2236,36223.5457,38603.1568,5887.0018,50142.9588,44471.0255,55856.6898,-236.9285,-1120.8951,25341.4214
55625.5281,27418.524,53496.9717,41422.3373,36200.434,38593.4561,5882.5314,50126.6867,44462.2189,55848.2856,-256.0169,-1132.7863,25336.0122
55611.0442,27413.9196,53498.4916,41413.8883,36181.4797,38589.4775,5877.7481,50112.7839,44451.043,55849.0008,-268.5338,-1141.3693,25335.3864
55633.8876,27422.905,53502.7385,41428.9087,36198.5564,38599.4464,5884.856,50126.1503,44457.4803,55856.6451,-256.0169,-1129.5676,25340.3485
55654.8983,27429.5658,53505.1972,41438.6988,36222.741,38609.2812,5890.4439,50153.9111,44470.3549,55860.4002,-240.9071,-1118.0341,25340.572
55664.7331,27437.2101,53504.2137,41443.4373,36227.4796,38611.6505,5890.131,50162.5389,44471.5619,55862.0989,-237.0179,-1115.0837,25340.8849
55663.1684,27448.7883,53502.515,41439.2352,36208.7935,38614.5115,5890.5333,50149.262,44469.4161,55859.9085,-244.7963,-1126.036,25342.0025
55650.9644,27455.7173,53505.5101,41434.7202,36192.432,38614.1092,5894.199,50141.3494,44467.628,55858.2991,-255.4804,-1132.6522,25339.365
55660.2627,27461.2606,53508.8629,41447.1477,36214.292,38626.8944,5898.1776,50171.8372,44481.1285,55864.7364,-241.0412,-1118.7941,25346.2493
55678.5017,27471.9,53507.3429,41460.5141,36243.0811,38634.3598,5901.7986,50203.8449,44490.8291,55876.6276,-227.5854,-1111.0604,25349.7809
55685.0731,27475.6998,53509.9804,41470.6171,36252.4688,38635.1198,5904.7937,50211.3551,44492.8408,55879.7121,-226.1102,-1108.9593,25348.9316
55670.9468,27477.935,53513.2438,41462.7492,36241.0694,38632.8846,5901.1281,50191.9091,44481.7096,55868.715,-238.2696,-1118.5706,25341.3767
55652.2608,27475.968,53514.4955,41454.5685,36220.5058,38628.8613,5896.8812,50168.9315,44472.5007,55858.5674,-247.4785,-1129.2994,25337.8898
55671.5727,27484.5958,53520.7093,41465.4315,36229.0889,38643.6135,5901.3516,50184.1754,44483.7213,55865.2282,-239.7001,-1118.66,25341.5108
55707.4249,27501.4937,53527.1913,41476.1603,36257.3862,38655.2364,5906.716,50220.0723,44498.2499,55875.6441,-222.5786,-1099.8845,25350.0491
55702.2393,27501.0467,53524.9561,41472.2264,36259.1743,38655.0128,5905.1961,50229.5494,44510.0069,55873.5877,-222.4445,-1101.7621,25349.5574
55685.4755,27490.5413,53523.8832,41460.827,36238.6554,38648.8885,5901.441,50207.2871,44507.1012,55867.6869,-235.3638,-1110.0322,25348.7974
55678.9041,27488.4403,53526.6995,41456.9378,36225.1103,38645.4016,5901.7092,50190.1209,44497.2664,55868.7598,-244.6622,-1116.6036,25347.0987
55688.8282,27492.5977,53526.5207,41462.8386,36240.9353,38651.6601,5905.2855,50204.6496,44501.6026,55870.8161,-237.4649,-1110.0322,25349.8256
55710.7329,27497.6492,53531.4828,41475.1768,36269.4114,38657.0692,5909.3982,50233.0363,44519.6629,55878.9521,-216.9013,-1093.3578,25359.8392
55712.8787,27496.1293,53531.8851,41479.6472,36276.2958,38655.1917,5912.8851,50241.3064,44526.279,55884.8977,-207.7818,-1092.1061,25359.4369
55701.524,27491.2566,53529.8735,41468.0243,36254.1229,38645.1781,5911.0522,50219.6252,44508.6658,55879.0416,-221.774,-1107.7523,25354.5195
55679.217,27483.3888,53523.0339,41454.6132,36235.6603,38632.2588,5905.1514,50192.1773,44492.3043,55872.6937,-245.5115,-1125.1867,25347.7246
55684.8496,27483.8805,53526.7889,41452.378,36246.2103,38632.3482,5908.5488,50201.2521,44504.9554,55882.1708,-238.6272,-1118.7494,25348.261
55706.5308,27486.7862,53530.3652,41462.1234,36266.461,38637.0867,5910.4264,50226.7778,44523.4179,55889.5469,-224.188,-1105.1595,25350.8091
55706.0391,27484.7746,53528.8006,41462.3469,36267.1763,38631.0071,5905.2408,50232.4551,44531.8669,55891.6479,-225.1714,-1104.936,25351.0326
55688.6494,27473.9116,53524.7326,41449.7852,36251.6642,38623.631,5899.5634,50214.9761,44522.2557,55886.6411,-241.8011,-1115.5307,25344.9976
55679.4852,27460.9029,53522.4974,41440.174,36230.1171,38615.4056,5898.1329,50186.6788,44506.9671,55882.0814,-256.6874,-1130.6405,25340.9743
55689.4541,27468.0555,53522.2739,41447.4607,36244.1987,38618.4454,5901.441,50194.0548,44509.6493,55883.7354,-251.0995,-1128.1371,25343.2542
55704.6533,27481.0642,53524.7326,41456.2672,36268.3386,38625.4638,5903.7209,50216.9877,44525.3849,55892.0503,-234.7827,-1115.8437,25346.8305
55709.7942,27485.8475,53531.6616,41462.6151,36276.2958,38634.3598,5911.7228,50227.2248,44533.8339,55899.1134,-225.8867,-1110.5239,25348.708
55698.8865,27479.2314,53530.8123,41462.3022,36264.1364,38633.287,5914.3603,50215.6913,44525.6978,55895.9395,-232.7263,-1117.5424,25346.5176
55689.32,27475.4316,53528.89,41445.9407,36240.8459,38636.0139,5914.0027,50193.3843,44519.2605,55893.7043,-244.7069,-1128.763,25344.9529
55693.1645,27477.2644,53527.4148,41446.0301,36250.2337,38639.9478,5914.6285,50202.8167,44529.4976,55900.1863,-240.3706,-1119.0176,25346.3387
55710.3753,27482.45,53525.4478,41457.5189,36271.4231,38644.0158,5915.5226,50226.0625,44537.5443,55901.6168,-224.4562,-1105.7407,25350.1385
55706.0391,27481.7348,53523.168,41457.2954,36268.115,38639.5007,5914.405,50227.2248,44532.8504,55892.2738,-220.8352,-1105.0254,25351.3008
55689.0517,27480.9301,53530.4546,41453.138,36253.4076,38635.5221,5914.6285,50220.3852,44526.2343,55896.9676,-233.978,-1113.4744,25352.8208
55678.2335,27469.8883,53529.9629,41446.5666,36237.8955,38633.3764,5914.3156,50209.4328,44515.9078,55896.4759,-254.7204,-1126.4831,25349.5127
55685.699,27473.9563,53530.097,41448.2206,36255.1957,38636.595,5912.1698,50220.0723,44518.1429,55895.716,-251.9935,-1121.1187,25349.1104
55701.3452,27485.0428,53533.5392,41461.0952,36275.804,38645.5357,5915.7461,50245.6427,44538.036,55898.0405,-230.9382,-1106.3665,25355.9053
55696.696,27487.5015,53529.9182,41463.7327,36273.4795,38642.4959,5916.1931,50248.906,44544.7415,55893.6149,-227.7195,-1102.1197,25354.4748
55686.146,27489.7367,53534.165,41461.3187,36262.7059,38642.0488,5915.612,50232.6787,44535.4432,55885.5683,-240.46,-1113.8767,25345.2659
55669.5163,27488.3062,53536.8472,41456.3566,36250.2337,38638.9196,5912.0357,50213.1879,44521.3169,55880.6509,-253.6923,-1127.3772,25341.1978
55668.3987,27484.0593,53532.6004,41454.7026,36255.3746,38640.1713,5909.577,50220.0723,44529.9894,55878.6392,-250.116,-1123.9797,25343.3436
55697.8583,27494.7882,53531.9299,41470.2147,36281.839,38654.7893,5913.7791,50250.8283,44543.4004,55886.4623,-230.4912,-1107.8417,25349.5127
55702.2393,27492.6871,53531.1252,41468.1584,36287.3375,38650.6766,5912.0804,50253.734,44534.415,55885.2106,-234.4251,-1110.0322,25346.6964
55690.974,27488.6191,53533.0921,41461.9893,36273.0324,38649.8719,5912.0804,50236.2102,44522.1663,55885.8812,-246.0033,-1118.9729,25346.8305
55675.1937,27485.8922,53535.5955,41451.2157,36250.4125,38647.6815,5913.2874,50221.1452,44509.3811,55880.1591,-252.3065,-1126.2596,25345.1318
55681.2733,27488.4403,53536.2661,41452.9592,36257.8332,38652.8224,5914.9861,50228.2977,44519.5735,55879.9803,-240.013,-1119.7776,25349.0657
55698.663,27497.5151,53538.2777,41468.6501,36287.8293,38659.0809,5915.9696,50250.8283,44538.8854,55883.9142,-225.1714,-1104.8913,25354.4301
55700.0041,27495.2799,53533.4051,41467.5325,36282.5543,38657.248,5910.0688,50253.8681,44539.4665,55881.0979,-229.9547,-1103.3267,25350.9432
55691.5104,27489.1555,53531.6616,41459.1283,36262.9741,38651.1236,5905.9113,50240.2335,44532.1351,55882.1261,-243.3658,-1118.347,25347.054
55679.664,27478.6949,53530.8123,41449.9193,36250.7701,38636.3268,5903.855,50218.2394,44523.2838,55883.0649,-256.8215,-1127.243,25345.7576
55681.1392,27477.2197,53527.1019,41453.5403,36258.5038,38638.8302,5899.9658,50224.632,44528.2012,55881.8132,-251.8594,-1122.2363,25343.1201
55699.4677,27479.9466,53530.1864,41460.2458,36280.0509,38643.3005,5903.2738,50240.9488,44544.1604,55889.1445,-235.185,-1106.903,25350.0044
55697.2325,27480.3489,53530.7229,41450.7687,36290.9138,38638.6961,5904.9278,50250.6047,44539.3771,55891.9609,-230.8935,-1108.2888,25352.1949
55683.9108,27478.1585,53530.6782,41446.6113,36273.7477,38639.5901,5906.9395,50240.5018,44535.622,55888.3846,-240.2365,-1118.347,25347.501
55672.3326,27478.2479,53530.1417,41441.1128,36252.9159,38633.5999,5906.6266,50219.9829,44532.0457,55882.7072,-252.6641,-1128.2712,25341.5555
55685.4755,27476.3703,53528.8453,41440.4869,36258.3697,38635.3433,5903.9891,50225.8837,44532.1798,55885.9706,-251.4571,-1123.1303,25341.6896
55706.4414,27485.624,53532.3322,41450.1876,36282.286,38639.456,5908.0571,50252.6611,44547.5131,55899.2028,-229.5077,-1108.4229,25351.3455
55705.6367,27487.8591,53534.0756,41449.07,36283.1801,38639.8584,5908.6382,50253.1081,44542.1934,55904.7461,-231.7429,-1104.1313,25352.5972
55692.0022,27490.586,53533.0474,41440.174,36271.6466,38636.4609,5906.9395,50230.5776,44526.726,55895.1348,-250.6524,-1113.1614,25347.054
55680.5581,27485.1769,53533.9415,41428.9981,36255.5534,38631.9458,5903.5867,50223.6485,44527.0836,55888.6975,-260.3531,-1123.4879,25342.4495
55693.8797,27484.417,53535.7296,41439.5928,36268.115,38633.9128,5907.0289,50240.7253,44534.862,55892.4079,-248.1043,-1114.8602,25346.4729
55721.0147,27493.9388,53544.5809,41455.5967,36299.7651,38649.6931,5920.5741,50272.1071,44554.4422,55903.7626,-225.1267,-1094.8777,25357.604
55724.8592,27499.2585,53549.096,41462.2128,36304.7719,38650.4531,5922.6304,50277.5162,44561.5947,55906.3107,-218.3765,-1091.1673,25358.8557
55711.8952,27492.5977,53544.8939,41447.5501,36279.9615,38642.9876,5917.5342,50258.2937,44555.4256,55900.9463,-233.4863,-1104.8913,25353.1784
55693.5668,27484.8193,53541.0047,41433.6026,36256.6262,38640.663,5915.4332,50236.1208,44550.5083,55902.198,-248.9537,-1111.2392,25350.8091
55702.4628,27490.0943,53543.6869,41451.8863,36280.2744,38646.9662,5919.3671,50248.5037,44554.3081,55903.8967,-236.9732,-1103.6843,25354.8324
55724.9486,27496.1293,53545.6538,41464.8503,36306.3365,38656.3987,5919.9929,50279.7067,44573.6647,55913.5526,-218.8683,-1088.1275,25359.9733
55725.4851,27496.3975,53546.2797,41463.8668,36309.7787,38656.1304,5917.4448,50285.3394,44576.3469,55914.402,-220.567,-1089.8262,25359.6604
55713.1022,27491.7483,53543.3739,41462.5704,36287.6505,38652.5542,5918.1154,50274.2082,44567.7638,55909.887,-231.1617,-1102.1644,25354.8771
55697.2325,27485.8028,53542.6587,41455.2838,36272.5407,38652.3306,5913.6003,50254.0022,44555.7833,55905.1931,-245.735,-1115.4413,25351.4796
55701.9264,27486.9204,53542.5693,41461.3187,36285.7282,38656.041,5913.6897,50267.5474,44558.7337,55906.7577,-239.4319,-1112.0886,25352.8208
55721.8194,27497.4704,53544.3127,41474.5957,36303.0732,38661.9419,5918.1601,50294.5036,44571.206,55912.4798,-222.4445,-1097.2917,25358.8557
55729.5978,27503.863,53545.2068,41474.5957,36306.7836,38661.0925,5920.3953,50306.6182,44579.8337,55911.2728,-221.9081,-1098.4093,25359.0345
55721.2383,27498.0515,53545.5197,41463.8668,36288.7233,38660.1537,5918.2048,50289.765,44571.0719,55904.7461,-235.0956,-1110.8816,25355.0559
55700.5852,27493.8494,53544.3574,41457.8319,36259.6661,38655.6834,5915.5226,50267.2344,44557.482,55898.8005,-244.9304,-1115.6201,25349.8256
55704.0721,27493.2235,53546.235,41466.4596,36274.3288,38664.3112,5920.4847,50273.94,44570.8036,55903.2261,-232.5475,-1101.1362,25354.5195
55718.2878,27494.4752,53545.8773,41478.9766,36303.6543,38672.4472,5921.2893,50306.5735,44585.1982,55908.2329,-216.7225,-1090.3627,25359.4816
55724.8592,27499.9738,53545.5197,41485.6374,36313.9361,38669.6756,5923.0328,50325.0808,44584.1253,55913.1503,-214.1297,-1091.6144,25361.0015
55706.7096,27489.4238,53538.1436,41465.9679,36288.6339,38659.9302,5918.2048,50298.9292,44565.931,55905.059,-235.185,-1109.8981,25350.9432
55692.181,27482.7182,53528.0406,41459.9776,36267.8915,38658.6785,5916.9531,50280.0643,44550.0612,55897.37,-246.4056,-1119.1964,25345.1318
55697.9477,27483.8805,53527.1913,41470.1253,36285.013,38666.0546,5919.5906,50298.7504,44562.3547,55902.645,-234.5145,-1105.0254,25349.5127
55715.248,27478.9184,53525.7608,41472.7181,36309.8681,38668.6921,5917.6683,50313.9496,44575.1399,55905.1931,-227.7642,-1093.7154,25349.1551
55718.109,27477.5326,53525.0902,41469.9018,36307.9458,38668.558,5912.7957,50311.7144,44576.3469,55908.5459,-229.91,-1101.6279,25348.0375
55691.8234,27466.0885,53521.6928,41455.2838,36279.8274,38653.6717,5904.6596,50288.5133,44556.9456,55900.0075,-248.6408,-1121.1187,25342.0919
55675.3725,27455.3597,53518.2953,41441.7386,36262.6612,38644.4628,5897.06,50266.9215,44546.0826,55889.3681,-268.2656,-1134.5744,25335.744
55682.5697,27458.2654,53517.5353,41454.7026,36275.4017,38650.5425,5896.4789,50276.6669,44559.8066,55891.2456,-258.5649,-1124.4267,25335.9675
55705.5026,27467.1614,53520.7987,41463.7774,36298.4687,38653.4035,5896.3895,50295.8447,44576.0339,55897.1465,-241.8011,-1106.8135,25341.4661
55712.2529,27468.7707,53520.754,41458.3236,36295.4289,38650.5872,5892.3215,50301.3879,44577.9115,55897.6382,-243.0081,-1107.1712,25339.1415
55696.9196,27457.9972,53519.9493,41449.6064,36270.1267,38644.1052,5890.3992,50283.8641,44564.9475,55894.3301,-256.2404,-1120.761,25335.4758
55689.4094,27452.6775,53518.1612,41447.6842,36251.4406,38645.4463,5893.8414,50269.7825,44560.656,55886.6858,-264.0188,-1130.417,25337.2192
55698.4395,27459.0254,53520.4858,41458.1448,36270.6184,38651.5707,5897.6859,50288.111,44565.3051,55894.2407,-252.7535,-1122.8174,25340.6167
55720.523,27465.865,53520.3516,41468.6054,36299.0052,38657.5162,5903.3632,50309.3451,44578.0903,55908.7694,-233.084,-1106.3665,25341.6896
55720.2995,27466.8932,53520.8881,41463.8221,36298.6028,38654.5211,5902.8268,50314.486,44585.7346,55911.3622,-233.9333,-1106.7688,25342.226
55704.2509,27460.7688,53518.6976,41451.6628,36271.7807,38646.9662,5897.1494,50286.7699,44571.5189,55905.6401,-251.5018,-1118.2129,25337.2639
55689.32,27450.487,53520.0387,41441.828,36249.0714,38637.042,5894.3331,50262.9429,44557.5714,55898.1299,-267.6398,-1133.9933,25331.5866
55702.284,27458.3548,53524.0173,41451.171,36265.3881,38647.0109,5895.2272,50281.4054,44573.9776,55910.1105,-253.0664,-1123.2644,25338.8286
55728.4355,27464.8815,53524.7773,41467.2196,36297.1723,38658.4997,5899.5634,50310.0604,44588.3274,55916.9501,-238.5825,-1108.7358,25343.4777
55737.5103,27467.7426,53524.9561,41466.1914,36301.8662,38655.3705,5904.8831,50320.6998,44591.9037,55911.3622,-239.3425,-1105.4277,25343.8801
55721.1488,27464.4345,53529.7841,41460.6929,36281.3473,38650.3637,5910.6052,50304.2936,44586.8969,55907.8306,-254.4075,-1115.0837,25343.9248
55700.1382,27462.7358,53529.7841,41451.6628,36266.014,38650.6766,5912.3486,50288.9156,44573.0835,55905.9083,-263.7953,-1121.4763,25342.0919
55718.7796,27467.7873,53530.2311,41457.1166,36279.1121,38658.0527,5916.9084,50307.2441,44585.6005,55911.9433,-249.669,-1109.5852,25346.5176
55734.6493,27471.0059,53531.1252,41463.2857,36301.8215,38664.0429,5918.1154,50332.5909,44601.8279,55918.2018,-235.4532,-1098.454,25352.9549
55729.2849,27470.3354,53533.0474,41464.6268,36301.9556,38664.7135,5917.2213,50342.2916,44606.3429,55919.23,-234.5592,-1099.3481,25354.1619
55719.8972,27468.4131,53532.6898,41459.5753,36281.1685,38658.0974,5913.3321,50330.8028,44591.099,55912.8374,-246.048,-1110.1663,25351.0773
55705.0556,27455.2703,53530.1417,41451.484,36261.5883,38654.1188,5909.2641,50317.2129,44577.0174,55908.5906,-255.5698,-1120.8504,25345.1318
55709.7942,27458.3101,53528.89,41456.2672,36272.7195,38657.0245,5907.5207,50319.9846,44583.41,55909.4399,-250.0266,-1114.1896,25343.2989
55722.5794,27463.3616,53529.1135,41465.9679,36294.4901,38658.4103,5905.8666,50338.0448,44601.7385,55912.3456,-237.2414,-1104.4443,25344.7741
55727.0497,27466.7591,53529.9182,41469.276,36306.3812,38664.7135,5908.0571,50349.8912,44603.0349,55912.1221,-235.7662,-1103.6396,25348.0375
55711.7611,27462.7805,53530.4099,41460.9611,36290.2433,38660.2879,5906.8948,50338.0895,44589.7579,55904.8355,-251.5018,-1116.3354,25344.5953
55692.1363,27460.4112,53527.8618,41447.863,36268.8303,38657.9186,5904.4808,50316.4977,44581.9348,55897.2359,-262.5883,-1125.2314,25341.2426
55699.0653,27476.4597,53528.89,41467.4431,36287.5164,38667.2616,5907.4759,50327.9865,44588.0145,55902.9579,-248.0149,-1121.2081,25344.3718
55720.0313,27483.1653,53530.544,41484.2516,36311.7456,38674.2353,5911.4993,50365.6715,44609.3827,55918.1571,-231.5193,-1106.6794,25349.3786
55720.8806,27481.6006,53528.3983,41486.6656,36308.974,38669.4521,5912.3933,50371.7959,44616.133,55913.3291,-231.6535,-1104.1313,25346.1599
55703.938,27473.3752,53524.1961,41471.4664,36280.0509,38659.0362,5905.4643,50343.3198,44595.6588,55901.885,-247.2997,-1120.4928,25334.4923
55692.2257,27462.1993,53523.7938,41458.6365,36266.1928,38648.4414,5900.7257,50329.1488,44584.9746,55900.4098,-259.8166,-1130.7299,25330.916
55698.663,27463.9428,53524.062,41461.0952,36276.0723,38655.9069,5899.1164,50345.1973,44594.2283,55906.3554,-257.6262,-1123.2644,25336.6828
55710.1071,27470.6483,53525.0008,41476.652,36295.8759,38662.7913,5903.1397,50368.1302,44602.8113,55912.5692,-242.5611,-1104.4443,25343.1201
55710.3306,27468.9496,53522.8997,41475.4897,36299.5863,38662.7465,5902.9162,50370.1866,44607.9075,55912.0327,-240.013,-1102.4773,25343.1201
55690.6164,27460.6347,53520.0834,41454.9708,36276.4299,38654.834,5897.9094,50344.5268,44597.9387,55905.3272,-254.2287,-1115.0837,25339.4544
55682.525,27455.5832,53520.4858,41444.8678,36248.9372,38647.8156,5896.9706,50325.5278,44583.8124,55900.991,-269.1597,-1126.3937,25334.4923
55688.0683,27459.0701,53520.0387,41447.4159,36258.5038,38648.0838,5896.2107,50337.6871,44586.0475,55906.1319,-262.5883,-1120.2246,25336.9957
55709.4812,27467.6532,53524.2856,41459.3518,36288.9469,38651.3919,5901.888,50367.9961,44602.856,55919.9899,-244.3492,-1110.0769,25341.2426
55707.6037,27462.6464,53522.408,41462.4363,36288.6339,38650.8107,5901.441,50362.4082,44603.8395,55919.4982,-244.7069,-1113.5191,25343.7012
55701.077,27460.8582,53526.8784,41458.6365,36275.8934,38649.8719,5904.9726,50354.0486,44599.2351,55917.3971,-254.631,-1115.3072,25343.6565
55688.6494,27455.9408,53526.7889,41444.6443,36256.0451,38648.9332,5901.2175,50343.4539,44593.9153,55912.7927,-266.3434,-1126.3937,25337.3533
55707.4249,27460.8135,53525.9843,41449.0253,36264.4941,38651.6154,5903.542,50347.7454,44605.3147,55912.1668,-255.838,-1116.4248,25339.7673
55730.8942,27469.8436,53530.3652,41469.4101,36290.9585,38664.7582,5907.5207,50370.0525,44623.3302,55930.0482,-237.7778,-1097.5599,25349.915
55725.3063,27474.9398,53532.6898,41475.9368,36304.5931,38663.4618,5911.7228,50379.9319,44626.236,55932.6857,-233.978,-1095.593,25354.4748
55713.7728,27473.2858,53533.271,41465.7891,36282.7331,38660.2879,5912.7957,50367.6832,44614.5684,55925.712,-243.4552,-1107.4841,25351.4796
55698.663,27463.0934,53530.9464,41452.2886,36259.8449,38650.766,5907.8783,50344.2585,44601.2914,55916.6819,-259.2355,-1117.8553,25346.0258
55702.5969,27460.8582,53534.1203,41453.8085,36270.1714,38652.2859,5905.0173,50346.8513,44613.719,55920.8393,-250.8312,-1111.4627,25348.2163
55727.765,27470.693,53536.8472,41464.895,36293.3278,38661.8525,5908.8171,50380.8707,44630.7957,55927.366,-229.9547,-1097.3364,25353.2678
55733.6211,27472.7046,53535.9532,41467.0855,36299.631,38659.5726,5909.4876,50386.7716,44632.718,55923.8791,-227.8984,-1097.4258,25352.8655
55716.2315,27462.1099,53532.1087,41460.1564,36272.496,38645.7145,5906.1795,50363.2575,44620.9162,55915.7431,-244.8857,-1110.9263,25346.3387
55696.7407,27455.315,53528.3983,41448.8912,36248.222,38638.5173,5902.3798,50338.1342,44608.7569,55908.2329,-257.2238,-1123.8009,25340.5273
55708.4978,27459.2936,53530.544,41448.8465,36264.4047,38644.5522,5905.3749,50352.3946,44611.5732,55911.6751,-246.1821,-1112.9379,25343.0307
55724.4122,27468.7707,53534.4779,41460.5588,36291.3609,38647.2791,5906.7607,50375.1934,44623.2855,55913.5526,-230.67,-1097.0682,25346.7411
55719.0478,27466.8485,53535.2379,41465.655,36286.22,38643.077,5904.8384,50376.2215,44627.89,55915.1173,-230.0441,-1095.8612,25348.261
55702.5969,27463.4063,53538.1436,41458.9494,36269.6797,38646.3404,5907.6101,50359.2342,44615.3283,55913.1503,-242.3823,-1108.0652,25345.2212
55680.9157,27455.4491,53536.4896,41445.7619,36247.9538,38641.1548,5902.4692,50346.2702,44591.1437,55902.1086,-256.7321,-1125.0079,25336.5934
55698.663,27463.2722,53538.1436,41457.8766,36271.1102,38656.3987,5904.8384,50370.9912,44599.2798,55903.2261,-244.9751,-1116.0225,25342.8072
55724.5463,27476.9962,53539.5294,41472.8075,36299.4969,38670.8826,5910.0688,50408.5869,44618.1446,55922.7616,-229.5077,-1098.454,25351.7926
55725.6192,27482.3159,53535.8191,41474.1039,36297.5299,38666.3228,5905.3749,50413.3254,44623.062,55922.7169,-231.9664,-1105.2936,25345.5788
55709.4812,27470.1118,53533.718,41461.7211,36275.5358,38657.4268,5904.9278,50400.5402,44616.4459,55919.6323,-244.5728,-1113.7426,25344.9082
55687.1742,27457.0137,53529.65,41452.378,36252.2006,38646.2063,5903.2738,50369.2925,44604.9124,55915.609,-259.6378,-1124.4714,25342.3601
55688.113,27457.5055,53528.7112,41460.067,36258.7273,38646.698,5901.2622,50363.3022,44612.959,55916.2796,-250.5183,-1118.7941,25340.8402
55705.145,27456.1197,53525.9843,41468.4713,36284.0742,38652.2412,5897.8647,50381.0942,44614.7919,55919.7664,-238.6719,-1107.6182,25341.6002
55700.4958,27448.7436,53524.062,41467.1302,36284.0295,38651.0342,5896.8812,50389.3197,44618.8599,55921.1969,-238.7613,-1108.8699,25341.4214
55682.9274,27443.3345,53520.5752,41457.966,36259.0402,38643.8817,5895.1825,50367.102,44611.6626,55914.6702,-251.77,-1120.9399,25336.7275
55666.4765,27438.4618,53518.2953,41445.8513,36236.2415,38638.3832,5888.2982,50339.8329,44599.4586,55905.953,-266.4775,-1133.0545,25331.229
55675.0149,27435.9584,53516.4624,41450.9028,36252.29,38636.9973,5886.2418,50356.6414,44602.0961,55905.6401,-262.8565,-1132.4286,25332.3019
55691.9575,27445.3461,53512.6626,41467.5325,36278.1733,38640.0819,5889.8628,50382.3012,44613.0931,55914.3573,-244.7963,-1118.5706,25336.4146
55694.3268,27444.005,53507.2088,41469.4548,36277.4581,38641.9594,5890.3992,50393.7006,44615.8201,55918.3806,-243.5446,-1116.8718,25337.1745
55683.2403,27438.9535,53503.1855,41458.3683,36253.3182,38636.0139,5882.9337,50376.4004,44602.5878,55909.6187,-260.666,-1132.2051,25331.4078
55671.8409,27439.49,53503.9455,41448.8912,36230.5194,38631.5882,5881.0562,50360.2177,44580.4149,55898.8005,-278.9497,-1146.4655,25323.0482
55683.9108,27450.1294,53508.3711,41461.4081,36246.0762,38645.3122,5885.4371,50373.3605,44587.2992,55899.9181,-260.8895,-1130.3723,25327.5633
55702.6416,27455.8961,53506.6724,41464.9397,36265.2987,38649.3355,5883.4702,50381.0942,44595.7929,55898.0852,-247.3891,-1118.1682,25332.7042
55699.0206,27452.3199,53510.4722,41463.8668,36264.2258,38647.1003,5881.6373,50384.4023,44597.134,55905.506,-248.2831,-1118.2129,25333.8665
55685.699,27448.9671,53510.7851,41453.0486,36247.8644,38645.9827,5879.7151,50372.377,44584.1253,55906.1319,-259.8166,-1129.6123,25332.0783
55671.3939,27441.0546,53506.2701,41441.8727,36226.8537,38641.9594,5877.0776,50349.5336,44567.1827,55893.7043,-271.976,-1138.4189,25325.8198
55685.7437,27441.9487,53506.0465,41448.8912,36245.0927,38648.3073,5879.8939,50359.9495,44584.7511,55897.5935,-263.8847,-1126.1255,25330.5584
55701.6581,27444.5415,53509.3546,41454.8814,36269.9032,38652.5542,5881.235,50377.965,44597.6704,55904.7461,-249.8478,-1113.4297,25334.3135
55705.145,27446.8213,53513.065,41458.86,36270.4396,38652.1518,5880.8774,50375.0592,44589.892,55909.7528,-246.942,-1112.625,25335.0288
55684.4026,27438.5959,53513.3779,41444.3314,36245.3163,38641.6465,5880.9221,50347.7007,44577.1962,55903.0026,-258.9226,-1128.2265,25331.0949
55663.3919,27431.3539,53512.2603,41437.6706,36229.7595,38634.5387,5883.7384,50320.7445,44560.8348,55899.5157,-269.4279,-1140.5647,25326.848
55667.8623,27440.2946,53515.3896,41441.9621,36245.0927,38639.0984,5888.924,50332.8145,44561.7288,55901.4827,-259.8614,-1127.2877,25328.9491
55689.8564,27449.5482,53516.373,41452.9592,36272.3619,38639.4113,5896.5683,50352.3946,44572.2789,55904.9249,-243.5893,-1111.1498,25335.4311
55684.1344,27447.179,53514.3614,41455.0155,36270.8867,38632.7952,5897.9094,50346.7619,44568.032,55905.3272,-244.9304,-1113.7873,25334.1794
55657.6252,27441.6357,53514.719,41443.8397,36246.5233,38618.9371,5896.6577,50312.832,44548.4519,55898.2641,-258.8779,-1126.5725,25329.8879
55640.772,27435.7349,53518.2506,41434.139,36233.3357,38614.8244,5897.0153,50280.7349,44530.7046,55892.2291,-272.3783,-1136.3178,25330.022
55653.3337,27447.4919,53522.7209,41452.3333,36254.5252,38623.4522,5902.4692,50281.7184,44535.9796,55894.5537,-256.4192,-1125.4996,25334.4923
55661.3803,27457.5949,53526.1631,41460.4694,36274.1053,38626.8497,5908.5935,50293.2072,44548.3178,55906.9812,-240.3706,-1109.4064,25343.9695
55659.2345,27467.2061,53521.7375,41458.5918,36272.8536,38623.7651,5910.6946,50292.0002,44545.8591,55903.852,-239.1189,-1106.3218,25343.0307
55648.5057,27465.1051,53520.0834,41449.8746,36262.6165,38624.078,5911.991,50270.9448,44528.2012,55900.6333,-246.4056,-1113.7426,25337.8004
55633.7535,27461.3053,53519.1447,41439.0564,36236.8226,38619.5183,5910.5605,50247.0285,44517.5618,55897.4147,-261.7836,-1125.7231,25332.6595
55639.0733,27463.8087,53518.3847,41442.4986,36245.048,38619.563,5908.5488,50252.5717,44522.4792,55899.0687,-254.8099,-1118.3023,25335.5205
55648.6845,27474.3587,53519.2341,41455.5967,36267.5339,38624.3463,5910.8734,50276.2645,44532.761,55906.1319,-238.2696,-1107.2606,25342.3154
55649.1762,27480.4384,53520.3516,41459.0836,36269.9032,38621.3958,5914.1368,50270.8107,44532.1798,55900.7674,-237.7778,-1108.9146,25341.3767
55629.2832,27469.1284,53521.0669,41450.0535,36244.601,38610.3541,5911.7675,50245.4638,44512.9573,55893.3914,-251.2336,-1124.6502,25335.2523
55617.3921,27467.9661,53519.7258,41440.8892,36219.9247,38609.6835,5909.9346,50221.9051,44487.5211,55884.406,-264.8234,-1134.7532,25334.4923
55630.5796,27473.3752,53515.9707,41453.9874,36230.3406,38614.0198,5911.9463,50226.5543,44497.5793,55879.3545,-254.8546,-1125.3208,25335.6099
55648.0587,27481.2877,53518.5188,41469.8124,36255.8216,38621.4405,5913.645,50245.0615,44513.5385,55885.4342,-238.2249,-1112.3121,25343.6565
55646.8517,27489.6473,53523.2574,41472.2264,36257.3415,38621.9323,5914.6285,50245.9556,44516.7124,55893.7937,-234.8721,-1107.7076,25349.4233
55630.7584,27487.4121,53523.2127,41463.1516,36238.9237,38621.0829,5913.198,50227.0013,44506.6094,55886.1047,-244.7069,-1119.0176,25342.0025
55615.9168,27471.0953,53519.547,41452.3333,36216.2143,38614.2433,5911.1416,50209.9693,44493.2878,55878.1028,-261.0683,-1130.864,25334.6264
55628.1656,27472.2129,53517.2671,41460.7376,36222.5622,38615.2267,5912.0357,50225.7049,44496.6853,55881.0532,-254.4522,-1123.3538,25341.019
55642.9178,27478.1138,53516.8201,41475.2215,36247.9538,38620.4571,5914.405,50239.563,44516.4442,55882.5284,-234.8274,-1107.3053,25344.8635
55644.9741,27477.7561,53515.926,41472.9416,36245.5398,38626.1791,5915.6567,50231.9187,44514.2537,55877.2534,-234.3804,-1107.4394,25344.9082
55623.6953,27464.9709,53512.8862,41461.1399,36217.8236,38611.7846,5912.2145,50204.3813,44490.248,55865.3623,-253.737,-1124.4267,25336.951
55615.9168,27457.3714,53512.4838,41455.2838,36195.3378,38607.8507,5909.2194,50187.5728,44477.2393,55862.8142,-264.0635,-1134.6638,25330.9608
55629.2385,27462.3781,53514.1379,41457.6083,36205.5749,38611.874,5907.7442,50196.8265,44495.5677,55874.7053,-252.8429,-1126.349,25337.9792
55651.8584,27470.7824,53514.4508,41468.0243,36235.6603,38615.9867,5911.0522,50207.5553,44511.7056,55882.8861,-231.2958,-1112.4909,25342.986
55654.3618,27475.5657,53517.2671,41466.9961,36230.6535,38614.9138,5911.1863,50203.7555,44508.4423,55885.3447,-231.2958,-1111.0157,25340.125
55645.9576,27465.5521,53515.479,41457.4742,36206.0666,38613.2151,5907.6995,50185.74,44493.4219,55881.5002,-250.7865,-1126.2596,25332.6595
55634.6476,27455.9408,53512.9309,41449.4723,36189.0793,38603.3803,5904.4808,50169.0209,44488.8622,55879.0863,-265.4046,-1138.1954,25329.7091
55646.4046,27459.5171,53512.5285,41448.5335,36203.3397,38602.8439,5905.4196,50184.8459,44494.8971,55879.5333,-260.8001,-1131.5346,25333.3747
55669.2928,27467.2955,53514.4061,41453.4509,36224.4844,38609.7729,5907.923,50206.84,44513.2256,55885.1212,-246.0033,-1114.7708,25338.3815
55675.2831,27469.0837,53518.2953,41458.6365,36228.5525,38609.7282,5910.8287,50204.4261,44521.3616,55891.2456,-240.5941,-1108.4229,25342.6731
55668.5328,27467.7426,53514.6743,41455.2391,36212.9062,38606.1519,5908.37,50183.773,44512.9126,55889.1445,-252.0829,-1123.3538,25341.1084
55652.3949,27462.7358,53515.7919,41440.7551,36193.639,38597.9265,5906.4031,50169.1103,44493.9584,55878.5945,-271.1266,-1138.0166,25337.5322
55662.2744,27459.0254,53516.686,41441.7833,36208.2124,38602.0392,5906.1795,50178.6321,44502.2732,55887.9375,-261.2919,-1129.5676,25338.5156
55678.9935,27464.0769,53518.2506,41452.7804,36237.3143,38611.0693,5904.9278,50202.1462,44520.3781,55894.956,-243.1422,-1115.8884,25341.1978
55677.8759,27467.6532,53515.3449,41449.0253,36233.7828,38609.1918,5901.2622,50207.1977,44518.0982,55890.5751,-245.8692,-1117.4083,25336.6828
55654.8536,27467.6532,53508.997,41433.5579,36202.4903,38602.1733,5897.0153,50186.8576,44499.2781,55881.992,-264.2423,-1135.0662,25329.262
55639.9673,27466.7591,53509.9804,41427.9699,36188.6322,38598.1053,5897.4624,50171.3902,44495.8806,55886.7753,-273.4512,-1144.5433,25329.1279
55650.2044,27467.8767,53511.5898,41432.8873,36195.7848,38596.3619,5898.1776,50184.7565,44497.4452,55887.8928,-267.4609,-1138.1954,25332.8383
55669.2481,27466.0885,53510.4275,41444.4655,36218.4495,38604.0956,5901.888,50213.2773,44507.1906,55891.0668,-250.3842,-1121.2528,25332.5254
55674.5678,27468.279,53512.8862,41442.0515,36224.2609,38603.5591,5904.9278,50206.6612,44513.2703,55889.0551,-246.8079,-1117.5871,25330.9608
55662.8555,27465.1498,53511.5451,41436.5083,36199.4058,38596.8983,5904.3914,50180.2415,44503.7931,55881.7685,-262.2753,-1133.4121,25325.3281
55643.5883,27452.4987,53511.2321,41424.3937,36182.1502,38594.6631,5901.3516,50163.1647,44485.9117,55878.5945,-275.1499,-1146.242,25324.2999
55661.9167,27449.3694,53509.4887,41429.5346,36206.3348,38603.4697,5900.4575,50180.3756,44499.6804,55882.6625,-264.4658,-1135.0662,25326.5351
55679.217,27457.0584,53511.6792,41441.8727,36222.6069,38616.702,5903.8103,50203.2638,44514.0749,55886.507,-244.3939,-1118.2129,25330.6925
55674.0761,27460.9476,53512.4838,41444.5549,36223.0539,38619.5183,5903.2738,50205.9907,44510.5433,55885.7918,-242.1588,-1122.1468,25332.0783
55662.9002,27462.9593,53510.1593,41443.3032,36207.2736,38613.975,5897.3283,50197.05,44506.7436,55879.8462,-257.358,-1135.0214,25327.4292
55652.8866,27459.383,53510.5616,41439.6822,36198.0647,38612.4551,5900.681,50185.8741,44502.3179,55873.9454,-266.701,-1139.76,25328.3232
55659.771,27462.6464,53508.7734,41441.2469,36214.9626,38613.3492,5903.2738,50206.0801,44502.5861,55874.1242,-263.7058,-1138.1507,25325.3728
55667.3259,27465.3286,53508.1476,41452.1992,36239.5048,38616.5231,5905.062,50229.5494,44517.8747,55883.7354,-250.8759,-1130.864,25327.8315
55667.0576,27462.6017,53505.1972,41452.5121,36235.7944,38613.2151,5901.441,50220.4746,44512.4656,55879.9356,-251.9488,-1132.071,25326.5798
55664.4648,27456.0302,53507.7453,41445.3596,36213.4427,38612.7681,5900.0999,50209.3881,44497.6687,55864.96,-265.5834,-1140.52,25322.5565
55656.6864,27460.1877,53506.6724,41438.2964,36197.6624,38617.6854,5899.3846,50197.3629,44486.1799,55856.2428,-275.5523,-1146.4655,25319.0696
55666.253,27470.9612,53511.9027,41449.4276,36217.6895,38629.666,5902.6033,50209.9693,44513.9408,55874.9735,-256.2851,-1131.8475,25329.3961
55682.3015,27467.5637,53504.9736,41455.1497,36236.8226,38637.9808,5897.9094,50234.7797,44530.3023,55877.7452,-242.427,-1119.867,25333.3747
55687.6212,27469.7542,53502.2467,41455.7755,36242.6341,38640.2607,5893.9755,50242.1558,44529.4082,55874.8394,-246.3609,-1123.8009,25332.2124
55669.6504,27459.2936,53497.687,41448.2206,36224.4397,38633.9128,5890.5333,50225.8837,44515.9078,55864.5129,-258.6097,-1141.8164,25326.0881
55648.3269,27448.0283,53491.0262,41436.3742,36202.9374,38621.5299,5885.0795,50205.0966,44504.5084,55856.3769,-270.0984,-1156.9709,25318.8908
55652.7972,27442.7533,53485.93,41431.6803,36206.4689,38615.3609,5880.2515,50218.3288,44504.0613,55857.2263,-267.148,-1155.0933,25316.9686
55670.5445,27442.8874,53484.2312,41441.3363,36227.3902,38623.4969,5879.6704,50241.5299,44518.3665,55858.5674,-254.0946,-1146.3314,25315.7616
55666.8341,27436.5395,53482.9348,41436.7318,36229.4018,38622.6475,5879.8045,50244.8827,44519.9311,55859.1038,-254.5863,-1143.1575,25316.5215
55645.5106,27426.973,53481.7278,41420.5045,36210.1793,38605.839,5875.7812,50222.3521,44500.2615,55854.0523,-276.5805,-1155.7192,25312.7217
55632.9936,27420.1334,53480.2973,41414.5142,36187.9617,38594.7078,5875.4236,50198.257,44488.8622,55846.2739,-290.215,-1163.2293,25308.6984
55636.7487,27418.7922,53482.6219,41419.3869,36200.0316,38599.5805,5878.6422,50202.6379,44504.9107,55855.2593,-278.7709,-1151.7406,25314.1969
55649.7574,27422.0556,53483.7395,41423.8572,36232.2628,38605.0791,5880.3856,50226.1519,44526.726,55865.3623,-259.4143,-1133.0545,25318.9802
55659.8157,27425.8554,53486.4217,41431.4568,36238.9237,38605.4367,5883.4702,50237.0149,44530.3917,55866.6587,-251.2336,-1125.4549,25324.0317
55647.254,27422.4132,53483.2478,41422.9631,36215.1414,38598.0159,5883.9172,50215.3784,44514.1196,55864.4682,-263.84,-1139.8941,25317.8626
55635.5864,27419.9545,53485.3935,41411.7426,36197.8412,38597.3901,5888.5217,50199.1063,44506.2518,55866.0328,-275.2393,-1149.9077,25318.3991
55642.0237,27419.2393,53481.9961,41416.2576,36213.7109,38602.531,5889.3263,50202.6379,44506.833,55868.3574,-268.1762,-1144.0516,25320.7237
55651.2326,27419.2393,53475.9164,41421.175,36236.2862,38604.4979,5886.0183,50219.2229,44524.2673,55875.8229,-254.5863,-1130.2829,25322.2883
55648.0139,27419.284,53475.4246,41419.7445,36238.4766,38592.9197,5882.2185,50222.8439,44526.4131,55873.3642,-256.4639,-1132.1157,25318.712
55627.3609,27409.628,53469.032,41406.6464,36211.4757,38584.0237,5876.1835,50198.3464,44510.0516,55860.9366,-277.251,-1147.0914,25308.162
55607.7808,27400.5532,53470.7755,41393.4588,36193.1026,38578.3911,5876.9882,50183.5048,44504.4637,55867.4186,-292.2267,-1157.105,25307.1338
55622.98,27398.7204,53471.5801,41400.7008,36209.1959,38581.4756,5879.0445,50190.5233,44513.2256,55869.1174,-282.1684,-1153.8416,25310.9336
55648.7739,27400.6873,53469.4791,41415.9,36238.119,38584.426,5879.1786,50211.8021,44522.8368,55871.2184,-263.84,-1142.4869,25313.3029
55645.5106,27400.6873,53463.0865,41416.9282,36236.3756,38582.325,5875.2894,50204.6496,44521.2722,55869.2068,-264.2423,-1145.6609,25309.7266
55633.3959,27400.0615,53463.3994,41408.8368,36217.3319,38576.6476,5876.5411,50194.6807,44515.8631,55864.8705,-274.5241,-1152.1876,25309.4137
55623.6506,27394.7418,53468.4062,41405.2606,36196.7683,38580.6262,5884.0066,50177.604,44503.1226,55862.9036,-280.6932,-1156.3003,25314.0628
55635.0946,27393.6689,53469.4791,41413.8883,36210.1346,38593.3667,5888.164,50191.6856,44516.1313,55864.6023,-269.6514,-1144.0516,25319.2931
55648.5057,27395.7253,53467.6015,41416.347,36227.3455,38598.3288,5887.4041,50206.6612,44533.3421,55872.7831,-253.7817,-1133.0992,25324.9258
55643.6777,27400.6873,53467.1098,41411.8767,36232.2181,38595.3337,5886.5994,50215.0208,44538.483,55877.8793,-252.2618,-1134.5297,25323.8976
55634.8264,27403.6825,53470.1049,41408.5686,36216.706,38591.4445,5885.7054,50208.3153,44528.6036,55873.7665,-265.6281,-1142.1293,25320.1872
55628.0315,27401.5814,53476.5869,41411.9214,36206.2901,38594.7973,5887.3147,50195.843,44517.5618,55872.7831,-277.3851,-1149.5054,25318.6673
55628.4785,27400.8662,53478.1516,41415.4083,36217.019,38599.1782,5885.1242,50205.9013,44523.5074,55874.2136,-272.4677,-1144.9009,25321.0813
55644.08,27403.4142,53475.3799,41421.3985,36231.637,38597.8818,5883.5596,50220.4299,44539.1089,55879.578,-261.7836,-1133.0992,25323.5847
55645.287,27397.1558,53476.8999,41421.1303,36237.2249,38600.2958,5881.2797,50225.0791,44539.1089,55877.6557,-258.2967,-1129.7464,25320.5448
55627.9868,27389.6903,53480.0738,41412.7707,36215.3649,38596.8983,5878.8657,50210.9081,44520.9593,55867.5081,-274.4347,-1144.2304,25311.6935
55615.6486,27388.2151,53480.9232,41403.383,36194.6225,38593.0538,5878.6869,50193.6078,44514.4325,55864.647,-290.3938,-1154.691,25309.5925
55626.9586,27391.5231,53484.2312,41410.2226,36210.6711,38599.1782,5884.0066,50213.9032,44532.8057,55874.2136,-279.4862,-1146.9126,25315.9851
55648.7292,27408.0187,53487.5393,41426.6735,36242.6341,38614.288,5886.2418,50236.8808,44546.7532,55877.3875,-259.459,-1132.6075,25321.4389
55659.5027,27419.5075,53495.5859,41442.3198,36263.4212,38622.6475,5893.5732,50243.3181,44557.7502,55883.2884,-248.7302,-1124.6502,25328.055
55646.1811,27416.5571,53491.9202,41429.2216,36238.1637,38615.5844,5892.2321,50227.5378,44547.2002,55877.7004,-264.287,-1133.3674,25323.1376
55634.1112,27407.0799,53490.5791,41417.2411,36214.8732,38611.0693,5888.3429,50208.9858,44531.0175,55870.9055,-279.2627,-1141.8164,25315.9851
55650.7409,27416.8253,53496.1671,41434.8096,36239.1919,38621.664,5892.1874,50220.1617,44533.968,55875.3759,-262.0071,-1132.1157,25319.8743
55667.5047,27431.1304,53497.9105,41445.3149,36263.7341,38621.1723,5893.3049,50239.4736,44546.4849,55881.2767,-245.288,-1120.8057,25326.1775
55673.0032,27440.4734,53499.9222,41442.7668,36264.5388,38617.5513,5893.3944,50247.9672,44558.4655,55887.3117,-243.6787,-1121.3869,25326.5798
55658.4746,27438.0594,53497.7317,41440.7551,36242.4999,38613.528,5891.4274,50225.6602,44545.6356,55881.232,-258.3414,-1137.5695,25322.1095
55649.0421,27427.9118,53495.4965,41428.3276,36221.9363,38610.7564,5887.0018,50202.3697,44530.5258,55874.2136,-271.1713,-1147.9408,25315.9851
55666.1636,27434.6173,53496.2118,41429.7134,36233.4698,38616.3443,5887.5829,50221.8604,44542.0593,55883.4225,-263.527,-1140.4306,25317.2815
55688.9623,27447.0001,53496.927,41439.9058,36259.4426,38622.6475,5890.2651,50256.1033,44558.5996,55893.3467,-252.0382,-1129.2547,25322.1542
55686.5931,27448.9671,53501.1739,41441.9174,36264.1811,38619.4736,5893.5285,50267.4133,44563.4723,55895.6265,-252.7088,-1126.3937,25326.2222
55662.2297,27438.8194,53501.755,41429.4004,36239.0578,38609.9964,5891.6956,50245.1062,44548.6307,55892.0503,-264.5999,-1140.1176,25322.5565
55655.3006,27433.9914,53499.0728,41421.3538,36220.8188,38608.0295,5889.6393,50227.4483,44538.3936,55884.853,-276.6699,-1152.4111,25317.952
55664.5095,27433.2315,53495.273,41421.622,36231.5476,38610.9799,5886.7782,50236.9702,44550.7765,55881.8579,-264.9575,-1144.0963,25318.712
55684.2685,27442.351,53499.2516,41429.9816,36258.4591,38622.6922,5891.1592,50262.8982,44556.9456,55891.2009,-246.7185,-1128.9418,25323.9423
55689.1859,27445.8379,53501.6209,41435.3013,36266.9528,38623.4969,5892.4109,50268.4861,44566.7356,55900.231,-248.1937,-1124.9185,25327.3845
55672.5562,27449.3247,53499.788,41423.7678,36241.9635,38612.1422,5889.5946,50256.148,44550.2847,55891.1562,-268.0421,-1142.174,25318.5332
55660.7097,27452.0963,53501.6209,41419.2975,36229.8489,38606.286,5889.7734,50240.1441,44536.5608,55886.0153,-279.3521,-1147.6725,25312.8111
55672.1985,27452.901,53505.4207,41422.9184,36241.6953,38613.3492,5892.7685,50255.0304,44548.8095,55895.8501,-268.1315,-1135.2003,25315.4486
55693.2092,27457.8184,53503.722,41438.3858,36266.0587,38623.631,5896.1213,50278.4997,44568.8367,55900.3204,-252.5747,-1119.0623,25321.9754
55699.3335,27458.176,53505.6442,41439.7717,36274.15,38627.0285,5901.3069,50293.9224,44576.3469,55902.2874,-249.8478,-1117.9,25325.8646
55681.3627,27452.3199,53510.5616,41432.3509,36259.532,38624.6145,5904.5702,50278.455,44565.0369,55899.4263,-261.6942,-1129.5229,25324.5682
55675.2384,27453.3927,53519.0105,41435.5695,36248.222,38632.4376,5908.7276,50269.872,44561.3265,55901.8403,-268.5338,-1131.9816,25325.9093
55688.3812,27461.6182,53522.408,41440.9339,36261.4542,38638.9643,5910.6052,50282.6124,44574.1117,55908.3223,-252.3959,-1119.5093,25333.5983
55713.8622,27468.8154,53521.8716,41455.7308,36286.3094,38643.4793,5915.3438,50302.7737,44588.1486,55916.2796,-236.8391,-1108.9593,25338.8733
55717.2596,27468.1449,53518.2059,41456.5802,36286.3988,38641.3336,5914.1815,50307.1547,44592.5742,55916.7713,-236.7944,-1106.0089,25336.1911
55703.2675,27465.5074,53521.0222,41450.1429,36264.4941,38640.3054,5913.5556,50295.7106,44579.5655,55912.3456,-248.1937,-1116.6483,25335.0288
55685.5202,27458.5783,53517.7588,41440.7998,36244.4669,38633.287,5909.13,50273.7164,44566.9591,55905.1484,-265.3152,-1131.4452,25330.1114
55692.2704,27461.9311,53510.4275,41446.5219,36256.2239,38639.1878,5909.3535,50279.7067,44581.8007,55904.1202,-249.8478,-1123.0856,25332.0783
55705.2344,27468.7707,53511.1874,41457.0719,36284.7447,38649.112,5912.1698,50303.8913,44595.2117,55907.0259,-233.3522,-1106.3665,25338.0686
55702.9992,27470.7824,53516.1495,41458.5024,36286.3094,38644.7757,5908.1018,50314.6201,44596.6423,55918.1124,-236.4367,-1102.2985,25343.7459
55682.2121,27454.1527,53510.9639,41436.7765,36254.8381,38626.7602,5899.2952,50284.4006,44577.3304,55908.0094,-262.8118,-1122.4598,25332.123
55672.5115,27449.4141,53511.8133,41435.4354,36243.5728,38628.5484,5901.1281,50271.4366,44570.6248,55896.2524,-272.6018,-1135.6473,25323.227
55675.7748,27450.8893,53511.2321,41442.8562,36256.3133,38632.7505,5901.0834,50282.5677,44576.7045,55898.5323,-262.5883,-1130.4617,25325.2387
55694.8632,27454.7786,53511.6792,41455.5073,36282.7778,38639.3666,5903.7209,50309.0322,44580.1467,55905.6848,-245.5115,-1117.8553,25330.2455
55694.5056,27456.4773,53509.9804,41450.9922,36280.7661,38635.9692,5901.441,50323.2032,44577.1068,55903.0026,-248.4173,-1118.7941,25327.5633
55674.7019,27455.4491,53511.6345,41441.381,36265.7011,38629.666,5899.6081,50306.5735,44571.7871,55897.6382,-259.3696,-1129.7017,25323.4506
55662.8555,27450.2635,53512.3497,41430.9651,36247.1491,38623.2287,5899.6528,50285.2052,44559.0466,55893.8384,-267.2821,-1137.0778,25321.1707
55674.7019,27448.7436,53508.6393,41434.6755,36252.6476,38629.5319,5897.9094,50291.0167,44573.307,55893.6596,-264.1529,-1125.2314,25325.5963
55690.7058,27454.4209,53508.4605,41452.9592,36276.7428,38640.3948,5904.749,50318.5987,44587.5227,55900.991,-244.8857,-1109.764,25333.33
55700.7194,27458.4889,53510.7851,41460.6482,36280.0062,38640.2607,5904.1679,50330.3111,44588.9086,55908.8588,-237.9119,-1107.35,25335.7887
55686.8166,27455.8961,53511.098,41453.0039,36262.9741,38632.4823,5902.4245,50307.6464,44582.4713,55907.3389,-253.3346,-1121.2528,25329.1279
55678.3229,27451.1576,53513.6014,41446.7454,36250.2337,38632.4376,5902.1562,50293.0284,44575.8998,55904.5672,-264.3764,-1130.0594,25328.2338
55687.1295,27454.2421,53516.373,41449.3382,36259.1743,38636.9079,5906.5372,50306.5735,44585.0641,55907.3389,-256.1957,-1122.0127,25334.7158
55701.1664,27455.315,53513.7802,41461.0952,36285.1024,38642.0935,5905.509,50326.7348,44598.6092,55910.8704,-239.9683,-1109.1381,25337.5769
55701.1217,27447.4472,53508.7734,41453.9874,36286.6223,38637.6232,5898.8482,50328.21,44596.0164,55908.8588,-237.7331,-1112.9826,25332.8383
55687.1742,27443.8262,53511.9027,41439.2799,36263.4659,38633.6893,5894.3778,50309.7475,44587.3886,55909.9764,-252.2618,-1126.349,25326.3563
55684.8049,27440.7417,53508.3264,41443.8844,36252.1112,38628.6378,5896.5236,50286.6805,44575.0505,55902.645,-260.5766,-1133.4121,25323.0929
55696.3831,27444.2732,53510.4275,41446.209,36261.7671,38639.4113,5902.6033,50301.9691,44590.4285,55911.4069,-254.2734,-1120.9399,25327.6974
55713.8622,27448.2071,53513.6908,41457.3401,36289.5727,38648.9332,5906.0901,50337.553,44612.2438,55922.091,-236.6602,-1102.8349,25335.3417
55711.4482,27447.8942,53511.8133,41459.3071,36290.3774,38644.5075,5901.3516,50342.6939,44605.1806,55916.9501,-241.1753,-1109.2722,25332.7489
55693.9691,27440.7417,53509.2205,41448.2206,36270.7525,38636.0586,5898.5353,50323.8291,44590.5179,55907.6965,-257.2685,-1124.7396,25327.8315
55677.9206,27436.0031,53505.8677,41430.6521,36243.4834,38629.9789,5894.9143,50312.1614,44579.8784,55902.4215,-271.2607,-1137.8825,25324.7917
55682.6591,27438.5065,53506.1806,41436.106,36253.3182,38636.2821,5893.5732,50321.3257,44580.4596,55905.5507,-261.3813,-1131.3111,25328.1891
55701.524,27445.9273,53506.0018,41446.7901,36277.771,38644.8652,5897.6859,50344.1691,44593.8259,55910.2446,-243.3211,-1114.6814,25331.7207
55696.8302,27444.452,53504.5713,41440.3975,36281.6155,38639.1878,5896.9259,50352.5287,44594.7647,55909.2611,-241.8011,-1111.5521,25331.5866
55681.9439,27438.2383,53504.0796,41426.6288,36264.2705,38635.4774,5893.8861,50330.3558,44583.3653,55901.2592,-262.32,-1124.1585,25324.9258
55672.1091,27437.8359,53504.9736,41424.0807,36247.1044,38633.1528,5890.7121,50308.8087,44575.8998,55896.9676,-270.5455,-1130.0147,25318.5779
55690.4376,27449.0118,53507.9688,41434.3625,36261.6777,38645.1781,5893.8414,50330.4452,44586.7628,55901.6615,-255.1228,-1121.7445,25323.8976
55712.9234,27458.2654,53511.3662,41445.9854,36284.2083,38650.766,5893.6179,50354.3615,44597.3575,55906.3554,-239.566,-1110.5239,25330.0667
55724.0993,27467.9661,53513.1097,41462.5257,36293.4619,38654.6999,5898.9823,50366.7891,44608.891,55915.2067,-231.3852,-1105.696,25334.8053
55708.4084,27466.4909,53514.2273,41452.5121,36276.117,38648.1285,5901.441,50349.1759,44597.134,55906.9812,-242.4717,-1116.0225,25331.7207
55687.9342,27458.936,53515.5237,41440.8445,36262.1695,38643.4346,5898.5353,50330.4005,44582.8289,55900.7227,-253.8711,-1122.9515,25330.916
55690.974,27459.7853,53516.4624,41442.1409,36274.0606,38644.8205,5899.4293,50339.2965,44595.7482,55908.6353,-248.6408,-1116.0672,25334.0453
55708.3189,27466.0438,53517.3118,41465.342,36304.5037,38653.8953,5907.5654,50364.0622,44608.5781,55914.6702,-231.6982,-1103.1926,25339.2756
55703.491,27463.5404,53515.8366,41463.5092,36298.4687,38647.2344,5905.9113,50360.4412,44612.1991,55916.4584,-237.6437,-1109.7193,25336.5487
55691.3316,27455.0468,53511.9027,41449.2488,36264.0023,38638.9643,5897.06,50332.6803,44593.4236,55909.0823,-262.1412,-1131.6687,25327.6974
55667.5047,27443.2898,53507.79,41431.2333,36235.4368,38630.2471,5886.51,50315.6483,44573.4859,55895.8948,-276.6699,-1147.4043,25318.7567
55677.4288,27443.8709,53505.1525,41438.8329,36254.7934,38628.906,5886.4653,50339.7435,44577.7774,55898.1746,-268.1315,-1134.9767,25321.6177
55699.6465,27444.8991,53504.4372,41448.0865,36278.3074,38630.6494,5888.477,50355.9709,44594.5412,55903.9414,-255.1228,-1122.5492,25325.641
55698.3501,27438.1936,53501.3527,41444.2867,36271.1549,38629.6213,5884.2301,50349.2653,44600.1291,55906.6236,-258.0732,-1124.1585,25321.0813
55682.3462,27430.8175,53501.5762,41433.2449,36253.7205,38624.1227,5879.581,50331.8757,44587.5674,55897.6382,-268.2656,-1138.106,25315.2698
55673.629,27434.7514,53503.3643,41429.2216,36243.2599,38624.7933,5882.2185,50313.8155,44581.1301,55894.956,-270.7243,-1142.8446,25316.0745
55687.4871,27444.4968,53505.0631,41440.9339,36260.2025,38637.3103,5892.8579,50337.8212,44596.1058,55904.9249,-255.2569,-1122.9068,25329.0385
55711.18,27453.0798,53504.9289,41455.2391,36283.3142,38642.2724,5897.1941,50369.0243,44614.4342,55912.6139,-240.1024,-1109.9428,25333.643
55709.5259,27447.8495,53508.0582,41455.8202,36286.8905,38642.2276,5897.3283,50371.17,44615.1495,55909.6187,-243.5893,-1111.7309,25331.229
55692.8962,27442.0828,53510.5616,41446.2984,36266.2822,38638.249,5895.7636,50347.1643,44603.4819,55901.1251,-260.0849,-1124.382,25326.0881
55677.8312,27436.8972,53508.1029,41437.9388,36245.8974,38634.4939,5893.5285,50330.2664,44587.031,55894.4196,-270.9925,-1138.8659,25320.9919
55684.2238,27439.177,53505.6442,41436.7318,36252.4688,38632.4823,5892.6344,50340.4588,44595.4353,55900.991,-263.08,-1131.8922,25323.4506
55702.2393,27445.4802,53510.8745,41450.2323,36279.425,38638.249,5897.1941,50366.655,44615.1942,55914.1785,-244.6175,-1113.2509,25331.3631
55703.8486,27450.0847,53513.9591,41453.6744,36285.9964,38640.0819,5897.9988,50374.8804,44618.8152,55912.7033,-243.4552,-1116.1119,25329.8432
55692.4045,27447.9836,53509.3993,41446.7007,36268.2939,38638.1596,5897.1047,50362.4529,44607.5946,55906.6236,-257.358,-1129.9253,25326.3563
55685.699,27446.1955,53507.1641,41438.4753,36248.2667,38635.388,5894.3331,50345.6444,44595.8823,55903.3602,-266.9692,-1141.9952,25320.8578
55692.628,27450.0847,53507.4323,41436.9553,36253.3182,38640.5736,5890.8015,50360.3965,44601.3361,55907.1153,-264.5999,-1141.2799,25320.1872
55714.2198,27461.7523,53509.5781,41454.6132,36281.6155,38651.3472,5895.1825,50389.722,44620.4692,55915.3855,-245.288,-1120.6269,25326.4457
55716.3209,27462.4228,53511.7686,41455.9096,36282.8225,38649.0226,5895.6742,50395.6228,44624.8502,55919.4088,-237.7778,-1113.1614,25330.1114
55697.1431,27453.4822,53508.8181,41443.1244,36260.6049,38641.2889,5892.8579,50375.8639,44611.4838,55909.0376,-251.9041,-1125.0079,25327.0268
55680.0216,27443.1556,53506.1806,41436.2848,36241.0694,38636.0586,5889.9522,50356.1497,44594.2283,55901.9297,-265.8069,-1135.2897,25322.1095
55686.5931,27442.8874,53506.9853,41441.6045,36257.2968,38639.2325,5890.7121,50370.8124,44599.6821,55905.7295,-256.8662,-1128.6288,25321.8859
55701.9264,27445.7484,53509.1311,41454.8367,36283.3142,38646.251,5891.9191,50389.0514,44617.7423,55914.7149,-236.7496,-1113.832,25325.9093
55701.9264,27445.972,53510.2934,41454.5685,36275.804,38644.3287,5891.0698,50387.0845,44617.787,55916.369,-236.7496,-1111.7309,25327.1163
55697.7689,27444.9438,53514.0932,41452.9145,36263.6,38641.0654,5897.4624,50380.2449,44611.4391,55916.1901,-248.3279,-1122.5939,25326.5798
55681.7204,27443.4239,53514.4508,41446.3431,36246.3892,38640.0819,5896.3448,50367.9514,44600.7103,55913.0162,-258.1626,-1129.1206,25323.227
55689.6776,27448.6542,53512.6626,41448.0418,36255.6428,38640.1713,5894.1096,50379.8872,44603.4819,55913.7762,-253.3346,-1121.1187,25321.573
55705.3685,27460.0089,53515.2107,41463.3304,36281.7049,38650.6766,5904.4808,50416.097,44628.9629,55927.9919,-235.6321,-1104.936,25330.0667
55714.3092,27470.2907,53517.2671,41466.3255,36287.9187,38655.8622,5909.6664,50436.2136,44637.0095,55928.0813,-234.5145,-1100.4657,25329.9773
55696.2043,27461.8417,53518.9211,41451.2604,36261.3648,38644.3734,5901.2622,50408.5869,44621.6315,55916.5031,-257.0897,-1119.7776,25322.2436
55676.2666,27451.8281,53512.9309,41435.8377,36239.4601,38634.6728,5893.3049,50379.4849,44601.0232,55909.5293,-271.7525,-1134.5297,25318.3991
55686.906,27453.348,53510.7404,41442.6327,36245.4057,38632.6611,5895.0931,50381.1389,44603.2584,55914.0444,-262.2753,-1124.6949,25323.1376
55707.4249,27458.3101,53514.5402,41454.7026,36268.1597,38637.3997,5899.2952,50406.3517,44623.1514,55915.0726,-244.3492,-1107.5735,25327.2504
55708.3189,27461.35,53517.8035,41457.8766,36272.9877,38638.2937,5901.3516,50403.8036,44629.097,55915.162,-243.0528,-1106.59,25325.7751
55691.4657,27455.0468,53516.2836,41451.4393,36250.5466,38630.4706,5894.9143,50379.6637,44613.8531,55909.0376,-257.4474,-1120.1799,25318.6226
55677.7865,27448.073,53512.2156,41439.5481,36234.9898,38626.0897,5892.3215,50352.7969,44599.5033,55901.3486,-270.7243,-1133.9933,25313.8393
55689.1859,27454.0633,53512.3497,41444.9573,36252.6923,38632.9293,5897.2389,50366.3421,44607.1029,55907.6965,-257.6709,-1125.3208,25319.0696
55698.663,27457.8184,53509.444,41451.3499,36270.6184,38637.042,5893.8414,50384.0894,44617.3847,55913.0162,-246.4056,-1112.0886,25322.333
55705.6367,27462.1993,53513.6908,41462.7492,36283.9401,38647.5027,5896.7918,50390.0349,44631.2428,55918.2912,-239.5213,-1107.4394,25328.9491
55689.8117,27462.3781,53513.3779,41454.7026,36262.7059,38647.7709,5894.2437,50371.17,44620.2904,55913.0162,-252.6641,-1116.693,25328.0103
55672.0644,27457.5949,53514.0038,41445.002,36241.2483,38644.9546,5889.2816,50352.9757,44605.7618,55909.0376,-264.734,-1127.4219,25325.5069
55685.0731,27449.7271,53508.684,41443.9738,36253.7205,38646.4298,5887.4935,50371.3936,44611.7967,55907.473,-260.666,-1124.5608,25326.4457
55714.7563,27452.6775,53506.6277,41455.9543,36273.9265,38651.7495,5888.164,50401.3449,44625.3866,55915.609,-245.0198,-1110.3898,25333.643
55719.5842,27455.4938,53505.6442,41457.6083,36273.3454,38654.7893,5887.0912,50404.6977,44629.544,55918.1124,-244.5728,-1113.2956,25335.9228
55698.8865,27451.247,53504.7501,41449.9193,36258.4591,38654.4317,5890.0416,50379.8872,44619.8434,55910.0658,-255.4357,-1123.8456,25330.9608
55680.8263,27442.4851,53503.9902,41439.5034,36239.1025,38646.8321,5891.0251,50369.3819,44605.1806,55902.7791,-271.1713,-1131.1769,25328.2785
55689.8564,27443.0662,53505.2419,41442.9903,36244.8245,38650.8107,5888.9687,50382.7929,44612.3779,55906.1319,-260.7107,-1123.5774,25331.1396
55703.3569,27453.1692,53507.6559,41455.2838,36272.9877,38655.8622,5892.0532,50411.135,44618.5023,55914.402,-242.9187,-1110.3898,25335.9228
55701.7475,27452.7669,53509.5781,41458.1001,36271.1996,38648.6202,5892.6344,50405.2788,44612.5567,55908.367,-244.1704,-1109.0487,25333.5088
55678.3676,27449.6824,53511.7686,41446.7901,36251.8877,38640.2607,5891.6509,50388.1574,44598.2516,55901.438,-255.2122,-1119.6882,25327.8762
55663.1237,27447.2237,53507.1194,41434.9884,36235.9285,38633.1528,5891.5615,50370.1866,44579.9679,55892.3632,-268.7126,-1133.4121,25320.6342
55672.5115,27449.9953,53505.9571,41439.1458,36246.5233,38632.4376,5893.4391,50371.93,44580.2361,55896.7441,-266.2987,-1131.8028,25323.6741
55696.9643,27462.5123,53511.7686,41454.9708,36276.3852,38639.8137,5898.0882,50395.8464,44592.8872,55906.1319,-250.0713,-1117.6765,25331.8548
55693.1645,27458.0866,53513.8696,41454.5685,36283.9848,38636.7291,5903.3632,50386.6374,44588.0592,55906.4448,-249.5348,-1112.2227,25334.8053
55668.6223,27450.9788,53510.5616,41439.8611,36258.5485,38621.2617,5901.2622,50347.1196,44569.8202,55894.2407,-268.2209,-1123.3985,25326.8927
55651.2326,27452.5881,53507.477,41439.1011,36236.912,38612.8575,5899.1164,50319.7163,44556.5879,55885.5683,-278.458,-1134.7532,25322.1095
55652.082,27457.9078,53504.3925,41442.0962,36251.3512,38612.6339,5899.6528,50321.6833,44555.6939,55886.5517,-264.9575,-1127.4666,25324.0317
55659.2345,27457.3714,53500.995,41447.6842,36273.4795,38612.4998,5900.3234,50328.5676,44559.896,55892.0503,-254.8546,-1116.6483,25327.2057
55657.6252,27465.5074,53507.1194,41454.7473,36281.4814,38614.0198,5904.4361,50330.1322,44564.3663,55896.5206,-250.7418,-1113.832,25332.1677
55632.3677,27464.211,53508.237,41438.3858,36266.1928,38607.8507,5899.8764,50305.143,44546.6638,55887.8481,-263.0353,-1128.8077,25326.0434
55613.3687,27455.7173,53506.2253,41431.1886,36236.3756,38606.286,5900.234,50275.7281,44532.9845,55884.2272,-270.009,-1140.6988,25322.0648
55636.2569,27460.59,53505.5995,41442.1856,36244.8692,38613.1257,5908.1465,50279.7514,44533.2527,55885.7918,-258.6097,-1129.8358,25326.9821
55655.9712,27472.2576,53509.444,41456.7143,36271.7807,38624.838,5915.4779,50304.7854,44545.1885,55892.5867,-239.7895,-1111.1051,25337.4428
55650.7856,27473.554,53510.204,41454.7026,36270.9761,38623.3628,5913.7791,50310.865,44543.4898,55897.37,-241.8458,-1110.211,25336.951
55636.5252,27471.453,53512.2156,41453.9427,36249.9654,38617.7301,5915.2097,50298.7951,44532.0457,55894.9113,-253.9158,-1119.3305,25332.436
55622.7118,27472.8835,53512.7074,41442.7221,36233.6487,38615.8079,5912.9298,50276.7563,44520.244,55890.7092,-263.4823,-1128.2712,25329.5302
55628.8362,27472.7046,53510.7851,41442.0068,36234.9451,38618.1325,5912.3933,50275.6834,44522.7027,55889.3234,-254.8546,-1123.5774,25331.229
55647.2987,27472.8835,53511.6792,41451.2604,36253.5864,38624.2121,5913.3768,50285.3841,44526.6366,55892.6314,-242.6952,-1113.7426,25333.9112
55647.9692,27472.4811,53511.8133,41463.9115,36255.9557,38625.2403,5913.8685,50276.8457,44532.5375,55895.3583,-238.3143,-1111.3286,25337.711
55636.8828,27461.8417,53507.5217,41450.8134,36228.3289,38613.6174,5906.4478,50234.4221,44512.8679,55884.2272,-255.2122,-1125.142,25331.6313
55614.6204,27449.7718,53504.9736,41431.3674,36206.7372,38604.4085,5897.82,50197.7652,44500.9768,55874.3477,-274.2112,-1143.4257,25326.4904
55622.6671,27454.5997,53504.0796,41435.346,36218.3601,38607.4483,5897.3283,50213.2326,44506.4753,55874.5265,-265.7175,-1139.0001,25327.9656
55644.3483,27461.037,53506.0018,41454.0321,36239.3707,38612.3657,5901.5751,50238.2219,44518.1429,55882.3943,-244.1704,-1120.761,25335.1629
55651.0538,27458.2654,53506.8512,41453.4956,36229.9383,38608.7447,5899.2058,50228.8789,44513.8067,55886.2835,-243.634,-1116.4248,25335.3864
55640.7273,27450.9341,53508.0582,41439.0117,36203.8761,38598.4629,5897.8647,50203.2638,44509.694,55883.6907,-257.7603,-1121.6998,25331.676
55629.0597,27444.3626,53503.1855,41426.4053,36187.5147,38594.7078,5895.8083,50188.7798,44498.6522,55874.6159,-271.9313,-1130.6405,25325.0152
55643.0519,27453.2139,53502.3808,41433.2449,36207.4524,38600.4746,5899.2952,50200.4474,44504.0613,55883.3778,-258.1179,-1120.2246,25330.022
55669.2034,27459.2042,53505.9571,41442.9903,36228.2842,38605.4367,5902.1562,50219.7593,44517.8747,55890.6198,-241.4882,-1108.8252,25334.3135
55667.5941,27459.2936,53508.4605,41445.4043,36224.6186,38601.1451,5902.2903,50215.2443,44518.4559,55884.9871,-242.7846,-1110.0769,25331.676
55654.7642,27457.0584,53511.7239,41440.174,36201.0151,38592.6515,5898.8929,50188.1987,44506.6541,55879.4439,-254.8993,-1121.3869,25325.1493
55650.3832,27454.9127,53516.5966,41436.553,36188.7664,38592.0256,5899.3846,50172.6866,44499.9933,55877.924,-258.4308,-1128.8077,25324.3446
55661.3803,27460.7688,53516.3283,41440.1293,36202.0433,38599.8487,5901.0834,50178.7215,44503.9272,55880.6062,-248.5067,-1119.7329,25329.4408
55683.9556,27469.7542,53515.166,41453.6744,36229.7148,38607.6272,5905.4196,50210.461,44510.0963,55881.9026,-232.9499,-1105.7854,25332.8383
55682.7933,27469.1284,53517.8035,41453.4062,36236.6885,38610.667,5906.6266,50206.6165,44502.8543,55881.5449,-233.8886,-1108.6464,25337.0851
55667.4153,27459.5171,53512.2156,41436.2848,36213.4874,38600.3852,5897.0153,50189.0033,44493.4219,55875.5994,-254.184,-1126.1255,25329.0385
55662.9449,27458.2207,53514.9425,41425.8242,36194.5331,38597.1218,5896.4342,50181.2696,44493.4219,55873.1854,-260.8001,-1129.8358,25326.6692
55673.4949,27465.0604,53515.5684,41435.1225,36215.6779,38607.0013,5902.4692,50198.704,44507.1906,55882.6625,-250.8312,-1118.3918,25332.6148
55687.9342,27470.8718,53514.0932,41444.3314,36237.5379,38616.6573,5906.5819,50225.8837,44522.8368,55888.6081,-237.1073,-1107.0371,25333.0171
55687.1295,27474.2246,53515.0766,41436.6871,36233.0228,38614.1986,5906.716,50230.1753,44527.5307,55898.0852,-237.0626,-1104.5784,25336.7722
55666.7447,27465.9544,53512.9756,41422.1138,36214.6944,38605.4367,5905.3302,50216.6748,44523.9544,55894.4643,-252.6194,-1116.1119,25336.951
55657.9828,27456.3879,53511.0533,41421.935,36199.227,38605.7943,5907.2077,50199.7322,44516.176,55886.6411,-259.9955,-1126.5725,25333.33
55670.321,27458.4889,53514.9872,41432.7532,36216.9296,38608.3871,5911.3204,50216.5854,44523.2391,55890.6645,-252.3959,-1117.6765,25336.7722
55680.9604,27463.9428,53514.5402,41447.6395,36238.2531,38611.114,5912.1251,50237.3725,44530.0341,55898.6217,-236.7944,-1103.2373,25342.4942
55674.7913,27460.9476,53510.9192,41449.0253,36229.4465,38606.1519,5909.577,50225.3473,44523.3732,55892.6314,-232.5475,-1106.4112,25338.0686
55665.6718,27455.8067,53508.7734,41443.6162,36214.2026,38601.5028,5905.9113,50194.9936,44519.8864,55883.199,-243.3211,-1119.6434,25333.4641
55659.2345,27451.7834,53509.5334,41439.7269,36202.2221,38600.8769,5903.542,50190.2997,44515.3713,55879.1757,-255.0334,-1125.7231,25330.0667
55665.2695,27452.454,53506.6724,41442.4986,36207.6759,38605.1238,5897.82,50210.4163,44518.0088,55878.2816,-252.7088,-1121.4763,25329.262
55681.5863,27459.6065,53502.0679,41447.0136,36226.362,38613.1704,5894.1543,50233.1257,44532.4481,55885.0765,-237.9119,-1112.9379,25330.6031
55675.4172,27462.6911,53501.8444,41441.2916,36230.6535,38614.6009,5893.6626,50241.5299,44535.4432,55889.7704,-242.0247,-1111.1945,25328.7703
55644.7506,27463.1828,53500.8162,41428.2382,36204.7702,38601.8604,5892.3662,50224.4085,44520.4675,55882.5284,-262.7671,-1126.8854,25320.8578
55629.3726,27464.0769,53501.5762,41425.2877,36196.5448,38593.1432,5891.1145,50206.0354,44518.7688,55876.717,-275.1052,-1137.346,25316.298
55648.6845,27471.7659,53508.1476,41442.6327,36219.0306,38603.3803,5897.0153,50220.6981,44535.8902,55881.0979,-260.4872,-1126.5725,25322.7353
55678.3229,27484.5511,53511.6345,41456.7143,36246.3444,38619.6971,5901.9327,50248.7272,44543.5792,55889.3681,-243.2317,-1118.7494,25329.7538
55685.3414,27483.657,53506.1806,41458.5024,36249.2502,38627.5202,5897.6859,50248.5484,44538.7065,55883.199,-244.4834,-1116.2013,25331.4078
55673.4055,27478.1585,53507.0747,41450.8134,36228.9548,38631.9906,5895.9872,50228.4318,44534.1915,55882.5284,-260.7107,-1123.5327,25332.3019
55664.3754,27479.8572,53505.3313,41444.9573,36211.6545,38631.0965,5894.3778,50214.9314,44527.2624,55879.7568,-269.562,-1131.6687,25326.9374
55678.457,27478.0691,53505.5548,41450.4111,36227.7925,38636.1927,5893.2602,50234.1539,44529.9894,55879.7568,-258.2967,-1122.9068,25328.6809
55702.731,27483.3888,53510.4275,41458.1001,36252.3794,38641.6465,5896.2107,50263.7476,44544.518,55887.4458,-240.9518,-1111.2839,25334.537
55694.9079,27481.8689,53513.0203,41459.0836,36262.4824,38640.4842,5897.9094,50272.8224,44548.8095,55888.6975,-239.2977,-1110.0322,25333.3747
55674.7913,27472.1235,53510.8298,41448.4441,36240.6671,38628.906,5894.2884,50260.7524,44544.6074,55886.5517,-256.4192,-1121.6551,25329.0385
55661.1568,27461.4841,53507.5217,41433.3791,36226.5408,38620.2782,5890.0416,50243.1393,44534.2809,55882.2602,-271.529,-1134.1721,25327.8315
55673.2714,27465.5521,53505.0631,41433.1108,36233.6487,38622.6922,5891.8297,50254.3598,44544.965,55885.5236,-264.0188,-1126.4831,25329.6643
55688.2918,27471.5424,53504.8842,41436.2401,36246.8809,38622.6475,5890.7568,50272.1518,44559.9407,55892.0503,-251.1889,-1116.246,25330.7372
55689.4988,27471.5424,53503.8561,41436.4189,36250.5466,38622.5581,5889.4157,50272.1071,44558.3761,55889.6363,-252.8876,-1119.107,25329.6196
55683.3744,27462.7358,53509.2652,41437.4471,36238.3872,38619.563,5895.2272,50255.8351,44548.2731,55887.5799,-263.1247,-1123.4432,25330.022
55663.839,27453.661,53510.4275,41421.175,36218.4495,38607.8954,5897.0153,50229.5941,44534.1021,55882.6625,-273.2277,-1132.7416,25325.6857
55671.6621,27460.4112,53505.8677,41422.7396,36231.8605,38608.3871,5897.1047,50238.9371,44534.9067,55885.7918,-262.4094,-1123.8009,25325.954
55686.7272,27463.5404,53510.0698,41429.311,36262.2589,38615.8973,5901.7986,50263.1664,44550.1506,55896.2524,-246.048,-1108.7358,25332.7489
55690.7505,27464.4792,53513.9143,41430.831,36260.739,38609.5494,5899.9658,50254.0916,44554.4422,55894.0619,-245.1539,-1106.5006,25333.33
55674.3443,27462.0652,53511.4557,41419.0739,36241.8294,38599.804,5900.3681,50231.2481,44544.9203,55895.1795,-261.7389,-1120.3587,25326.6245
55658.6981,27459.7406,53508.8629,41403.5171,36218.4048,38593.5903,5899.7869,50212.3833,44538.6618,55893.0337,-276.5357,-1133.3674,25323.5847
55669.4269,27461.1264,53510.9192,41405.3947,36234.4533,38595.6913,5898.267,50228.3871,44542.9981,55894.2407,-271.8419,-1124.9185,25322.333
55685.4755,27466.625,53509.2652,41419.2528,36262.2142,38601.0557,5898.2223,50257.9361,44556.0068,55899.5157,-260.5319,-1116.3354,25324.1211
55689.3647,27470.5589,53511.3215,41419.208,36267.668,38603.3803,5896.6577,50266.9662,44558.4655,55901.7062,-258.7885,-1119.107,25326.3563
55668.6223,27456.522,53511.0533,41407.9875,36240.1754,38598.91,5895.1378,50239.4289,44553.0117,55897.37,-272.6912,-1130.864,25325.194
55651.0985,27449.9059,53513.1097,41394.2188,36217.1978,38593.3667,5896.2554,50218.2841,44543.8027,55895.3136,-285.9682,-1136.4073,25324.3893
55662.3638,27449.0118,53513.2438,41402.7572,36231.8605,38597.3006,5898.0882,50235.495,44544.518,55898.9793,-276.1781,-1128.3606,25325.8198
55680.9157,27449.3694,53507.1641,41418.0905,36255.1063,38605.839,5898.9823,50259.1878,44554.8445,55901.6168,-264.7787,-1119.554,25328.055
55677.3394,27442.6192,53503.722,41412.9049,36255.8663,38604.0956,5896.8812,50256.6844,44555.3362,55903.3155,-267.5056,-1119.5987,25328.9044
55668.9352,27434.9749,53504.5713,41408.8815,36236.0626,38598.2841,5897.4624,50239.0712,44540.9417,55899.5605,-278.2345,-1126.3937,25326.3563
55652.082,27429.3423,53507.4323,41407.8534,36219.9694,38600.8769,5899.1164,50219.5805,44537.6784,55894.196,-281.2296,-1131.8028,25327.0268
55665.2248,27436.9419,53507.477,41418.6269,36233.9169,38605.6155,5900.6363,50224.3638,44544.8309,55891.6926,-269.0703,-1121.7892,25330.022
55684.2238,27444.0497,53506.6277,41430.2051,36260.1578,38611.3375,5903.8997,50245.8662,44552.5199,55893.6149,-252.1276,-1108.1994,25333.7324
55676.6242,27445.1673,53503.3196,41425.2877,36256.671,38607.7613,5903.0503,50253.7787,44554.7551,55893.7937,-251.1889,-1111.5074,25330.022
55652.1714,27442.8874,53501.9338,41419.8339,36232.084,38606.7331,5901.1281,50233.8856,44540.5841,55889.7257,-268.6679,-1119.1964,25325.0152
55637.9557,27431.801,53502.9173,41415.9,36214.9179,38606.9566,5898.8929,50218.4629,44525.8319,55879.6227,-276.3122,-1131.8475,25320.9025
55652.976,27438.6406,53506.1806,41425.5112,36231.637,38617.0149,5903.4079,50228.7894,44534.9514,55884.2719,-262.9012,-1124.4714,25325.0152
55660.8438,27436.8972,53500.3692,41434.0496,36252.6476,38614.9138,5900.8151,50242.2899,44543.4451,55885.3894,-250.0266,-1116.4248,25324.5682
55661.5591,27433.6785,53497.4188,41435.346,36255.8663,38611.4269,5898.267,50241.7535,44542.6852,55881.7685,-252.0829,-1116.4248,25322.7353
55644.2589,27431.2645,53498.4916,41423.7231,36238.7002,38609.5047,5897.6412,50225.3026,44531.5093,55880.8297,-268.1762,-1126.2596,25320.2319
55627.808,27429.7893,53503.2749,41407.3169,36217.5554,38607.0013,5897.7753,50205.0519,44524.1779,55880.5168,-280.112,-1138.4636,25317.058
55645.1529,27438.1936,53504.7948,41413.7989,36231.6817,38609.5941,5898.5353,50223.1121,44535.5326,55882.1708,-267.8633,-1131.2664,25322.3777
55670.4998,27453.348,53502.515,41432.8426,36260.5602,38619.1159,5905.2855,50251.767,44546.2167,55890.7986,-248.8643,-1115.4413,25330.1114
55673.4502,27452.901,53501.3527,41428.6852,36262.6165,38619.7418,5903.2291,50257.4891,44547.4237,55891.9162,-250.5183,-1113.2956,25330.469
55654.4065,27444.3626,53501.0397,41412.5919,36241.9635,38612.0081,5896.6577,50234.3327,44534.862,55886.2835,-266.6116,-1127.6007,25324.8364
55638.3133,27438.9535,53499.9669,41405.2606,36230.0277,38606.6884,5891.8297,50214.9314,44530.8387,55885.5236,-276.5805,-1137.346,25319.5614
55653.5572,27446.5531,53497.4635,41410.4909,36237.672,38604.3191,5889.1922,50229.7729,44533.0739,55890.5303,-275.1946,-1134.5297,25320.1872
55671.8409,27455.2703,53498.8046,41423.4996,36248.982,38610.22,5892.8579,50258.5173,44546.2614,55895.4924,-259.9508,-1119.3305,25324.6576
55673.629,27459.1595,53498.9387,41425.7348,36256.7604,38612.6786,5894.7355,50259.5007,44545.6356,55895.716,-259.012,-1117.9447,25325.7304
55667.5941,27450.1741,53495.72,41412.4131,36237.5826,38601.4581,5890.8015,50234.5562,44535.8008,55889.7704,-276.2228,-1133.7698,25319.1143
55658.7875,27437.4336,53494.6471,41397.9292,36217.7342,38596.943,5886.8676,50214.6631,44532.2692,55879.3098,-288.3375,-1145.795,25315.4039
55667.9964,27436.2266,53491.1156,41400.0303,36225.8255,38598.6418,5882.9337,50224.1403,44540.2712,55879.2204,-278.6815,-1139.7153,25318.5332
55684.8496,27441.9934,53493.7531,41411.4296,36253.3629,38602.2627,5886.1077,50259.9478,44565.5286,55894.9113,-264.287,-1124.3373,25323.4953
55686.4142,27445.7484,53494.2448,41411.2955,36253.0053,38602.1286,5886.5994,50267.0109,44565.0369,55894.956,-264.287,-1120.761,25321.2154
55669.2034,27442.8427,53493.4849,41400.522,36229.5359,38596.6748,5886.0183,50256.9973,44559.4043,55891.5138,-275.5523,-1132.6522,25318.712
55653.8701,27438.73,53497.5082,41394.4423,36215.499,38593.4561,5885.3924,50241.8429,44548.0943,55890.9774,-283.4201,-1141.8164,25317.505
55674.9701,27443.8709,53505.1972,41411.0273,36246.7915,38602.218,5891.2039,50245.598,44563.6958,55901.438,-269.8749,-1128.5841,25325.6857
55693.2092,27451.5152,53504.5266,41418.1799,36272.6301,38607.1801,5895.406,50277.3374,44580.549,55905.8189,-255.838,-1113.832,25330.6478
55681.7651,27449.3694,53498.4022,41416.1682,36261.3201,38606.1072,5893.1261,50282.1207,44576.5257,55905.9083,-256.4192,-1117.8553,25327.0715
55664.4648,27442.798,53499.7433,41407.004,36238.7002,38600.2958,5891.3827,50269.6931,44563.3829,55903.4944,-264.734,-1131.1769,25322.6906
55664.1072,27444.3626,53503.0067,41402.176,36220.7294,38599.9382,5894.959,50254.3598,44559.8066,55897.5041,-272.8701,-1137.8825,25322.0201
55681.3627,27452.7222,53504.3925,41402.8913,36235.8391,38605.7496,5897.3283,50263.1217,44568.2108,55902.4662,-265.494,-1128.1371,25323.4953
55693.6562,27459.383,53506.4042,41409.2392,36255.151,38613.4386,5897.82,50294.9506,44576.1681,55906.5789,-250.8759,-1115.4413,25322.8694
55696.7854,27472.4811,53505.6889,41420.0127,36262.393,38613.4833,5901.5751,50299.5104,44575.5422,55906.8918,-251.323,-1114.5025,25323.0482
55685.8331,27464.1663,53502.4256,41413.4413,36248.8925,38608.7894,5900.6363,50284.7582,44565.931,55895.8054,-270.0984,-1128.0477,25317.6391
55665.7612,27454.3762,53501.3974,41405.1712,36235.9732,38606.3308,5899.2505,50260.3501,44551.0894,55891.2456,-281.3637,-1136.0049,25315.4486
55674.5231,27458.0866,53503.722,41410.5356,36252.7817,38612.2316,5899.8764,50273.7164,44564.5899,55899.9628,-273.7641,-1125.4549,25318.6226
55689.6329,27464.3898,53501.1739,41419.3869,36273.5242,38620.5018,5899.5634,50305.0983,44577.2409,55904.4778,-256.5533,-1111.0604,25320.9025
55695.8914,27466.4015,53498.2234,41420.3256,36277.9051,38620.6359,5897.3283,50308.3616,44579.1185,55905.0143,-253.2899,-1112.7591,25319.4273
55673.7185,27453.1245,53495.1389,41405.5288,36247.8644,38608.3871,5885.8395,50287.5298,44561.8182,55892.8549,-273.8535,-1131.624,25312.2747
55646.6728,27441.5016,53490.7579,41394.3976,36219.6118,38605.3473,5878.3293,50265.6251,44552.4305,55882.1708,-290.3938,-1143.0234,25304.7645
55654.0489,27446.8213,53492.412,41398.9127,36235.6603,38610.9352,5881.3244,50278.9468,44567.0485,55890.128,-281.8555,-1132.5181,25310.9783
55672.3326,27457.1478,53494.6024,41414.246,36261.4095,38623.7204,5887.8064,50305.903,44580.9513,55894.0619,-257.9838,-1116.2907,25319.2931
55678.5464,27458.3995,53494.7813,41424.5278,36269.7691,38623.9886,5890.1757,50316.9447,44581.309,55895.8501,-258.2967,-1113.385,25323.5847
55663.3472,27448.3413,53490.0874,41408.7921,36244.9139,38611.7399,5882.2185,50296.2917,44562.5782,55887.714,-279.4862,-1130.7746,25318.712
55647.9245,27444.2732,53491.5179,41401.1478,36224.0821,38606.286,5881.7267,50271.9283,44548.6754,55886.8647,-291.7796,-1142.621,25315.3145
55656.9993,27445.0779,53493.6637,41405.6629,36241.2483,38611.6058,5885.3924,50287.3957,44564.724,55888.4293,-278.458,-1132.1604,25319.9637
55675.6407,27450.7552,53496.9717,41421.3091,36267.8915,38624.838,5890.131,50310.9992,44580.1467,55898.4876,-258.6991,-1114.8602,25325.3728
55682.3909,27448.9671,53496.5694,41420.8621,36272.496,38624.4357,5889.5946,50316.1401,44577.2409,55898.9346,-260.4872,-1116.8718,25321.8412
55670.7233,27444.9438,53497.0611,41413.7095,36253.7652,38618.7136,5885.3924,50294.6824,44571.8765,55893.6149,-273.9877,-1129.8805,25319.1143
55654.8536,27440.2946,53495.1389,41402.176,36229.5806,38612.1422,5883.4702,50279.2597,44567.6297,55886.8647,-289.1868,-1142.621,25317.2815
55677.4735,27447.179,53493.6637,41407.6746,36243.9305,38616.6573,5886.6441,50295.04,44582.6948,55894.5984,-275.3288,-1131.4899,25320.0084
55690.0352,27453.1692,53494.6024,41419.4316,36267.0869,38620.2335,5889.2369,50321.7727,44593.4683,55900.5439,-260.8001,-1118.6153,25322.1095
55678.8146,27447.4025,53493.4402,41416.0341,36269.322,38612.0081,5882.9337,50324.3655,44586.271,55898.1746,-265.0917,-1126.1255,25318.9355
55669.114,27434.7067,53491.3838,41404.9923,36246.4339,38606.286,5879.2233,50304.5619,44567.0485,55893.749,-281.5872,-1135.4685,25315.6275
55649.5339,27425.4978,53490.8026,41393.9506,36220.0588,38598.2841,5874.306,50277.3821,44558.6443,55887.0435,-296.9205,-1149.5054,25308.6984
55665.0013,27432.2033,53491.6073,41401.9078,36235.2133,38604.7661,5878.1952,50297.4093,44570.893,55893.3467,-287.8457,-1140.6988,25310.7101
55687.4871,27439.8029,53491.8308,41414.6036,36262.4377,38612.321,5883.2467,50326.5113,44588.1039,55901.8403,-268.355,-1124.0244,25316.8792
55689.767,27440.697,53494.2448,41413.933,36264.047,38614.1092,5883.9172,50324.9466,44591.3672,55905.8189,-263.4823,-1121.7892,25321.3942
55673.8973,27434.4385,53487.0923,41398.5103,36241.74,38604.8555,5875.2,50293.3413,44575.0058,55896.7441,-285.2082,-1138.6424,25310.9783
55670.5445,27432.3374,53487.8522,41397.1692,36237.1355,38604.185,5876.6752,50285.8311,44568.5238,55893.1231,-296.6523,-1146.0185,25308.162
55680.5134,27438.4171,53493.4402,41404.0536,36243.0811,38613.528,5881.995,50313.1002,44585.6452,55905.6848,-281.4531,-1135.5579,25318.2203
55705.3685,27441.4569,53492.7249,41417.0623,36261.1413,38623.0946,5886.6888,50332.0992,44597.134,55909.7975,-262.5436,-1119.4199,25322.4224
55703.8486,27441.0099,53492.5908,41420.8174,36265.0752,38626.1344,5889.1475,50333.038,44605.5382,55912.1668,-257.8944,-1115.039,25323.8529
55683.4638,27438.0594,53496.0777,41411.6979,36243.7069,38621.3958,5887.0465,50315.3354,44601.0232,55909.5293,-271.3054,-1123.3091,25321.9754
55671.3045,27434.662,53495.0048,41405.9311,36233.1122,38619.6077,5885.7054,50296.8282,44589.7132,55903.3602,-280.1567,-1131.4899,25316.0745
55680.3793,27443.2451,53498.4916,41415.4977,36252.8712,38623.2734,5891.8297,50316.3636,44600.7997,55907.0706,-267.5056,-1122.5045,25322.6906
55697.456,27449.8612,53497.7317,41424.3937,36281.5708,38633.5999,5894.1096,50346.9855,44615.1495,55915.4749,-253.5135,-1113.8767,25326.6692
55695.5785,27444.452,53495.9882,41414.3354,36270.9761,38626.8497,5889.1922,50350.8747,44611.7073,55914.4914,-259.6825,-1118.1235,25323.7635
55685.5202,27444.9438,53496.8823,41410.6697,36253.2288,38619.3842,5886.1524,50323.7844,44595.7035,55907.2495,-271.2607,-1131.4899,25320.7237
55676.4901,27443.6027,53495.1389,41408.211,36231.19,38616.6126,5884.096,50305.903,44579.9232,55898.7111,-284.7165,-1142.2634,25316.6556
55679.3511,27448.7436,53499.1622,41416.1235,36250.7254,38617.5066,5888.0746,50316.8553,44587.2992,55906.3107,-273.9877,-1130.417,25321.4389
55701.7922,27459.2042,53502.3808,41433.8261,36273.5689,38627.8778,5892.4556,50345.1973,44606.2535,55914.4914,-253.8711,-1113.8767,25329.1279
55701.2558,27455.7173,53500.2798,41433.7367,36270.7973,38626.4473,5892.4109,50347.8348,44608.444,55911.1834,-258.0285,-1111.8203,25328.0103
55685.3414,27449.9059,53498.5363,41420.8621,36251.5301,38618.7136,5889.371,50327.1818,44592.2613,55900.8569,-276.3122,-1124.7844,25321.0813
55671.8856,27446.0614,53495.6753,41410.8932,36237.5379,38615.9867,5887.6276,50304.6066,44583.4547,55893.4808,-287.6222,-1139.0001,25314.644
55677.7865,27438.5065,53498.3128,41412.2343,36244.0199,38619.4289,5886.1971,50312.9661,44595.0776,55895.5818,-281.4531,-1133.1439,25315.6722
55693.3433,27443.0215,53501.9785,41428.8193,36273.9265,38630.4259,5887.0465,50343.7668,44610.2768,55903.092,-265.4046,-1117.5424,25323.4953
55692.8515,27442.5298,53497.5082,41431.278,36271.1549,38626.4473,5885.1689,50342.8727,44604.4654,55896.7888,-267.2374,-1121.3422,25319.2931
55677.4288,27438.1489,53494.2895,41415.1847,36248.982,38616.1208,5879.8939,50327.003,44592.7531,55890.888,-282.3472,-1140.2071,25312.9005
55663.1684,27433.5891,53496.1224,41407.2275,36227.6584,38612.5892,5878.8657,50312.1167,44582.0689,55894.509,-294.9983,-1148.9242,25313.4817
55671.528,27439.49,53497.0611,41416.7941,36242.9917,38619.4736,5880.6986,50327.5394,44598.5645,55899.6052,-283.1519,-1138.8659,25317.2815
55686.9507,27445.3908,53495.4518,41423.4102,36270.9761,38626.1791,5880.6539,50347.5219,44611.0815,55906.4895,-267.4609,-1125.2761,25322.9141
55694.1032,27445.3014,53497.7317,41424.9748,36275.6252,38625.3297,5882.7549,50349.3994,44609.2933,55911.1387,-260.1296,-1125.0079,25326.401
55678.5911,27436.0478,53496.3906,41410.8038,36254.1676,38614.9585,5878.3293,50330.0428,44598.5198,55903.4497,-275.1499,-1140.4306,25321.126
55651.5455,27424.8272,53494.1107,41397.7504,36232.9781,38603.9615,5874.1271,50310.0157,44585.4217,55896.163,-291.8243,-1150.8465,25313.6605
55661.0227,27428.2247,53496.3012,41404.4112,36244.0199,38609.013,5876.9435,50327.3159,44601.2467,55900.5886,-280.2461,-1139.0448,25317.7285
55683.0168,27434.9302,53498.4022,41418.0011,36265.9246,38617.8643,5880.6986,50354.2721,44612.6014,55908.1435,-265.1364,-1122.7727,25322.5118
55685.0284,27434.4832,53498.6705,41418.7163,36268.7409,38620.1441,5881.682,50357.4014,44611.305,55908.367,-260.8001,-1120.0011,25320.0978
55667.8623,27434.2597,53497.3741,41407.6746,36255.5087,38611.114,5881.6373,50341.0846,44599.2798,55902.9579,-277.6533,-1131.0875,25314.9569
55653.4231,27433.2315,53502.9173,41396.2752,36233.2463,38605.4367,5882.3526,50323.7396,44589.445,55900.4992,-290.7515,-1141.1011,25313.4817
55669.1587,27436.8078,53505.1078,41406.7805,36248.0879,38612.6339,5888.2535,50342.5598,44597.7151,55905.1037,-277.4298,-1134.9767,25319.2037
55689.6329,27446.9554,53503.6325,41422.2926,36271.6466,38620.8147,5887.5382,50359.7707,44614.1213,55908.8141,-260.8895,-1125.4996,25323.4953
55693.1198,27452.3646,53504.2137,41425.6454,36274.9994,38624.4804,5890.7121,50366.6997,44618.0552,55908.6353,-259.1461,-1125.5443,25327.5633
55675.149,27447.0448,53504.0349,41413.8883,36257.8779,38617.4619,5889.3263,50353.6016,44610.098,55905.1037,-270.5008,-1136.0496,25321.126
55664.0178,27434.662,53502.2914,41398.0186,36234.051,38610.9799,5883.3808,50328.7911,44594.6306,55897.7723,-285.7,-1147.2702,25315.0463
55674.4337,27434.7067,53502.4703,41407.3616,36243.4387,38613.6174,5883.6937,50340.9952,44596.9552,55899.2922,-277.9663,-1135.7367,25318.4438
55691.5104,27438.3277,53500.0116,41424.1701,36266.7739,38616.8361,5886.8676,50362.6764,44615.5518,55900.6333,-257.2238,-1119.9117,25323.3165
55691.4657,27442.0381,53498.4022,41422.6055,36267.668,38616.389,5884.1407,50366.4762,44616.58,55907.3389,-255.5698,-1121.2081,25324.5682
55669.2481,27435.869,53493.8872,41409.0604,36246.3892,38612.4551,5876.8988,50347.9689,44603.4372,55897.4594,-271.3948,-1135.9602,25318.8461
55653.4231,27430.594,53489.9086,41399.5385,36218.8071,38604.7661,5873.8589,50331.1604,44601.1573,55887.3117,-285.8788,-1147.4043,25312.0512
55659.8604,27434.5279,53490.5791,41406.1099,36230.0724,38607.8507,5877.5246,50350.2935,44612.8249,55895.4924,-275.8652,-1141.2799,25312.2747
55682.1227,27442.8427,53490.2215,41422.0691,36259.0849,38613.9303,5882.4867,50385.6987,44626.4148,55899.3816,-256.9556,-1124.6055,25320.4107
55689.2753,27449.3247,53492.5461,41429.624,36274.1053,38621.5299,5885.9736,50392.6724,44622.3021,55904.8355,-250.9654,-1120.0905,25322.1542
55679.2617,27447.9836,53497.1505,41423.4996,36253.2288,38621.0829,5886.3759,50378.3226,44617.6082,55904.3437,-262.2306,-1125.8572,25321.2601
55667.2364,27443.1556,53500.9056,41414.5589,36232.397,38623.631,5886.6888,50360.5306,44610.6791,55902.198,-274.4347,-1135.1109,25321.0366
55680.4687,27450.9788,53506.8512,41423.9466,36250.2337,38628.1461,5892.1427,50376.758,44628.337,55911.8986,-261.3366,-1122.5939,25327.608
55704.8768,27462.4228,53511.9027,41440.0399,36279.5144,38636.2374,5900.0105,50407.1563,44643.4915,55920.3923,-239.253,-1102.2091,25332.7489
55709.6601,27464.7474,53516.8648,41452.378,36288.4998,38637.6232,5904.3467,50415.9182,44642.5974,55924.7285,-233.9333,-1097.9623,25334.8947
55701.2558,27466.2226,53520.1728,41443.0797,36270.529,38631.4988,5901.6645,50398.7521,44632.718,55919.0512,-247.702,-1109.8087,25329.3514
55682.4803,27459.2489,53514.4955,41424.9301,36248.0879,38626.8497,5895.0037,50370.9465,44616.1777,55905.8636,-268.2656,-1129.0312,25321.3495
55685.3414,27452.4987,53507.4323,41422.5161,36259.1743,38625.6427,5889.1475,50374.7463,44615.0601,55904.1649,-264.0188,-1125.0973,25324.2552
55705.7261,27460.7688,53508.237,41434.586,36277.8157,38633.7787,5892.992,50395.757,44626.683,55912.4351,-248.5067,-1110.7028,25328.3679
55709.7048,27463.7192,53506.583,41437.8047,36279.2015,38634.0916,5893.3944,50397.2769,44627.2194,55911.5857,-247.5232,-1113.2956,25327.7868
55686.2801,27451.3364,53505.2866,41430.1604,36259.3979,38625.7321,5887.717,50374.0758,44616.133,55905.1037,-266.4775,-1124.2479,25322.8694
55669.7398,27444.9438,53505.3313,41419.2975,36236.1073,38624.3463,5882.5761,50352.6181,44606.2982,55899.471,-277.7874,-1129.3888,25317.8626
55681.8992,27448.2071,53502.515,41424.796,36247.8644,38633.3317,5884.2301,50369.1137,44617.1165,55896.9676,-265.4046,-1122.1468,25321.3495
55697.6795,27452.6775,53502.515,41439.0564,36267.2657,38639.2325,5887.2253,50391.376,44631.3322,55899.3369,-250.2948,-1109.8981,25325.4622
55699.4677,27450.2188,53496.1224,41439.8611,36263.1083,38640.3054,5885.3477,50393.7453,44627.5324,55902.2874,-253.737,-1112.7591,25324.9705
55683.3744,27441.8145,53492.5461,41424.9301,36237.7167,38635.5221,5880.6986,50378.7249,44604.9571,55898.9793,-270.9925,-1127.8242,25320.4107
55662.9449,27440.9652,53495.3177,41416.4364,36220.0588,38629.3977,5878.7763,50359.1448,44595.8823,55895.2689,-282.7048,-1136.5414,25317.952
55676.4007,27441.144,53493.4402,41417.107,36232.4864,38633.1081,5877.6587,50373.4946,44604.8677,55895.1795,-273.2277,-1125.2761,25321.3495
55691.8681,27443.2898,53488.4334,41422.2926,36251.4406,38633.4658,5875.7812,50391.3313,44612.959,55898.2193,-261.9624,-1113.385,25320.4554
55694.6844,27444.0497,53486.4664,41424.9748,36262.7059,38631.6776,5874.0824,50393.2983,44608.0863,55899.0687,-261.6942,-1116.5589,25317.3262
55669.7845,27438.3724,53488.4781,41412.9049,36241.0247,38623.9439,5872.9649,50375.9533,44597.581,55889.0104,-273.3171,-1129.9253,25314.8228
55654.7642,27435.109,53494.5577,41400.969,36224.0821,38617.1937,5876.1835,50344.5268,44585.2876,55888.1164,-281.8108,-1136.8543,25314.5099
55666.5659,27439.6241,53494.7813,41406.3334,36239.9071,38615.2714,5878.4634,50350.3829,44583.3653,55891.1115,-276.0887,-1126.1702,25315.0463
55683.6873,27450.4423,53493.1272,41423.4102,36265.1646,38620.1888,5885.6606,50365.7609,44590.9649,55893.749,-256.4639,-1112.2674,25318.8908
55685.9225,27453.348,53495.5859,41426.9418,36275.7593,38620.6359,5886.9123,50357.6249,44585.9581,55894.2854,-251.9488,-1116.9612,25317.3262
55670.0081,27448.7883,53498.9387,41417.2858,36252.5135,38615.3609,5888.3876,50335.6308,44569.4178,55887.7587,-265.6281,-1126.9301,25313.6605
55655.5241,27447.6707,53501.8444,41411.8767,36232.9334,38609.8623,5894.4225,50314.7095,44563.2488,55885.8365,-274.9711,-1129.8358,25314.5546
55662.5873,27451.7387,53506.4936,41416.0788,36244.3775,38614.3327,5900.3234,50324.7678,44567.3615,55891.2903,-263.7953,-1124.8291,25321.9306
55673.182,27466.1779,53511.5898,41426.4053,36281.7049,38623.7651,5909.3982,50343.9903,44573.4411,55898.6217,-248.1937,-1111.418,25328.7256
55669.0693,27463.6298,53511.7686,41427.9252,36281.9731,38622.1558,5910.6946,50331.4734,44571.4742,55899.1581,-244.841,-1114.5473,25328.9044
55653.1996,27460.143,53510.5616,41415.8553,36254.2123,38608.0295,5906.8948,50298.2587,44554.7104,55891.7373,-262.4542,-1129.4782,25323.1376
55626.5563,27461.0817,53507.5665,41405.7523,36233.8275,38599.6252,5903.1397,50268.665,44532.3139,55885.1212,-278.6815,-1140.1623,25318.8014
55630.0431,27463.9875,53507.5665,41407.8087,36242.5894,38599.2229,5903.7656,50275.4599,44535.8902,55887.8481,-271.6631,-1133.8592,25319.6061
55645.3317,27470.2907,53509.3993,41416.7941,36261.8566,38603.7827,5904.4808,50293.386,44542.104,55890.888,-257.3133,-1122.0574,25322.78
55645.0635,27469.7989,53508.1923,41417.4199,36254.3017,38604.7661,5903.1844,50280.1538,44538.4383,55888.0717,-258.0285,-1121.8339,25321.573
55625.7963,27467.3402,53506.3148,41409.6862,36233.6934,38598.9547,5900.5022,50258.3385,44522.9262,55878.3263,-273.3171,-1132.831,25313.8393
55615.3357,27462.9593,53506.2701,41407.8534,36219.4777,38594.842,5903.0056,50233.6621,44515.3266,55876.6723,-279.0391,-1138.1954,25313.9287
55622.9353,27463.6298,53506.6277,41410.5356,36230.9664,38603.0674,5906.8501,50248.1014,44525.9213,55881.6344,-269.115,-1126.8407,25317.5497
55637.2404,27474.4928,53503.3196,41418.0458,36249.3396,38602.6204,5907.0736,50263.1664,44538.036,55884.6295,-257.4921,-1116.6483,25319.7402
55633.4853,27472.347,53501.755,41416.7494,36244.154,38596.2725,5900.681,50259.9031,44529.0059,55875.8229,-258.8779,-1125.3208,25318.7567
55620.566,27466.7591,53503.7667,41409.7309,36218.4942,38588.8517,5899.4293,50239.9653,44510.9904,55869.1621,-274.3006,-1136.2284,25314.4205
55616.0957,27457.8631,53507.1641,41406.1993,36200.3446,38589.2093,5902.6927,50212.6068,44500.2168,55867.5528,-281.4978,-1140.3412,25316.2533
55623.6058,27455.4938,53510.2934,41414.7824,36210.537,38596.2278,5902.3798,50216.4513,44508.5317,55864.647,-270.2326,-1132.2051,25319.5167
55636.3016,27454.4656,53506.8512,41426.45,36222.6963,38599.9382,5900.1446,50227.6272,44517.8747,55864.7811,-257.4027,-1120.8504,25322.6459
55633.4406,27452.6775,53503.3196,41423.5443,36217.6001,38591.221,5899.1164,50210.7739,44517.5618,55864.96,-256.3298,-1122.728,25322.333
55617.6156,27443.9603,53503.4537,41409.6862,36195.6954,38580.0451,5893.5285,50179.4815,44502.0497,55857.6733,-270.7243,-1136.5414,25315.7169
55604.6069,27435.1537,53503.1855,41401.5949,36178.261,38576.3794,5889.371,50156.0122,44486.1352,55849.0008,-280.872,-1148.8348,25313.0347
55609.8372,27433.7679,53499.1175,41407.4957,36183.1784,38577.8099,5888.7005,50171.5243,44487.5658,55851.683,-273.4959,-1142.8893,25314.5993
55627.8974,27441.8592,53498.1787,41423.9913,36211.2075,38585.9907,5894.4672,50192.3114,44499.4569,55860.9366,-256.9109,-1126.1702,25317.2368
55633.1724,27437.5677,53497.7317,41424.8407,36216.6613,38586.0801,5894.5119,50185.9635,44493.1984,55860.4002,-251.3677,-1128.5394,25315.7169
55622.0412,27432.0245,53498.3575,41413.486,36192.5215,38580.358,5891.8297,50160.9296,44486.627,55853.337,-268.1315,-1140.8776,25312.4088
55612.6088,27427.2859,53498.3575,41400.9243,36172.0026,38574.0548,5886.51,50152.5253,44478.5357,55852.1301,-281.3637,-1150.2206,25310.2183
55623.9188,27432.248,53500.7268,41404.1877,36184.4748,38576.1112,5889.1475,50158.4262,44489.8456,55858.165,-268.2209,-1142.2634,25315.2251
55649.9362,27439.4006,53499.2963,41409.0157,36213.5768,38578.3464,5892.7685,50174.1171,44501.245,55867.9104,-251.9488,-1127.9583,25320.0084
55652.529,27444.0944,53499.1622,41405.8864,36206.4689,38579.1957,5890.2651,50176.1734,44495.4336,55871.6655,-253.8711,-1127.4219,25317.1027
55633.8876,27439.7135,53496.2565,41395.4258,36184.5195,38572.8031,5884.1854,50164.1482,44486.1799,55864.647,-271.6631,-1140.0282,25311.7383
55626.7351,27439.937,53495.5859,41399.0021,36173.8354,38568.8692,5887.0465,50151.9889,44476.3005,55856.1087,-279.2627,-1146.1526,25311.6041
55649.0421,27439.7135,53498.7152,41409.5521,36185.95,38578.3464,5893.3049,50164.8188,44499.8145,55871.129,-265.2705,-1133.7698,25317.505
55670.4104,27449.1906,53499.788,41413.5307,36203.9655,38589.3434,5897.373,50186.0082,44512.0186,55880.8297,-251.7253,-1118.2129,25323.3612
55680.871,27456.075,53501.8444,41416.0788,36210.9393,38591.1316,5901.2175,50189.8527,44514.0749,55880.5168,-249.9819,-1115.2178,25324.6129
55671.7068,27457.8184,53502.2467,41408.7474,36202.9374,38588.6729,5902.3798,50183.3707,44511.8845,55873.2748,-259.3249,-1126.3937,25321.7965
55650.5173,27454.868,53498.7152,41399.7173,36188.9005,38581.9227,5899.9211,50162.226,44500.7086,55867.6422,-271.976,-1138.8659,25318.5779
55664.2413,27460.6794,53504.616,41404.0536,36202.4456,38588.1364,5902.2009,50171.5243,44505.9836,55871.7996,-263.9294,-1130.417,25318.7567
55684.045,27462.3781,53510.204,41416.5705,36223.9927,38595.5572,5906.8054,50204.739,44524.9379,55881.1426,-242.5611,-1113.1614,25324.8811
