FC3,FCz,FC4,C5,C3,C1,Cz,C2,C4,C6,CP3,CPz,CP4
54678.306,26693.3441,52863.5681,40540.4717,35498.8575,37811.9498,5471.0805,49863.8302,44447.6455,55657.3123,-1132.071,-1809.3288,24446.3682
54671.8687,26690.2596,52861.3776,40539.22,35496.6223,37807.703,5466.6996,49853.459,44452.7417,55658.1616,-1131.0428,-1808.7476,24445.2953
54682.9998,26689.9019,52859.5895,40545.7914,35510.5698,37810.3405,5463.2574,49873.8438,44461.0119,55658.8769,-1114.9943,-1797.2589,24447.3517
54692.2088,26692.8077,52855.2085,40546.5513,35521.3434,37807.256,5461.1117,49891.5911,44465.0352,55658.564,-1110.4345,-1794.6661,24446.3682
54680.3176,26682.4365,52852.8392,40536.359,35502.8361,37799.2988,5456.9989,49883.9915,44454.6193,55654.4513,-1127.1536,-1807.8536,24441.6744
54655.1943,26665.1362,52844.6138,40519.1928,35479.0539,37791.5651,5450.4275,49859.3152,44433.8769,55643.2307,-1149.2372,-1824.7962,24432.8678
54648.2652,26666.0303,52842.6468,40519.1481,35482.4513,37788.6593,5446.896,49852.9226,44435.1733,55642.7836,-1151.3382,-1825.6009,24430.1856
54672.3157,26676.7144,52843.9432,40535.5096,35503.9537,37792.5038,5450.7405,49868.5688,44448.182,55648.5951,-1135.2897,-1815.5426,24432.7337
54676.339,26678.6367,52837.3271,40535.1967,35504.8925,37791.1627,5446.0019,49873.5756,44446.3044,55643.633,-1130.5958,-1815.9449,24430.4091
54657.5636,26667.5949,52827.1794,40519.2822,35488.4416,37784.9042,5436.793,49865.7525,44436.872,55639.4756,-1146.3314,-1830.25,24424.6423
54639.4587,26652.1275,52818.4623,40496.9305,35456.7021,37771.8061,5427.2264,49834.6835,44412.598,55624.4999,-1167.4762,-1849.9196,24414.1817
54640.4421,26650.25,52817.5682,40495.187,35449.3707,37771.3591,5426.8688,49825.9664,44417.5601,55616.9003,-1174.0029,-1850.6795,24410.4713
54656.4013,26657.179,52820.2057,40505.7371,35472.9295,37775.4271,5425.7512,49840.4056,44433.7875,55622.8906,-1162.0671,-1836.9555,24413.0641
54668.5606,26661.7388,52825.5701,40516.153,35491.1685,37781.6856,5428.0758,49862.2209,44434.011,55624.2317,-1154.3334,-1827.5231,24414.4052
54662.0339,26664.868,52826.9559,40512.6661,35481.7361,37779.8527,5432.9038,49856.0518,44432.4911,55624.6787,-1161.173,-1832.0382,24413.2876
54653.8085,26660.3082,52825.7489,40502.876,35458.6244,37775.74,5432.1885,49834.3259,44421.6728,55618.2414,-1169.5772,-1843.4823,24412.483
54649.0699,26655.525,52820.8762,40499.1657,35452.6788,37776.1424,5426.6453,49840.8526,44418.2754,55609.7031,-1173.5559,-1844.0634,24409.8902
54665.6549,26657.8943,52821.5915,40507.2123,35475.1647,37782.1326,5425.93,49867.8982,44436.3356,55614.9781,-1153.931,-1829.4901,24414.1817
54679.6918,26657.8496,52817.747,40514.5437,35492.0179,37786.3795,5427.6288,49879.7446,44438.2131,55616.3192,-1145.0797,-1826.5396,24412.8853
54675.7132,26653.2451,52814.6178,40518.3434,35477.4892,37780.2998,5424.1419,49871.9215,44424.2209,55611.0889,-1153.8863,-1840.2189,24407.4315
54656.3119,26639.387,52814.6625,40510.7886,35460.189,37773.0131,5424.7677,49843.1772,44411.3016,55606.1715,-1170.6948,-1850.903,24404.5705
54653.0485,26640.9069,52820.2057,40510.0286,35464.5699,37774.4883,5430.4898,49839.9138,44424.0421,55619.4484,-1167.1185,-1844.9128,24413.0641
54665.789,26646.629,52819.4457,40520.3998,35491.3026,37784.9936,5434.7366,49864.6349,44442.8176,55623.3376,-1151.83,-1827.1208,24414.8523
54675.6238,26651.0993,52816.1377,40525.1831,35501.6738,37783.6525,5430.4898,49887.076,44449.2549,55624.0082,-1143.4704,-1822.2034,24412.7512
54669.6782,26651.9487,52817.4341,40516.5553,35479.3221,37778.914,5431.2944,49881.9798,44445.2763,55620.2084,-1154.9145,-1830.25,24409.1749
54651.4839,26647.1207,52816.3612,40500.5068,35452.8129,37772.2085,5429.0146,49859.8516,44432.5358,55615.3357,-1166.6268,-1845.4045,24405.7775
54642.3644,26648.5959,52812.8743,40494.4718,35451.5612,37767.4252,5423.4713,49854.1296,44431.6417,55612.5194,-1170.6501,-1846.0751,24404.1234
54651.6627,26654.1839,52810.4156,40501.1773,35473.153,37771.4932,5424.0972,49868.5688,44437.4084,55620.4319,-1160.9495,-1836.5979,24406.8056
54664.4926,26650.1606,52810.2368,40507.5699,35486.117,37771.8061,5424.9913,49878.0906,44444.4269,55620.6107,-1156.5685,-1833.1558,24407.0739
54658.0106,26639.5211,52807.1076,40495.5,35470.5155,37766.397,5420.655,49871.9215,44433.9663,55615.0675,-1174.0029,-1842.0964,24400.4577
54638.6987,26630.7592,52800.3573,40476.4563,35437.8372,37756.5175,5411.8484,49849.1228,44407.9489,55602.0588,-1192.6442,-1863.9117,24389.7289
54629.4898,26625.9313,52794.8588,40474.087,35433.1881,37754.1482,5405.0088,49838.841,44406.116,55599.0189,-1194.6559,-1868.6503,24389.9524
54640.8892,26625.7524,52796.5128,40484.9946,35458.982,37761.3008,5405.6793,49857.2588,44419.8847,55602.9528,-1183.8824,-1856.5804,24391.517
54644.376,26619.7175,52792.9813,40487.5875,35465.8663,37757.054,5404.3829,49878.7165,44426.2326,55605.6798,-1175.8804,-1856.0439,24386.9126
54629.3557,26606.53,52780.509,40476.2328,35447.1356,37743.7323,5392.2683,49858.7787,44417.8283,55594.9956,-1191.0796,-1872.3607,24374.7979
54598.5103,26594.1918,52774.5187,40459.2901,35417.0501,37734.1211,5381.8077,49821.7642,44400.7963,55581.3611,-1212.2244,-1891.6726,24362.6833
54596.3198,26593.3871,52774.8317,40459.5137,35415.1726,37733.0929,5381.763,49822.3901,44399.9022,55574.9685,-1214.3701,-1891.8067,24361.4763
54609.9991,26592.4931,52768.0814,40462.0618,35429.5671,37735.4622,5383.5511,49846.53,44397.3094,55573.5826,-1206.1,-1885.1459,24359.0623
54616.7493,26591.4649,52760.5712,40462.2853,35436.0044,37736.4904,5376.7115,49856.1859,44396.3259,55566.3854,-1199.7968,-1884.8777,24355.9778
54607.6745,26586.5028,52755.6092,40457.4573,35419.33,37727.9967,5368.5755,49842.9984,44387.0276,55559.3669,-1212.3585,-1893.3713,24351.5074
54579.4666,26572.9129,52749.3507,40444.4039,35397.2465,37715.3903,5357.8019,49812.0636,44373.0354,55547.4311,-1235.2467,-1909.0623,24338.9904
54578.4384,26575.6845,52750.3788,40446.8626,35404.5779,37716.3738,5356.6396,49811.1248,44374.5106,55548.2805,-1234.3079,-1909.7328,24339.7504
54588.4073,26577.2939,52746.4449,40451.1094,35418.1677,37718.9219,5353.421,49832.359,44381.0821,55556.3718,-1221.2545,-1896.4559,24342.7455
54591.0895,26572.6894,52738.3983,40452.674,35424.2027,37711.7693,5351.5434,49846.4406,44382.8255,55552.0356,-1218.7958,-1894.936,24340.6445
54578.4384,26560.3065,52731.514,40441.8111,35404.0414,37701.1746,5345.9108,49826.1005,44374.913,55545.5089,-1229.614,-1907.4529,24334.5201
54560.0206,26563.3911,52730.0835,40431.8869,35379.9015,37699.6994,5343.4968,49813.4941,44360.6973,55537.7305,-1246.646,-1924.1273,24328.1275
54560.0206,26562.9441,52731.1116,40436.9384,35382.9414,37704.0803,5346.2684,49818.8138,44355.8246,55534.5565,-1248.8812,-1924.6638,24329.4686
54578.1255,26569.7837,52729.2788,40446.1026,35394.609,37706.8967,5343.8991,49841.3891,44370.9791,55540.4127,-1234.3079,-1913.6667,24329.9156
54582.9982,26575.774,52728.2506,40443.5098,35404.3096,37701.7111,5342.3792,49848.7204,44377.8187,55543.0055,-1231.8492,-1910.6716,24324.5959
54572.8952,26567.1462,52728.8318,40440.0229,35391.8821,37698.3136,5341.351,49828.0227,44367.4028,55536.8364,-1241.4604,-1921.8922,24320.8855
54548.8,26546.9849,52719.6229,40417.6265,35357.5498,37683.0697,5330.801,49794.5845,44347.1074,55520.3408,-1268.1037,-1946.7473,24310.4696
54532.3491,26535.7196,52710.6375,40407.6129,35348.0279,37673.7714,5322.4862,49791.187,44344.8722,55515.9599,-1279.7713,-1953.3634,24306.491
54547.1013,26544.3027,52715.0184,40414.4973,35378.5157,37678.3311,5325.3025,49814.254,44363.9159,55526.0628,-1266.0474,-1941.0253,24311.4084
54555.1032,26547.8343,52717.8347,40416.9112,35387.1435,37677.5265,5323.4249,49823.6865,44373.5719,55532.9472,-1256.7937,-1932.174,24311.8554
54540.8428,26544.3027,52714.7502,40408.3282,35367.3398,37674.6207,5323.9614,49808.0403,44367.8051,55527.0463,-1266.0474,-1936.2867,24308.2792
54527.7894,26532.2775,52713.275,40394.0678,35339.3108,37668.9434,5321.5474,49787.8343,44347.2415,55519.4914,-1283.0347,-1950.7259,24301.4842
54528.5493,26529.9976,52709.9669,40395.1854,35336.718,37662.8637,5315.0654,49784.3027,44335.2163,55511.0425,-1283.7052,-1960.3372,24293.9293
54541.5133,26539.6982,52709.2963,40405.9142,35354.4205,37666.7976,5314.976,49798.429,44345.811,55518.0609,-1266.4944,-1947.3732,24297.7291
54554.9691,26544.1686,52709.8775,40408.8646,35373.7772,37672.2068,5318.7758,49812.8235,44351.1307,55522.5313,-1258.8948,-1942.6793,24301.1713
54536.8195,26535.809,52703.7531,40392.9502,35355.8064,37662.9531,5315.6912,49808.7108,44344.3805,55511.5342,-1269.1319,-1952.067,24293.9293
54519.8768,26521.5486,52692.1302,40380.2544,35326.3021,37644.8482,5308.4046,49777.9101,44324.3086,55491.5071,-1288.6226,-1971.6918,24280.6524
54508.2986,26510.0151,52681.9825,40370.9561,35317.7637,37636.131,5295.4406,49763.7391,44308.0366,55479.4371,-1299.6197,-1983.4489,24267.6884
54511.2938,26506.3047,52672.0583,40368.095,35327.822,37631.0796,5284.6223,49777.2396,44309.1989,55485.4274,-1299.5303,-1979.515,24262.771
54515.9876,26497.364,52660.346,40360.719,35327.3302,37622.4518,5274.4746,49778.9383,44306.7849,55479.303,-1303.6877,-1985.4605,24255.842
54503.426,26491.4632,52660.1672,40351.3312,35313.9192,37614.8969,5269.4678,49769.0141,44294.2232,55468.4401,-1317.054,-2001.0173,24249.9411
54486.4386,26490.8373,52658.8261,40346.3691,35294.1155,37609.5325,5269.6913,49753.3232,44287.16,55464.2826,-1326.4418,-2012.3273,24248.6447
54482.3259,26488.6469,52655.5181,40343.8658,35290.8969,37605.2856,5265.4445,49745.2319,44293.5526,55462.5392,-1325.056,-2011.3438,24246.5883
54486.6621,26486.1882,52646.2197,40344.581,35302.8327,37605.8668,5259.2754,49760.6993,44293.0162,55459.7676,-1321.6138,-2004.7724,24238.3629
54487.6009,26474.3865,52635.625,40335.4168,35302.9668,37600.3683,5252.3017,49770.534,44291.2728,55455.1631,-1323.0443,-2008.5722,24231.8809
54473.3405,26457.6674,52628.8301,40323.1233,35283.6996,37593.7074,5243.4057,49750.4622,44276.5206,55440.6792,-1343.6079,-2028.4653,24222.7614
54451.6593,26446.3127,52624.1809,40302.0233,35249.2779,37578.9553,5231.7828,49716.0852,44257.7899,55431.8279,-1367.9713,-2051.2193,24212.9713
54435.879,26438.0425,52613.8991,40290.8474,35237.0292,37568.9417,5222.8868,49703.4788,44250.682,55422.6637,-1376.7332,-2059.0872,24205.8635
54460.0636,26445.2398,52611.3063,40305.5996,35260.8114,37566.9748,5224.2279,49733.3407,44262.3049,55426.1506,-1363.8586,-2048.2689,24206.9811
54467.082,26441.1718,52608.4453,40309.0864,35269.0816,37565.4995,5219.8917,49739.1522,44267.9822,55424.9436,-1361.8469,-2043.128,24203.8071
54440.1705,26427.8501,52602.9915,40293.4402,35252.1837,37550.1215,5209.3416,49714.6547,44255.51,55412.3372,-1380.0412,-2061.5011,24191.6925
54415.1366,26415.3332,52596.5095,40279.8951,35227.8203,37542.0302,5200.4904,49689.4419,44234.9464,55398.345,-1400.6943,-2083.7188,24180.0696
54399.3115,26407.1971,52589.8933,40276.14,35217.0914,37537.694,5194.7683,49688.7267,44223.7258,55391.5948,-1407.3104,-2091.2737,24173.3193
54405.2124,26402.4585,52583.8584,40282.5773,35242.3489,37541.7173,5188.1522,49706.0716,44232.4877,55390.209,-1399.4873,-2080.4554,24173.5876
54411.3368,26400.8492,52575.2753,40285.5724,35253.7483,37540.9126,5180.8655,49714.9229,44229.5372,55386.588,-1392.7817,-2079.5614,24170.1007
54392.4719,26386.5888,52561.0149,40265.9923,35220.4889,37525.2664,5166.3369,49700.7966,44213.1311,55375.1886,-1411.8254,-2101.9131,24152.3534
54376.9598,26376.9776,52549.1685,40248.9156,35185.4861,37513.1071,5156.6362,49677.1485,44189.5723,55357.0837,-1439.5416,-2124.3542,24136.7072
54366.0969,26367.9922,52541.4795,40242.8359,35174.6678,37506.0886,5151.0036,49665.2573,44176.6977,55348.3218,-1449.7787,-2132.3115,24131.1193
54375.1717,26367.9475,52538.1267,40247.3956,35193.6668,37502.6464,5147.1144,49684.8375,44188.2312,55356.279,-1439.9439,-2124.3989,24134.5614
54373.5623,26360.5267,52530.2142,40239.8854,35191.2081,37497.282,5137.2796,49677.1932,44189.2594,55348.4559,-1438.2899,-2128.914,24127.0959
54358.542,26343.2711,52522.1676,40222.3617,35165.2354,37483.0663,5126.4167,49649.6558,44173.8814,55337.6824,-1455.7242,-2139.9558,24116.4565
54336.4584,26329.1895,52515.775,40210.2917,35140.112,37468.3589,5121.6334,49624.1301,44152.8708,55326.8641,-1472.9351,-2153.2774,24107.6499
54335.2067,26332.2741,52514.1209,40206.8049,35132.4677,37466.526,5118.7724,49624.3536,44151.3062,55328.8758,-1469.8952,-2154.9761,24106.9347
54353.6693,26341.036,52513.0928,40214.628,35159.4239,37471.9352,5123.511,49646.9736,44161.275,55329.7698,-1458.8535,-2142.1462,24111.0474
54355.4574,26343.1817,52509.1141,40211.2305,35168.4541,37467.3307,5117.3866,49655.0202,44172.6744,55323.7349,-1461.0887,-2138.8829,24106.2641
54342.851,26340.6783,52503.8838,40208.5483,35160.3627,37466.839,5111.3069,49649.8346,44159.7551,55314.8836,-1472.1304,-2148.2706,24101.8832
54338.783,26341.3042,52501.2016,40199.0712,35136.9828,37463.218,5109.8317,49631.1486,44138.6998,55306.6134,-1489.5648,-2165.705,24097.5916
54332.4351,26342.6006,52496.776,40190.8904,35130.4561,37456.9148,5103.7967,49626.4994,44133.4695,55300.042,-1496.9856,-2169.9518,24092.5848
54342.851,26346.0875,52492.5292,40197.9536,35146.5046,37460.5358,5101.0698,49646.2137,44138.3868,55301.6067,-1486.212,-2161.4134,24090.2603
54348.3943,26344.5228,52489.3999,40203.4074,35154.0595,37461.9216,5095.6607,49652.1145,44139.0127,55300.042,-1477.4501,-2156.8984,24086.4158
54338.0678,26342.7347,52487.6118,40197.3277,35145.7,37461.9663,5093.8278,49643.1291,44131.8601,55296.7787,-1484.9156,-2164.185,24084.6276
54319.8287,26332.7211,52487.433,40184.319,35115.0781,37457.8983,5092.2632,49621.2244,44116.2586,55289.1791,-1502.5735,-2175.495,24078.7268
54313.0785,26320.4277,52479.3863,40180.7874,35104.1704,37450.0751,5080.8638,49617.1117,44103.2052,55275.9916,-1509.4578,-2181.6194,24069.0708
54325.6402,26316.3149,52473.1725,40183.4697,35120.0849,37452.5338,5075.3653,49635.3954,44112.6376,55278.7185,-1494.5269,-2174.0198,24068.5791
54322.2874,26309.2518,52466.9588,40182.0391,35126.254,37444.666,5071.8337,49629.2263,44112.3247,55279.9702,-1491.1741,-2172.7234,24064.5111
54305.0766,26301.7863,52458.8227,40168.2705,35114.6311,37433.2666,5063.6083,49599.9008,44091.2247,55270.4036,-1505.2557,-2190.873,24055.2127
54277.271,26286.0507,52455.8723,40152.9372,35098.4037,37423.0295,5057.6627,49568.3849,44070.527,55264.1451,-1523.45,-2209.6485,24047.7026
54273.2924,26276.8865,52451.1784,40146.9469,35091.6535,37413.7312,5055.7405,49551.8446,44053.3161,55257.7078,-1527.3392,-2215.147,24046.1379
54290.0115,26289.8058,52453.8606,40158.6592,35111.1442,37422.7166,5063.6977,49567.3567,44064.2238,55271.9682,-1509.7708,-2197.2209,24057.582
54280.4897,26286.453,52450.1055,40155.8429,35119.9508,37413.7312,5063.0718,49563.7357,44067.9342,55270.493,-1510.7989,-2196.3269,24053.2011
54266.4081,26285.246,52447.0657,40143.4153,35105.0645,37398.5767,5060.032,49542.1886,44049.6057,55260.7477,-1523.9418,-2212.9118,24043.5898
54239.0049,26270.3151,52434.7723,40114.8945,35073.1015,37381.8576,5048.3197,49503.2519,44018.805,55244.7438,-1553.4014,-2239.8233,24027.6307
54218.5754,26262.1343,52431.7324,40108.1443,35064.2949,37373.7663,5044.2517,49487.9186,44007.6292,55234.5961,-1566.1418,-2247.557,24019.3158
54222.6434,26262.3131,52424.9375,40111.8994,35075.6496,37369.9218,5041.1224,49496.5017,43999.7613,55234.8644,-1561.9397,-2237.7223,24014.8455
54227.4266,26256.144,52409.8277,40103.4057,35075.9625,37356.8684,5032.6735,49485.0129,43986.9314,55227.6224,-1563.9067,-2240.4045,24005.8154
54208.4277,26253.2383,52400.887,40092.6769,35058.3941,37344.0832,5028.0243,49463.4658,43974.2804,55213.7643,-1578.033,-2253.8155,23998.7522
54181.695,26247.7845,52393.1086,40076.8071,35026.7887,37331.1192,5019.1283,49419.6117,43950.3193,55190.8314,-1602.3517,-2274.3791,23984.5365
54167.1664,26230.7525,52380.1446,40064.7819,35009.2202,37318.3787,5006.0749,49390.5991,43938.4282,55180.9967,-1614.064,-2288.1031,23972.9583
54174.7212,26227.5785,52375.5848,40068.537,35023.5701,37315.92,5000.7999,49392.0296,43941.7362,55179.9238,-1600.9659,-2282.2469,23970.142
54164.1265,26226.1033,52365.6607,40059.5516,35022.3184,37300.3185,4991.8592,49385.2794,43924.3466,55164.367,-1605.6597,-2287.7902,23958.4744
54146.9157,26219.7554,52360.5198,40048.1969,35005.331,37295.4905,4986.8077,49366.4145,43916.2999,55156.2309,-1612.4994,-2300.7542,23952.4841
54129.1237,26211.8429,52360.6539,40038.3621,34978.1513,37293.1212,4984.8408,49344.8228,43899.1785,55146.3515,-1628.7267,-2317.3839,23946.2256
54126.7991,26208.0431,52355.0659,40036.7528,34972.8316,37288.1591,4977.1965,49330.5624,43881.9677,55135.0862,-1636.1922,-2325.3411,23941.04
54143.9205,26215.3298,52352.4284,40051.4603,34992.7247,37295.267,4978.9846,49341.0677,43891.1319,55138.7519,-1621.5295,-2312.3771,23943.007
54148.9273,26208.9372,52347.6899,40060.1774,34997.195,37293.8365,4976.1236,49346.5662,43889.299,55136.6955,-1614.1087,-2307.9067,23942.6941
54128.8108,26191.8157,52339.7774,40051.9073,34981.1912,37281.7218,4967.9875,49323.9909,43878.2126,55127.7101,-1628.1456,-2320.7366,23933.9322
54108.3366,26186.8984,52336.0223,40038.1386,34950.1222,37274.0328,4960.4326,49293.1008,43860.1077,55117.6071,-1648.5751,-2340.7191,23924.0974
54110.84,26185.4678,52333.5636,40034.4282,34946.5907,37270.9036,4955.1129,49286.887,43854.1621,55110.4099,-1652.7325,-2345.5918,23918.9565
54128.1849,26184.4844,52331.8201,40042.6537,34971.3117,37277.475,4953.1907,49301.2369,43862.4769,55105.3584,-1637.578,-2336.4723,23918.6436
54135.6504,26188.0606,52331.1943,40045.5594,34973.7257,37275.9998,4950.8214,49299.8511,43868.9142,55112.645,-1629.2185,-2328.9174,23918.286
54118.6631,26179.7011,52327.171,40030.4943,34949.9434,37265.0921,4943.2218,49277.0523,43853.8045,55104.8666,-1646.2505,-2341.3897,23910.5076
54098.9488,26173.2638,52324.5782,40012.2553,34918.9639,37252.3963,4937.1868,49252.7336,43828.3235,55097.58,-1670.2116,-2358.2876,23901.3433
54097.7865,26163.5631,52325.964,40012.5682,34916.3264,37252.0387,4933.7447,49241.3789,43826.9824,55095.3001,-1671.4185,-2360.1204,23900.0916
54120.4959,26168.5699,52327.8862,40023.8782,34940.5557,37254.8997,4941.7913,49268.5139,43841.9133,55103.7937,-1653.8501,-2343.446,23907.1548
54131.3142,26176.5271,52328.4674,40031.7907,34951.1057,37259.6383,4944.6076,49279.6898,43854.5644,55110.3652,-1644.1494,-2335.1312,23913.3239
54119.736,26174.1132,52326.0534,40020.5255,34932.6432,37252.2175,4938.0362,49267.0834,43841.958,55103.1232,-1658.4992,-2347.9611,23909.2559
54102.2569,26162.1773,52317.3362,40000.2301,34898.0427,37239.0747,4929.4978,49230.8736,43820.7239,55091.9473,-1675.0395,-2367.6753,23899.8681
54095.8643,26151.4485,52309.2449,39986.3273,34888.2973,37230.3575,4919.529,49210.7123,43811.3362,55078.6704,-1687.8247,-2376.4819,23892.8944
54114.2374,26156.947,52305.9815,39992.094,34908.4139,37235.9455,4916.8915,49230.516,43823.7637,55079.8774,-1675.0395,-2361.3274,23897.4541
54121.8817,26161.1491,52303.6569,39996.3409,34918.5169,37237.0631,4918.6349,49243.167,43842.9862,55088.2369,-1665.0259,-2351.8503,23895.9342
54111.1529,26154.9354,52301.3771,39992.2282,34905.7317,37228.7482,4914.8798,49227.9232,43832.6597,55082.1126,-1678.0347,-2364.0096,23887.9323
54091.2151,26145.7264,52294.4033,39976.269,34873.8581,37213.102,4906.3861,49199.1788,43812.5432,55068.925,-1702.3087,-2387.166,23876.667
54087.6836,26136.6069,52286.8931,39964.6908,34859.6424,37203.2225,4899.2336,49192.4733,43802.2166,55063.8288,-1711.0705,-2396.7773,23867.4581
54101.6757,26136.4728,52282.6463,39964.5567,34877.7026,37205.5471,4894.0927,49209.7735,43814.0631,55070.4449,-1693.9938,-2385.5567,23869.9168
54107.9342,26138.1716,52280.0982,39971.4857,34887.6268,37208.721,4892.1257,49223.1399,43823.3167,55070.9367,-1688.3165,-2381.891,23871.7943
54105.4755,26137.948,52278.623,39971.754,34884.4081,37211.7162,4892.3939,49217.8202,43813.5713,55065.9299,-1696.676,-2392.4857,23868.7545
54087.9965,26128.6497,52282.0204,39963.9308,34863.621,37210.3304,4893.1539,49203.6492,43804.273,55060.5655,-1707.3154,-2403.1252,23865.4017
54078.4746,26121.0501,52276.2537,39958.1641,34859.0165,37204.6977,4888.8177,49200.5199,43801.7696,55056.0504,-1713.7527,-2407.9978,23859.0539
54092.7351,26123.0618,52272.4092,39968.7588,34879.8931,37208.8552,4885.2861,49217.7755,43813.0796,55056.7657,-1699.4476,-2392.7093,23861.3337
54102.391,26126.0122,52273.4821,39972.7821,34894.377,37208.9893,4887.3425,49225.5986,43820.1427,55068.1204,-1687.8694,-2384.4391,23868.4416
54086.8342,26112.9141,52271.2916,39963.752,34886.8668,37199.4674,4888.013,49214.0204,43809.101,55062.6218,-1700.4758,-2393.7374,23863.8818
54074.1831,26106.745,52276.8348,39962.545,34869.656,37194.9524,4890.9187,49194.2167,43802.6637,55057.9727,-1713.5292,-2402.097,23861.4678
54068.1481,26103.6605,52278.8912,39957.0465,34860.6259,37189.1856,4886.9401,49189.8805,43802.3955,55056.0951,-1714.3339,-2404.3769,23859.635
54083.1685,26109.3378,52272.0516,39962.1427,34876.7191,37192.4043,4885.6884,49209.7735,43806.9999,55058.8667,-1700.6099,-2392.7093,23859.0539
54095.6855,26115.3281,52272.0516,39971.3516,34893.3488,37201.2556,4890.0247,49224.2128,43811.0232,55061.3254,-1690.3281,-2384.305,23865.357
54089.7399,26114.3893,52268.3412,39963.3944,34882.9329,37199.6462,4887.3425,49215.4956,43807.447,55057.8386,-1700.4758,-2393.4245,23861.289
54066.3153,26103.1687,52261.6357,39952.3526,34854.4568,37191.3314,4878.0888,49188.2265,43796.584,55044.0252,-1723.7216,-2408.7131,23849.2191
54065.7789,26103.2581,52258.7299,39947.0329,34854.1439,37189.8115,4873.1714,49181.3421,43799.3109,55042.1923,-1727.3873,-2408.9813,23845.9557
54076.7312,26098.296,52250.6386,39947.7035,34872.4276,37188.2021,4866.8683,49203.5598,43812.8114,55044.9193,-1719.1172,-2406.1203,23843.7653
54081.5592,26104.2863,52252.0691,39956.9571,34885.034,37192.5831,4870.9363,49229.5772,43820.4557,55044.7851,-1711.0258,-2405.0921,23844.3464
54072.3503,26109.6507,52252.8291,39958.8794,34873.724,37195.6676,4873.0373,49220.1895,43813.7949,55040.8959,-1721.9335,-2411.6188,23842.7371
54048.4786,26100.4418,52252.0691,39941.3109,34847.483,37190.2138,4871.4727,49192.518,43792.9183,55028.7366,-1740.9772,-2425.9686,23839.3843
54046.6905,26096.4632,52250.5045,39937.0641,34851.3275,37192.8513,4869.0587,49198.1059,43794.6171,55026.3226,-1741.8265,-2430.1261,23836.9256
54064.2142,26098.4749,52244.1119,39945.7812,34870.3265,37193.9242,4862.6661,49220.7706,43806.1953,55025.6073,-1731.7235,-2424.7617,23834.6457
54076.2395,26097.1338,52238.0769,39946.9435,34876.8979,37197.4558,4858.6875,49228.4149,43809.9951,55028.826,-1723.9004,-2418.2796,23832.5894
54061.085,26092.9316,52232.5784,39943.5014,34862.7269,37195.8911,4855.6477,49212.411,43794.8406,55018.0078,-1731.5894,-2426.2816,23829.4601
54042.7566,26082.2475,52232.5784,39935.3206,34838.8106,37191.1079,4857.8382,49194.8873,43786.5704,55016.4431,-1743.7488,-2433.9706,23826.465
54051.1161,26077.0619,52232.042,39930.3138,34840.8222,37192.3149,4855.4242,49202.1292,43792.8289,55017.2031,-1739.5914,-2432.1824,23829.1919
54079.5028,26085.4661,52235.4841,39945.066,34870.1924,37203.8931,4856.81,49228.3255,43810.6656,55021.6287,-1719.4748,-2417.4303,23838.8479
54077.2676,26085.332,52235.35,39951.6821,34883.514,37204.1613,4859.3581,49239.7249,43817.5946,55021.137,-1714.4233,-2411.3953,23840.4125
54062.0238,26077.0619,52236.3335,39941.892,34870.1477,37189.4538,4856.6312,49237.0427,43813.2137,55029.9436,-1728.3261,-2420.5148,23837.9538
54030.4631,26061.058,52224.2188,39919.3615,34842.968,37173.0924,4841.0743,49208.7007,43791.9796,55016.6219,-1751.8401,-2446.264,23824.1851
54025.0093,26045.0542,52218.1839,39913.55,34835.9942,37167.6385,4837.0957,49194.5297,43778.8814,55008.2624,-1754.2541,-2450.4662,23818.1949
54045.7964,26055.8277,52224.8894,39927.8998,34863.4422,37177.071,4848.2716,49220.9941,43796.4499,55019.2147,-1734.2269,-2426.5498,23828.3873
54058.3134,26057.7053,52226.9011,39933.2196,34881.9494,37179.0379,4852.5184,49238.8755,43806.4635,55023.3275,-1727.7002,-2417.3856,23832.5894
54044.0083,26051.8491,52221.179,39921.3731,34864.3363,37163.8387,4849.9703,49223.4528,43795.9135,55017.3819,-1743.3017,-2430.2602,23824.6322
54025.5457,26047.6917,52219.3909,39912.3877,34843.8621,37157.8932,4848.4951,49205.482,43780.5802,55015.8173,-1755.4164,-2443.7606,23819.8042
54017.9461,26034.5936,52209.3326,39907.8727,34838.587,37156.865,4842.1919,49194.7532,43784.5588,55009.7823,-1758.2327,-2450.4215,23815.9597
54028.7197,26030.3915,52199.4978,39903.9388,34853.3392,37150.5171,4836.604,49203.7386,43796.584,55009.6929,-1749.9626,-2444.6994,23810.7741
54038.3756,26025.8764,52194.2675,39908.4985,34861.1623,37145.2868,4831.4631,49211.2935,43797.6569,55007.7707,-1746.3863,-2448.4545,23806.5273
54022.0141,26014.03,52192.3006,39902.8212,34841.3587,37139.6542,4826.9033,49195.0214,43787.688,54997.7571,-1760.8702,-2455.9647,23802.9957
54004.848,26005.134,52188.1878,39891.9582,34822.0468,37133.5745,4825.294,49173.1614,43773.1147,54991.1857,-1778.2599,-2466.4253,23799.3747
53991.4817,25998.6073,52175.4026,39875.5074,34808.6357,37123.1139,4809.916,49163.3713,43763.1905,54983.0496,-1790.7321,-2475.1872,23788.467
53991.5711,25985.9115,52166.1043,39865.8961,34819.1857,37111.7145,4797.712,49171.9544,43763.2352,54980.9933,-1793.8614,-2480.2387,23777.1571
53996.3096,25974.6909,52159.0412,39869.1595,34826.2936,37107.7359,4793.5098,49173.519,43765.6492,54977.2829,-1786.2618,-2477.6906,23774.9666
53979.2776,25967.4489,52151.7098,39857.9836,34801.4832,37098.7058,4785.1056,49151.5696,43754.518,54967.5822,-1802.5339,-2493.3815,23765.713
53950.4886,25953.725,52142.8585,39833.7543,34769.4755,37083.4172,4775.852,49122.4676,43726.3548,54952.696,-1829.356,-2518.6837,23752.8831
53948.4322,25949.4334,52140.981,39831.9662,34763.3511,37078.9915,4773.0356,49123.8087,43725.729,54948.0915,-1832.0382,-2518.8625,23751.0949
53966.2242,25950.1934,52140.0869,39845.2878,34786.6416,37082.6125,4773.3933,49141.8242,43731.0487,54949.8796,-1818.1354,-2503.8868,23751.542
53972.2592,25951.8474,52139.5952,39855.0332,34800.0079,37087.3064,4773.0356,49153.5813,43737.7095,54951.489,-1807.0042,-2498.0754,23753.956
53959.8763,25952.5627,52137.2706,39846.8077,34784.3617,37083.5513,4773.2592,49142.1819,43732.4345,54945.007,-1818.9847,-2508.6701,23751.989
53933.3224,25938.794,52130.2521,39826.0206,34753.0693,37068.3521,4763.6479,49115.2257,43714.3296,54928.2879,-1844.1081,-2528.6973,23736.2087
53919.062,25930.4345,52128.2405,39818.9574,34747.0343,37066.4746,4761.5469,49108.1625,43709.0099,54923.4152,-1847.8185,-2529.9042,23734.6441
53942.2631,25940.5375,52127.4358,39834.5143,34778.4162,37076.8011,4769.6829,49134.4929,43725.3267,54935.351,-1828.1937,-2511.6205,23738.9356
53948.5663,25939.5987,52126.0053,39840.9069,34793.2577,37081.2267,4772.678,49143.2548,43737.039,54934.904,-1814.8273,-2504.915,23743.4953
53929.4332,25931.5521,52123.5466,39831.8768,34774.3034,37072.9566,4764.6761,49128.0556,43726.0419,54927.215,-1823.8574,-2515.8674,23737.7286
53907.7073,25915.1906,52116.6176,39814.4871,34746.4085,37060.8866,4753.1426,49104.2733,43709.6357,54914.3851,-1847.6397,-2536.118,23725.4798
53906.3215,25906.3393,52111.4767,39809.4803,34744.7991,37056.2822,4748.717,49087.6883,43692.7825,54904.5056,-1855.2393,-2545.1034,23721.3671
53921.3866,25907.2334,52104.7264,39813.8165,34758.7913,37059.0091,4748.6722,49099.2218,43693.9001,54905.2209,-1843.1246,-2534.5087,23721.8589
53920.1796,25902.6736,52094.847,39813.9507,34765.5863,37059.9031,4738.1222,49104.7204,43696.0906,54901.3764,-1836.5979,-2531.3348,23713.1417
53905.5169,25896.0128,52087.5156,39812.2072,34749.4036,37053.4211,4733.2495,49095.1091,43684.7806,54891.3628,-1851.4842,-2546.3104,23706.615
53887.6355,25891.1848,52080.6313,39796.114,34714.8031,37039.2501,4724.3983,49066.3201,43664.3064,54879.8293,-1875.7135,-2564.2812,23696.1544
53888.0378,25890.246,52084.6546,39792.4483,34706.8012,37037.909,4721.6266,49060.1957,43669.5814,54879.9187,-1878.351,-2567.8128,23697.5849
53911.9095,25895.2975,52087.7391,39809.7932,34743.0557,37048.1908,4731.1038,49088.5824,43690.1003,54886.5795,-1858.0556,-2549.4844,23709.1631
53914.234,25899.6785,52083.537,39812.6543,34756.1091,37049.1743,4731.7296,49100.3394,43693.4978,54891.2287,-1846.7009,-2544.4329,23709.6548
53903.8181,25890.8719,52077.9043,39799.6008,34734.6067,37035.0033,4719.7491,49080.4464,43676.5552,54884.2102,-1864.18,-2557.6651,23697.1825
53881.7346,25883.317,52071.2435,39781.5406,34715.4289,37021.5029,4710.5849,49059.2122,43661.803,54869.1452,-1883.9836,-2578.4075,23685.962
53872.5704,25881.5736,52065.8344,39774.8351,34703.4931,37022.4416,4707.6344,49061.805,43659.8361,54864.496,-1889.7057,-2586.3647,23682.6092
53893.3128,25890.5143,52067.7567,39780.8254,34725.7107,37030.0859,4710.8978,49087.0178,43678.4774,54879.7399,-1873.2548,-2572.1937,23685.962
53909.0037,25895.2975,52066.9967,39788.9614,34737.5572,37032.4105,4708.9309,49104.1392,43683.7971,54880.9469,-1866.1916,-2564.3706,23686.9454
53906.7686,25897.5774,52065.0744,39782.7923,34726.4707,37026.6885,4707.0086,49097.2102,43680.6679,54880.9469,-1876.9205,-2570.942,23685.5149
53896.3526,25897.0857,52067.8908,39772.8235,34704.2531,37023.0228,4706.9639,49073.6961,43668.0168,54876.9236,-1899.1828,-2584.0402,23680.7317
53904.7569,25899.8573,52072.1376,39770.4095,34709.9751,37028.9236,4708.3497,49085.3637,43666.3181,54877.5941,-1899.6745,-2582.9226,23680.374
53924.9182,25910.2732,52073.0764,39785.251,34737.8701,37039.876,4714.6082,49117.2373,43686.9711,54889.3064,-1878.351,-2566.8293,23685.1573
53927.1981,25914.4306,52070.573,39786.458,34746.4532,37039.7866,4712.1495,49119.1149,43692.9613,54889.6641,-1871.4219,-2563.8342,23685.202
53911.7754,25903.0312,52066.1473,39767.9061,34724.6826,37026.2861,4705.5334,49107.179,43681.1149,54882.5115,-1882.7766,-2578.4075,23677.6918
53892.687,25891.5424,52064.9403,39749.1306,34702.2414,37012.7857,4704.0135,49086.839,43664.1723,54872.185,-1902.8485,-2599.0158,23669.5558
53885.7579,25894.3141,52062.9287,39747.0295,34697.5923,37005.5884,4699.6325,49083.8438,43661.9371,54870.531,-1907.7659,-2599.1052,23668.8852
53894.6986,25896.6386,52057.0278,39754.4056,34708.3658,37004.6943,4689.9766,49104.7204,43673.4706,54869.2346,-1898.244,-2591.3715,23666.0689
53895.1457,25901.6007,52053.5856,39756.5514,34719.1393,37004.3367,4686.5344,49117.9973,43685.0488,54873.7049,-1894.9807,-2588.6446,23665.0407
53881.1535,25894.4035,52050.6799,39741.3969,34705.1919,36993.295,4678.5772,49096.5396,43663.1441,54862.3949,-1913.4432,-2604.6932,23654.2225
53855.5831,25880.8136,52040.8005,39719.224,34670.6808,36981.7615,4669.5024,49065.3813,43640.0771,54847.1063,-1937.5384,-2626.5979,23641.7055
53850.9786,25875.628,52033.1115,39712.1608,34661.4718,36974.6089,4664.9873,49059.5251,43635.4727,54839.5067,-1942.4558,-2632.007,23633.3013
53857.2371,25874.6445,52028.06,39713.5913,34678.6827,36972.9102,4658.4606,49076.4678,43643.8322,54838.4786,-1935.0797,-2628.1625,23629.3226
53857.1924,25872.5435,52021.0415,39717.3911,34687.2211,36969.7809,4651.1739,49081.3851,43642.4464,54837.2716,-1934.4985,-2627.5367,23620.5608
53841.4568,25865.3909,52012.4584,39706.3494,34670.3678,36961.6449,4641.2945,49062.6544,43634.2657,54827.258,-1954.9727,-2643.6746,23608.9826
53811.729,25842.9945,51998.958,39684.8917,34635.7673,36941.0366,4623.3237,49039.6321,43612.3163,54810.8518,-1979.4255,-2666.384,23593.2916
53806.5881,25827.6165,51986.9328,39672.4194,34620.4787,36929.7713,4609.3315,49028.4562,43606.5048,54798.3795,-1987.1593,-2677.7387,23582.4734
53823.5307,25831.8633,51982.2836,39677.6497,34638.539,36933.3923,4606.5152,49047.4552,43610.3046,54798.7819,-1977.8609,-2673.1789,23581.2664
53820.2226,25821.5368,51972.1359,39677.9627,34645.3339,36927.0444,4600.8378,49052.6408,43604.8061,54792.881,-1979.9173,-2677.8281,23576.7514
53792.6406,25803.0295,51957.1155,39658.7402,34622.7586,36913.5886,4588.1867,49040.0791,43592.3785,54777.8159,-1998.5586,-2693.7872,23564.9496
53768.8136,25790.7361,51949.6053,39644.5692,34596.5177,36902.6363,4581.7941,49013.257,43570.0715,54755.4642,-2021.4021,-2712.9203,23551.8962
53762.3763,25782.5553,51942.3187,39643.4516,34594.1484,36897.853,4574.9992,49012.4077,43570.2056,54743.7966,-2031.8627,-2716.7201,23542.8661
53773.731,25784.2094,51937.5354,39649.8889,34610.7334,36897.4954,4570.1712,49027.8304,43575.0782,54747.7305,-2020.7316,-2713.5909,23541.4803
53781.8223,25775.7157,51928.1477,39643.2728,34610.4205,36894.4108,4561.0517,49029.7973,43570.8761,54745.8082,-2021.7597,-2719.2682,23531.422
53765.3714,25761.7235,51919.3411,39628.4759,34585.4759,36883.8608,4556.2685,49004.0034,43553.6206,54730.7432,-2039.6858,-2738.1778,23520.5144
53735.5989,25746.7926,51911.1603,39606.9735,34549.2661,36869.3769,4542.2316,48971.0122,43531.0453,54717.198,-2065.8374,-2757.7132,23507.0139
53717.0917,25730.7887,51893.3237,39591.0144,34534.8716,36849.2156,4519.1199,48955.7236,43509.5876,54696.0086,-2081.4836,-2776.131,23486.3162
53715.9294,25720.8198,51878.3927,39584.13,34539.2078,36839.202,4505.083,48957.8694,43508.1124,54684.2068,-2086.5351,-2777.1592,23475.3191
53721.4279,25722.1162,51873.52,39590.8803,34547.3886,36837.4139,4501.1044,48967.436,43523.401,54687.9172,-2084.2552,-2773.8065,23472.3687
53703.2336,25711.2533,51866.0098,39575.6811,34530.9824,36828.7414,4491.0908,48955.366,43509.9453,54674.8638,-2101.1531,-2793.7889,23457.0354
53679.9431,25687.0687,51853.6717,39553.9552,34496.963,36810.3236,4478.3056,48924.2077,43485.4478,54660.514,-2130.2104,-2814.5313,23443.4456
53665.3697,25668.7403,51838.4278,39536.5208,34477.6958,36796.5102,4465.6098,48912.9871,43469.8462,54649.0252,-2143.2191,-2829.3282,23432.0015
53667.4708,25655.7763,51819.1606,39526.3284,34481.3168,36785.0661,4449.2483,48915.714,43463.3195,54640.1292,-2148.1365,-2835.3184,23416.9811
53661.57,25644.4663,51805.2131,39524.8532,34479.6181,36776.4384,4435.882,48910.6625,43455.9435,54624.93,-2151.534,-2842.1134,23402.5866
53643.9568,25625.1097,51795.5124,39505.9884,34452.2595,36758.0205,4425.1084,48894.1222,43433.6364,54609.2838,-2169.1918,-2861.3806,23390.8296
53619.1016,25610.2234,51787.734,39479.7921,34420.5201,36738.5298,4414.1114,48865.959,43409.1389,54593.9952,-2192.3035,-2883.0171,23378.849
53603.9919,25603.4285,51776.9605,39468.3033,34413.591,36733.0313,4402.3544,48851.8775,43408.7813,54587.692,-2201.9595,-2893.3883,23370.1319
53614.1843,25600.8804,51767.4387,39474.5171,34430.3101,36735.937,4393.9948,48867.5237,43415.6656,54587.9155,-2194.941,-2884.8052,23366.0191
53610.5633,25593.6831,51757.2016,39474.0254,34432.3218,36728.0245,4383.3107,48870.6976,43411.4635,54581.5229,-2197.2656,-2889.0967,23355.3797
53580.0308,25574.6841,51736.1909,39444.9234,34398.8389,36703.9293,4364.9822,48851.1622,43385.6249,54557.6066,-2227.4405,-2912.4767,23334.9502
53562.06,25561.2731,51724.2998,39426.9079,34365.1772,36687.4337,4353.3593,48819.5121,43358.1769,54538.6076,-2254.039,-2933.2191,23319.7063
53554.5051,25553.45,51723.6739,39417.1178,34356.4153,36680.2812,4350.9007,48810.3032,43357.6852,54537.1771,-2261.1469,-2941.3104,23314.923
53560.6295,25546.0292,51715.9849,39424.181,34375.0119,36681.0858,4348.0843,48828.0058,43372.1691,54532.9303,-2248.2276,-2936.9742,23311.6597
53571.4924,25547.415,51714.2415,39432.8535,34387.216,36686.3161,4348.4867,48825.7706,43368.4587,54530.6951,-2240.8515,-2930.9392,23309.7374
53553.611,25541.5142,51710.8887,39420.9176,34376.2189,36682.8293,4341.4235,48810.9291,43351.1585,54528.2364,-2251.7592,-2941.9363,23307.4129
53534.2544,25526.315,51702.6186,39401.114,34345.15,36670.3123,4332.6169,48786.8786,43329.8349,54516.1217,-2274.0215,-2959.5047,23298.1145
53532.064,25519.3412,51695.3766,39389.044,34333.3036,36663.9197,4324.3468,48783.4811,43326.1245,54505.6611,-2283.3198,-2968.3113,23290.5149
53543.1057,25519.1624,51690.1016,39396.1519,34349.3074,36662.3998,4321.1281,48806.6822,43339.3121,54499.7156,-2272.7251,-2960.4435,23288.2351
53549.1407,25513.8874,51683.4408,39402.7233,34359.2763,36656.3201,4315.5849,48815.8911,43341.3237,54497.7486,-2275.0497,-2958.566,23283.4071
53531.9746,25511.7416,51679.8198,39399.1917,34349.6203,36651.0898,4309.1029,48799.8426,43339.0439,54495.9158,-2285.4209,-2966.0761,23280.9931
53502.3808,25499.8952,51674.8577,39378.8069,34320.1607,36642.2832,4301.6821,48764.1692,43318.6144,54483.9799,-2306.2974,-2987.7573,23272.8124
53496.927,25493.5473,51674.2319,39371.7885,34315.5563,36643.0432,4300.4751,48760.4588,43311.5065,54476.8274,-2307.6832,-2992.7641,23266.0621
53512.5732,25497.0342,51672.2202,39384.6184,34341.976,36649.1675,4300.9669,48788.5773,43321.5201,54480.0907,-2295.9262,-2980.426,23269.0126
53521.4245,25498.0624,51669.7615,39389.5358,34352.6155,36649.8381,4299.7599,48798.0098,43325.4093,54481.8342,-2288.8184,-2978.8166,23268.0738
53509.9357,25487.3782,51658.3622,39374.2919,34328.6991,36636.9635,4289.9251,48777.0438,43309.2713,54471.91,-2302.2741,-2994.3287,23255.2886
53483.6501,25476.113,51646.6051,39357.7516,34291.8187,36621.7196,4279.2857,48760.5482,43292.6416,54458.5884,-2327.7551,-3011.6737,23244.2468
53473.1001,25471.8661,51641.8219,39354.7565,34288.7342,36614.3435,4269.7191,48765.8232,43278.2024,54450.6758,-2332.6725,-3016.2334,23237.6307
53487.2711,25471.4191,51633.7305,39362.8031,34308.8955,36617.9198,4264.8464,48769.623,43283.0304,54446.5184,-2324.0894,-3008.9915,23231.5511
53491.0709,25467.9769,51631.2718,39367.0499,34318.5514,36618.0986,4263.5053,48789.2032,43288.8865,54446.7419,-2317.7862,-3008.2315,23231.3722
53476.8999,25454.5659,51629.5731,39353.5495,34295.7526,36607.638,4257.0233,48771.8135,43276.2355,54437.533,-2335.3547,-3022.3578,23221.4481
53453.5199,25447.9051,51624.4769,39330.3484,34267.4106,36596.328,4248.6191,48734.6649,43259.5611,54426.6701,-2360.1651,-3040.9098,23210.7639
53448.6026,25453.6718,51624.9239,39325.7886,34257.6653,36591.5447,4246.8756,48732.0721,43272.4357,54429.7546,-2360.031,-3040.4627,23211.5239
53454.0564,25439.2773,51608.5178,39319.2172,34270.0034,36583.9452,4233.8669,48745.1702,43266.2219,54417.2376,-2356.4547,-3043.0555,23201.0633
53455.3975,25435.7457,51603.7792,39316.2221,34277.1113,36582.0229,4233.1517,48750.9817,43268.8594,54418.8917,-2357.2594,-3039.9263,23201.0186
53448.2002,25436.148,51600.1582,39317.1161,34263.2979,36579.1172,4232.794,48746.1984,43264.4337,54419.9198,-2364.8143,-3042.385,23201.0186
53436.8455,25431.1413,51601.4993,39304.9568,34242.2426,36568.5225,4230.4248,48715.2189,43252.3638,54413.8849,-2379.2088,-3054.902,23196.9953
53436.2644,25427.1626,51603.3322,39306.1638,34238.8004,36567.3602,4232.8835,48711.1062,43248.7875,54410.2192,-2377.8677,-3058.6123,23197.1294
53438.3655,25415.9868,51585.0484,39300.7994,34243.6284,36554.6644,4212.2304,48716.9176,43244.2725,54400.7868,-2380.9075,-3061.2499,23181.7961
53442.9699,25418.2667,51580.3546,39296.7314,34249.7528,36552.0716,4204.9885,48717.32,43234.8847,54397.6128,-2385.1544,-3065.1391,23173.5259
53435.9962,25415.2715,51584.7802,39293.7809,34244.6119,36551.1775,4206.5531,48715.8,43230.0121,54393.2766,-2389.4459,-3074.8397,23170.5308
53411.0069,25404.8556,51578.7452,39282.2027,34213.5429,36541.611,4202.8427,48688.7991,43217.5845,54384.917,-2401.1135,-3088.2061,23166.0604
53400.3228,25394.4397,51571.9056,39272.5021,34203.9764,36531.508,4196.2266,48686.7428,43213.74,54381.1619,-2408.132,-3095.1798,23161.9924
53408.8612,25390.5058,51564.7978,39272.1444,34213.3641,36525.1601,4188.3141,48698.2316,43216.4669,54375.6187,-2401.6052,-3090.62,23154.0799
53405.419,25380.1346,51554.8736,39269.2834,34210.9501,36519.9745,4178.1217,48695.2364,43206.1851,54368.4661,-2404.4216,-3092.0953,23145.1839
53385.5259,25371.1045,51545.9776,39259.4934,34195.2592,36507.9045,4170.5221,48671.9459,43186.6497,54353.6693,-2422.3477,-3107.8756,23136.3773
53363.5318,25354.8771,51532.1195,39240.6732,34166.3361,36494.0464,4160.5979,48647.6272,43172.9704,54348.6625,-2448.7227,-3129.1991,23124.3521
53353.563,25340.3038,51519.7814,39228.0221,34162.0445,36486.4022,4152.1937,48638.5971,43162.3757,54341.5099,-2457.6634,-3138.721,23114.8303
53358.525,25338.9627,51514.0593,39228.9162,34179.4789,36484.6587,4147.9915,48652.7234,43171.0929,54337.576,-2444.2971,-3130.9426,23112.9527
53355.6193,25336.4146,51504.5375,39230.1679,34185.6033,36479.6966,4140.7049,48659.8313,43174.3115,54331.094,-2444.2524,-3132.686,23106.7389
53339.1237,25321.2154,51495.8203,39211.9735,34163.028,36464.9892,4128.9032,48641.1005,43154.8655,54317.1465,-2466.8276,-3152.7132,23093.8643
53318.6942,25312.3194,51493.8533,39196.8191,34132.6296,36457.3002,4125.6398,48614.7702,43142.2591,54309.5469,-2486.6313,-3166.616,23085.6836
53322.7623,25315.9404,51493.2722,39194.1816,34126.237,36456.8979,4121.84,48608.8246,43142.1697,54312.5421,-2490.0287,-3169.3429,23085.4601
53338.632,25316.8792,51484.108,39198.2496,34145.996,36455.825,4114.0616,48624.8732,43143.6449,54310.2175,-2483.7703,-3165.9454,23080.9897
53327.3667,25307.8938,51469.6687,39184.0786,34138.9775,36439.5529,4100.2482,48629.3882,43130.5468,54294.3478,-2490.9675,-3178.82,23066.7293
53305.6855,25304.4516,51460.5492,39168.4771,34114.3459,36423.102,4090.9499,48612.6244,43120.1309,54283.9766,-2508.2678,-3197.0143,23054.8382
53283.3338,25296.5391,51453.6649,39155.4683,34091.0107,36412.552,4079.2376,48589.0657,43104.0823,54271.549,-2531.3795,-3212.1688,23046.2104
53279.0869,25284.0221,51444.456,39151.3556,34085.3333,36405.1312,4069.4922,48584.5506,43090.2243,54259.792,-2540.5884,-3223.8364,23034.5875
53290.0393,25278.5236,51439.2257,39158.9105,34104.6453,36409.0651,4064.396,48593.4019,43096.0804,54256.8415,-2530.4854,-3215.2981,23030.9665
53300.9022,25282.5469,51441.3714,39171.1146,34121.2749,36416.7541,4065.8265,48604.5778,43104.5741,54260.999,-2519.9354,-3206.8938,23035.9286
53290.844,25276.6013,51443.6066,39164.9902,34109.7414,36411.3003,4067.9276,48598.2299,43103.4118,54262.8318,-2522.3047,-3210.2019,23039.4155
53262.0996,25259.0775,51438.2422,39147.0194,34076.2585,36393.5977,4056.7964,48568.5021,43085.1281,54249.5102,-2546.9363,-3228.4409,23028.8208
53249.8509,25241.9561,51426.4405,39131.7308,34058.2877,36375.5822,4044.4583,48548.5643,43077.7967,54238.2002,-2559.4085,-3239.8403,23016.0803
53265.1395,25245.5324,51427.5134,39138.7045,34076.8397,36385.7746,4046.0229,48566.3563,43091.8783,54246.9174,-2546.8022,-3229.8714,23017.779
53260.088,25242.8055,51419.2879,39135.8882,34082.4276,36382.1983,4037.3504,48575.744,43089.9113,54240.9271,-2550.4678,-3232.5089,23011.2076
53242.3407,25236.8152,51407.3521,39127.7522,34062.8922,36368.5191,4027.0686,48564.8811,43070.2865,54226.9796,-2570.3609,-3251.4632,22996.1425
53226.9627,25236.8152,51405.251,39124.6229,34052.2528,36365.2557,4029.6167,48551.1571,43056.3837,54222.241,-2581.4474,-3259.8674,22993.3262
53230.6284,25235.6082,51405.4298,39129.1827,34056.0526,36371.8271,4033.9977,48555.9404,43065.4138,54226.175,-2574.563,-3255.1289,22996.7237
53238.9432,25233.0154,51397.7408,39131.3732,34066.4685,36369.3237,4027.2474,48573.643,43067.7384,54223.6716,-2571.6573,-3250.435,22991.4933
53243.1453,25229.3497,51386.1179,39124.4441,34059.9865,36360.0701,4017.055,48576.9063,43063.8939,54216.7425,-2574.876,-3254.9948,22985.816
53229.779,25223.1807,51378.0266,39108.4403,34034.3714,36344.2004,4010.6177,48555.2698,43044.6714,54207.5783,-2590.3434,-3274.2172,22976.4283
53203.4487,25214.2847,51375.9255,39091.9447,34011.4832,36331.147,4006.7285,48524.0668,43028.1311,54204.2702,-2609.387,-3288.6565,22972.7179
53196.2961,25207.445,51375.7467,39087.072,34007.1917,36328.8224,4001.0512,48518.1212,43024.2419,54203.1974,-2613.008,-3289.3717,22970.5274
53206.265,25201.5442,51365.1073,39090.7824,34023.0167,36326.9001,3993.4516,48530.5488,43024.0631,54193.0497,-2606.8389,-3284.9461,22963.1066
53208.5896,25201.723,51357.3289,39088.9049,34035.489,36326.9001,3985.0026,48534.7509,43025.8065,54184.6901,-2601.6086,-3283.7391,22956.5352
53197.9948,25197.1632,51357.2842,39077.5055,34013.3607,36316.4842,3977.1795,48515.3496,43008.2828,54180.5327,-2615.422,-3296.5243,22951.5731
53180.2922,25185.8979,51353.9314,39061.591,33984.6611,36304.3696,3966.2272,48486.1135,42982.3548,54170.2062,-2638.0867,-3316.3726,22936.7763
53171.0833,25175.035,51339.8945,39044.8719,33976.4357,36296.1441,3951.1621,48472.2108,42970.3742,54157.6892,-2649.9778,-3331.4824,22924.4381
53183.1086,25169.0447,51329.9704,39045.1849,33986.3151,36297.1723,3948.3905,48489.3769,42986.0651,54157.2869,-2638.3996,-3327.325,22922.2029
53185.7908,25166.2284,51324.3824,39044.3802,33991.0537,36295.1159,3946.7812,48498.8093,42985.6628,54156.5269,-2635.1362,-3324.9557,22921.6665
53169.6975,25156.3936,51317.0511,39037.0041,33980.6825,36293.1937,3942.1767,48484.1913,42976.8562,54148.4803,-2646.938,-3330.3648,22914.9163
53148.5975,25143.6532,51308.2445,39022.7884,33943.4892,36281.7049,3930.5985,48456.1622,42963.2217,54135.114,-2667.3228,-3349.9449,22903.8298
53143.546,25140.0322,51299.8402,39013.4901,33927.2171,36275.0888,3923.2224,48447.2215,42963.4452,54124.698,-2670.2285,-3359.5562,22898.9571
53160.8909,25144.5025,51294.4758,39022.5649,33951.6699,36280.0062,3921.3002,48469.5733,42969.8825,54123.491,-2662.7183,-3351.9566,22898.7783
53166.8812,25146.4248,51290.9442,39023.3696,33964.4104,36279.2462,3916.4275,48479.0504,42971.7153,54126.1733,-2664.1041,-3353.3424,22896.1855
53152.7996,25138.244,51284.4622,39020.3744,33948.8536,36269.9032,3912.2701,48463.7618,42960.8524,54119.736,-2669.692,-3361.0761,22894.3527
53148.6422,25132.7455,51293.4923,39014.6524,33932.9839,36266.8633,3916.6063,48453.5694,42953.3869,54116.1597,-2678.2751,-3365.0994,22896.3643
53151.0115,25132.5667,51298.5438,39018.5416,33937.8566,36275.5358,3923.0883,48456.6092,42957.7678,54123.2675,-2675.7717,-3358.1257,22904.858
53159.371,25150.2246,51306.7245,39035.2607,33967.2267,36284.8341,3935.203,48491.1203,42969.1672,54137.6173,-2652.8835,-3339.1714,22917.4197
53165.0037,25160.9981,51315.7099,39048.0906,33991.6795,36287.7399,3943.0261,48501.581,42973.28,54141.9089,-2637.4608,-3326.8332,22922.8735
53154.9454,25162.071,51321.4767,39048.627,33987.2986,36294.356,3952.3244,48492.4167,42973.28,54149.1508,-2638.6678,-3322.4076,22928.4614
53142.1155,25158.7182,51325.9917,39040.044,33964.8575,36292.8808,3959.164,48481.1515,42956.6056,54150.0002,-2646.8486,-3329.739,22931.233
53138.5392,25162.3392,51326.7517,39044.2461,33960.3424,36292.6573,3964.752,48467.9639,42951.5541,54147.0051,-2644.2111,-3329.0237,22933.4235
53161.6956,25173.5598,51326.3494,39052.7397,33988.5503,36295.7865,3968.3729,48476.547,42965.3227,54156.2587,-2628.6542,-3314.4057,22939.9502
53169.4293,25173.2916,51327.6905,39056.0031,34006.1188,36296.01,3967.5236,48474.7142,42965.3674,54159.3432,-2626.4191,-3308.3707,22939.3244
53155.1242,25179.2371,51334.6195,39050.2363,33992.7971,36292.8361,3969.8929,48453.3459,42948.4695,54157.7339,-2632.3199,-3317.0879,22939.2797
53132.8619,25180.31,51334.6642,39040.3569,33973.664,36285.013,3974.2291,48420.9806,42930.2305,54153.4424,-2646.4462,-3327.1462,22936.6422
53127.4974,25193.3187,51336.1394,39041.6086,33978.5367,36289.975,3979.817,48417.002,42937.2042,54158.8962,-2648.7708,-3319.5019,22941.2466
53147.167,25198.9961,51336.0947,39055.2431,34006.3423,36302.3132,3986.0755,48426.3003,42940.3782,54158.7621,-2627.7155,-3304.4815,22946.4769
53161.785,25207.2215,51337.6594,39067.0896,34012.0196,36304.5484,3986.5226,48437.5656,42939.3053,54157.5551,-2617.2549,-3294.3338,22948.9356
53143.7695,25208.4285,51335.3795,39061.7698,33995.7923,36294.1325,3983.885,48412.7998,42928.2188,54152.6377,-2622.0381,-3301.9781,22944.5547
53121.3731,25202.2594,51336.9441,39052.3374,33973.4852,36287.9634,3985.8073,48384.3684,42909.7116,54139.7631,-2635.4045,-3314.7186,22939.5926
53118.6461,25198.2808,51334.9771,39054.0361,33976.3463,36291.4503,3980.2641,48373.5949,42896.8817,54135.5163,-2638.2655,-3318.7419,22939.3244
53135.3205,25201.0524,51331.8479,39061.8593,33993.1995,36295.8312,3980.5323,48381.1051,42906.0459,54134.4881,-2624.8097,-3311.5,22937.4915
53142.8307,25203.4664,51328.1375,39063.7368,33998.8768,36297.3958,3981.1134,48382.3568,42910.6951,54133.8623,-2618.0148,-3310.1588,22935.3011
53128.5703,25195.688,51322.2814,39052.6503,33979.699,36293.9984,3974.9891,48363.6707,42898.0887,54118.8419,-2629.2354,-3321.9606,22931.8142
53111.583,25188.5355,51321.5661,39040.3569,33955.0227,36287.0693,3969.4458,48330.0984,42884.5435,54109.8118,-2645.418,-3336.8468,22928.1038
53109.1243,25188.1331,51322.4602,39040.5804,33951.6699,36285.9517,3966.9424,48314.2287,42878.8662,54115.6679,-2643.764,-3338.4115,22929.5343
53127.4527,25192.2905,51320.0015,39054.7514,33974.4687,36292.2102,3967.7024,48335.3287,42887.8963,54116.3385,-2624.5862,-3321.7371,22933.1553
53134.2924,25191.2177,51318.7498,39060.8311,33981.3083,36292.1208,3970.027,48344.9399,42895.8535,54120.8982,-2616.8078,-3314.2716,22935.3458
53132.6383,25183.9757,51320.3144,39052.5162,33964.0528,36286.1305,3969.6246,48326.0304,42886.4658,54114.8186,-2627.179,-3322.3182,22934.4517
53116.5004,25177.0467,51322.0131,39041.9662,33936.8731,36280.7661,3964.7967,48294.7826,42873.4124,54108.5154,-2645.5969,-3335.8634,22929.3108
53114.8463,25174.2303,51320.4038,39040.7145,33934.1909,36283.5377,3965.5566,48284.6797,42874.6194,54111.5552,-2640.2324,-3333.9411,22930.8307
53125.7987,25172.3528,51318.571,39047.3306,33954.531,36284.2977,3963.232,48295.0062,42877.4804,54115.9362,-2628.8778,-3322.6758,22933.1553
53138.0028,25176.7784,51317.4981,39050.1022,33963.1587,36280.8108,3963.6791,48302.4269,42885.7952,54118.216,-2623.7369,-3318.2502,22932.6189
53138.5839,25176.7784,51319.1521,39053.2315,33954.0392,36282.0625,3970.1611,48288.9265,42879.0897,54120.3618,-2626.4191,-3322.3182,22935.5246
53125.2176,25166.7649,51321.6555,39042.9497,33937.186,36275.4911,3968.06,48264.9654,42866.0363,54118.1713,-2638.936,-3331.2589,22934.7199
53122.0883,25164.8426,51326.3047,39037.2723,33930.1229,36271.4231,3965.646,48257.9023,42860.4484,54117.4114,-2640.0089,-3333.2705,22933.5129
53149.9386,25167.4354,51331.7138,39056.9419,33963.2481,36277.5475,3970.2952,48280.9246,42874.8429,54124.4745,-2622.7087,-3315.5233,22940.1737
53162.8579,25167.6142,51333.0549,39061.144,33978.492,36279.5144,3968.5071,48295.5873,42889.4609,54134.0858,-2610.7281,-3309.1307,22945.3593
53151.1456,25162.4733,51327.7799,39053.1868,33963.3822,36274.91,3965.2437,48273.6826,42889.1033,54129.526,-2616.9419,-3313.2881,22946.2087
53128.8832,25148.9282,51324.1142,39035.1713,33932.7604,36262.7953,3955.1854,48249.9003,42878.0615,54114.8186,-2635.5386,-3328.8896,22938.7432
53125.2176,25144.4578,51319.6439,39026.8117,33927.1724,36259.3532,3951.475,48250.8391,42875.6028,54114.8633,-2639.7407,-3337.5621,22935.6587
53143.8589,25150.1799,51315.0841,39037.7194,33952.4746,36266.6398,3953.1291,48267.737,42881.012,54118.529,-2620.697,-3322.0947,22937.5362
53151.4585,25149.4199,51312.8489,39041.8321,33961.1918,36271.6466,3955.7666,48275.3366,42882.8448,54119.423,-2611.4881,-3312.1258,22938.8326
53136.3934,25147.9894,51309.3621,39037.0488,33948.4066,36269.0091,3954.7831,48266.7089,42879.4026,54118.4396,-2620.1159,-3322.1394,22935.7034
53115.2487,25139.3616,51306.6798,39021.045,33922.4786,36263.1977,3950.8045,48248.291,42874.2617,54112.1364,-2640.5901,-3340.0655,22933.0212
53122.5353,25140.7474,51310.2561,39024.3083,33923.3726,36265.9693,3957.1077,48259.3775,42873.9488,54111.7787,-2639.4278,-3335.2375,22933.2894
53139.9697,25146.9612,51310.569,39034.9925,33950.5523,36270.5737,3959.4322,48293.3521,42884.9906,54120.9877,-2623.558,-3320.7536,22936.3739
53149.3574,25146.6483,51310.9267,39041.5639,33961.6835,36269.7691,3957.4206,48301.2646,42902.4249,54127.872,-2616.3161,-3311.3658,22937.8045
53136.5722,25133.0584,51309.675,39041.5192,33950.7312,36260.8284,3957.4653,48281.1928,42892.6349,54122.3288,-2624.6756,-3318.1608,22935.0775
53114.5781,25121.8379,51312.2678,39031.2374,33929.8099,36246.3892,3957.8676,48250.8391,42879.0897,54115.7573,-2638.8019,-3333.2705,22932.753
53115.6957,25121.2567,51313.3854,39033.7855,33937.5436,36249.3396,3959.6558,48254.1919,42884.9012,54116.3832,-2630.3083,-3327.9061,22937.8492
53128.6597,25123.0896,51311.8207,39038.4346,33955.7379,36256.9392,3957.0183,48265.4124,42897.5075,54117.4114,-2617.3443,-3318.3843,22935.7034
53144.3059,25123.7601,51308.3786,39045.6766,33968.8808,36262.2589,3955.9007,48278.1529,42894.3783,54115.2656,-2609.7,-3315.1209,22933.96
53132.8171,25123.0001,51304.4447,39037.0041,33956.4532,36263.5106,3952.235,48269.5699,42882.8895,54109.32,-2622.664,-3322.8993,22930.4731
53121.2837,25130.555,51308.6021,39035.3501,33937.4989,36269.0538,3956.0348,48264.0266,42884.9906,54110.7953,-2632.8564,-3328.6661,22931.4566
53122.6248,25135.0254,51311.9996,39040.5357,33943.8021,36273.3454,3957.4653,48265.3677,42890.2656,54120.4512,-2631.9623,-3323.8381,22937.2233
53137.511,25140.8368,51312.8489,39052.0692,33965.081,36277.1451,3959.3428,48299.8341,42906.3141,54134.6669,-2614.1256,-3309.7565,22943.8841
53151.1456,25148.2576,51317.8557,39059.8029,33987.6115,36283.9848,3966.1825,48325.2257,42918.7864,54140.9701,-2600.2675,-3299.43,22950.6344
53143.2331,25156.5725,51323.086,39057.7912,33984.08,36285.2812,3970.9657,48325.7622,42921.3792,54141.6854,-2608.2247,-3303.8557,22950.4555
53135.1417,25160.6852,51326.5282,39052.0245,33961.4153,36285.1471,3972.3963,48310.0265,42910.0692,54137.1256,-2623.3345,-3316.8644,22946.9687
53138.9862,25166.7649,51327.7352,39047.3306,33955.7827,36288.6339,3968.4623,48305.1538,42909.4434,54135.3822,-2626.732,-3319.0995,22947.371
53166.3001,25180.0865,51329.4786,39058.3277,33972.5912,36298.0664,3970.6528,48334.7923,42924.5532,54140.8807,-2608.6271,-3305.6885,22951.8414
53186.9978,25192.7823,51335.156,39074.108,33993.7359,36311.9245,3977.6713,48352.6736,42936.936,54145.4852,-2598.6582,-3293.3056,22956.0435
53174.9725,25186.345,51338.6428,39071.8281,33989.5785,36314.9196,3974.5867,48343.1965,42935.4161,54143.0265,-2605.5872,-3296.4796,22954.1659
53158.2981,25184.2886,51340.0733,39072.454,33976.9721,36315.6796,3976.3749,48334.2558,42924.5532,54137.6621,-2610.907,-3307.0296,22953.853
53164.8248,25181.2488,51341.8168,39075.4938,33974.9604,36323.1897,3978.163,48345.2529,42928.5765,54141.7301,-2609.2529,-3303.4086,22958.7704
53188.026,25181.964,51337.57,39077.5949,33993.1101,36325.0673,3974.095,48363.0449,42945.1168,54146.7816,-2596.9595,-3289.5952,22959.8433
53193.9268,25182.0982,51340.2522,39076.3432,34009.0245,36323.0556,3976.1961,48376.2324,42954.9515,54150.6708,-2590.6563,-3287.0024,22961.2291
53179.3982,25174.0068,51339.8498,39067.8495,33998.7427,36313.0867,3973.3797,48360.1838,42943.3733,54141.8642,-2604.0226,-3300.3688,22952.9589
53153.2466,25171.1011,51334.6195,39049.2082,33970.803,36296.3676,3965.2884,48329.9643,42921.3345,54131.8059,-2625.1674,-3321.29,22941.2913
53147.8822,25169.8494,51328.4951,39049.8787,33973.217,36291.4503,3965.1096,48328.7126,42915.6125,54126.8885,-2624.9439,-3323.5699,22937.8492
53163.9755,25177.8513,51332.2055,39059.8029,33994.7641,36295.2054,3969.8929,48360.2285,42935.9078,54150.2684,-2607.8671,-3311.0976,22949.2486
53180.4711,25185.4062,51332.9655,39062.5298,34005.5376,36303.0732,3967.1659,48378.244,42950.7047,54156.6163,-2603.7991,-3304.4368,22952.1543
53175.509,25185.0039,51330.9538,39056.0031,33992.7971,36293.596,3966.2719,48368.5434,42949.9,54156.5269,-2611.3093,-3308.9519,22952.0649
53160.0863,25179.0583,51331.4456,39037.7194,33973.664,36278.2627,3961.3992,48344.0459,42936.1314,54150.5814,-2629.9059,-3325.9392,22947.0581
53151.2797,25170.2517,51323.8907,39024.3083,33961.8176,36269.0091,3955.4089,48335.2393,42932.2869,54145.5746,-2639.9195,-3332.7341,22942.1407
53172.7374,25173.5151,51317.4981,39034.456,33984.08,36273.0771,3957.8676,48352.6736,42947.1284,54148.1227,-2627.939,-3315.7915,22943.3924
53187.4448,25193.4975,51323.8013,39048.9399,34004.8224,36286.8905,3968.4623,48374.2654,42952.4034,54155.9905,-2610.7728,-3301.7099,22951.7967
53181.6334,25200.6948,51331.3562,39048.0906,33997.938,36291.6738,3975.302,48363.3131,42945.2062,54156.3034,-2616.5396,-3307.7896,22952.6907
53161.5615,25191.7094,51332.0267,39033.6961,33971.9653,36283.3142,3972.3516,48344.7611,42934.4773,54149.9555,-2633.0799,-3325.0004,22945.8511
53160.4439,25189.3848,51335.9606,39029.4045,33969.8642,36280.0062,3973.2009,48353.4783,42933.5833,54149.7767,-2635.5386,-3327.2803,22947.0581
53180.2475,25192.9164,51332.6079,39039.2393,33992.7971,36282.8225,3974.1844,48373.729,42948.6483,54155.1858,-2624.1839,-3314.8974,22947.1028
53195.5808,25199.0408,51330.2833,39052.6056,34011.7067,36286.3988,3974.7655,48381.5968,42953.4763,54159.3879,-2614.3938,-3308.4601,22945.3146
53182.8851,25197.3867,51329.7915,39047.8671,33997.5357,36284.0742,3970.6528,48369.7504,42948.1566,54159.7456,-2619.3559,-3309.5777,22944.3312
53163.9755,25192.4694,51331.982,39039.9992,33977.4191,36280.5873,3972.1727,48350.5279,42937.2489,54154.6494,-2632.0964,-3318.2502,22944.7782
53172.2903,25192.0223,51333.4125,39042.2791,33983.9458,36281.9731,3976.4643,48354.9088,42938.7689,54155.7223,-2629.7271,-3316.8197,22949.1144
53200.99,25201.8571,51344.6778,39060.6523,34009.2927,36297.5746,3988.3554,48379.8087,42962.5958,54174.1401,-2606.3919,-3294.7809,22963.3749
53215.9656,25211.1107,51354.8255,39075.2703,34025.9671,36310.6728,3997.6984,48394.8737,42977.2586,54182.9914,-2594.2773,-3284.0967,22973.0308
53209.2601,25214.8658,51363.945,39073.5716,34014.523,36317.5124,4000.6936,48390.3587,42973.727,54183.8855,-2597.7194,-3287.5836,22978.4846
53195.9832,25210.8872,51364.9285,39057.2995,33996.284,36311.4774,3999.0842,48367.3364,42962.1041,54176.3753,-2610.3258,-3300.7711,22972.4497
53187.6236,25203.9135,51365.0179,39060.6523,34001.112,36314.0255,3996.402,48364.2071,42956.695,54173.1566,-2607.6436,-3299.2512,22970.4827
53204.7004,25211.1107,51368.9071,39078.2654,34029.7222,36323.5474,4002.7052,48390.1799,42975.381,54184.9136,-2586.32,-3279.1793,22979.2893
53217.8432,25218.2186,51373.601,39082.7358,34044.1167,36329.6717,4005.0745,48407.2566,42991.3849,54195.866,-2577.9158,-3269.2999,22983.8938
53213.954,25221.3031,51376.7749,39083.004,34032.1809,36331.0128,4009.0531,48403.4121,42986.4228,54193.0944,-2577.5135,-3267.4223,22988.7217
53201.9287,25224.1194,51386.0285,39083.8087,34019.2616,36337.629,4018.8879,48386.5589,42984.0982,54193.452,-2582.6097,-3271.6691,22994.9802
53199.6936,25230.8249,51396.2656,39087.8767,34023.5531,36344.558,4030.9131,48387.8553,42995.1847,54199.9787,-2575.5465,-3259.4651,23004.3232
53209.1707,25232.1213,51394.1646,39091.2294,34047.6036,36346.525,4029.9296,48405.1555,43000.415,54202.2139,-2561.7331,-3246.1435,23006.4243
53219.0502,25235.2506,51391.1247,39092.4811,34052.2081,36345.5415,4024.0288,48412.174,43003.4548,54203.2421,-2555.564,-3248.1998,23005.0385
53215.9656,25230.9144,51388.9343,39092.7941,34043.8932,36338.9701,4019.3796,48397.1983,42994.6929,54192.8262,-2567.8575,-3259.5098,22996.0084
53200.2747,25213.7482,51380.7535,39075.9408,34011.8408,36324.352,4009.1872,48376.4112,42969.8378,54178.1187,-2591.5056,-3279.6711,22983.6702
53205.4603,25218.7997,51386.1179,39079.1595,34015.1936,36336.0196,4016.2057,48388.7494,42980.1196,54193.9884,-2582.252,-3271.6691,22990.9569
53230.1813,25236.8599,51390.633,39100.036,34043.9379,36345.8097,4024.5652,48417.449,42999.2974,54203.3762,-2558.8721,-3251.2397,22997.9306
53245.5146,25237.9328,51385.9391,39103.5676,34048.5871,36341.0711,4020.229,48423.6181,43006.3605,54197.9671,-2561.152,-3251.5973,22993.0133
53229.5108,25226.5334,51383.3463,39093.2858,34035.7572,36333.8292,4010.1707,48411.0117,42998.9398,54190.5016,-2575.5018,-3267.3329,22987.2018
53202.1075,25216.4751,51378.2948,39079.5618,34007.5493,36323.3238,4003.7781,48381.5074,42984.3664,54181.3821,-2593.7855,-3285.1249,22978.3952
53205.3262,25214.8658,51378.7866,39077.8631,34006.4317,36324.2626,4005.4321,48374.5784,42984.7687,54180.8009,-2593.3385,-3281.7274,22979.7363
53241.6254,25237.1728,51395.6398,39105.4004,34048.6765,36351.9788,4024.3417,48417.6725,43015.3012,54203.108,-2556.5028,-3247.574,23002.1328
53257.674,25255.8589,51404.357,39115.9505,34065.7532,36360.8748,4036.6799,48437.655,43033.7638,54213.9709,-2544.4329,-3234.6547,23011.5205
53246.9004,25249.6004,51400.8254,39106.8757,34050.5093,36349.833,4035.0705,48429.3848,43027.7735,54212.8533,-2555.9664,-3243.9977,23007.2737
53219.4078,25237.5305,51392.0188,39090.8718,34023.0614,36341.4735,4026.711,48406.7202,43005.3771,54201.8563,-2578.0052,-3261.6556,22998.4671
53224.057,25232.7025,51389.8283,39089.7989,34022.8826,36344.5133,4026.264,48406.8543,43005.2876,54203.2421,-2580.9109,-3261.2979,23000.2552
53240.4184,25233.7307,51388.0402,39094.8951,34038.1712,36344.8709,4022.8665,48431.6647,43020.308,54209.5006,-2568.0363,-3252.8043,22999.987
53239.9267,25235.5635,51379.77,39088.4578,34041.211,36336.869,4015.848,48435.1069,43021.6938,54207.3548,-2568.841,-3256.917,22993.0133
53225.6216,25225.5052,51369.6223,39074.4209,34022.8826,36320.9993,4003.5993,48412.8892,43002.0243,54193.4073,-2584.8448,-3272.5632,22984.6537
53209.9754,25214.8658,51366.4484,39061.3675,33998.2957,36310.181,3996.1785,48388.66,42986.4228,54176.867,-2605.7661,-3287.7177,22975.0872
53203.4487,25211.6472,51366.0908,39051.1751,33993.6018,36311.3433,3994.4798,48389.2858,42990.9378,54183.1702,-2608.2247,-3290.4893,22974.2825
53216.9044,25210.7531,51365.6884,39061.591,34014.523,36318.2724,3998.1008,48411.9505,43001.2196,54182.5444,-2594.009,-3279.8946,22976.2495
53234.4282,25217.0563,51364.5709,39075.8067,34026.7271,36320.9993,4000.6489,48423.2605,43008.0146,54183.7066,-2584.7107,-3269.0763,22976.4283
53223.0288,25209.5908,51365.2861,39075.6279,34018.0993,36312.0139,3999.0842,48408.1507,43002.0243,54180.7562,-2593.0256,-3280.5651,22972.8073
53209.2601,25212.8094,51374.3162,39074.555,34000.8885,36318.9429,4010.0813,48400.7299,43001.309,54183.4384,-2597.4512,-3285.259,22979.0658
53215.2951,25223.0465,51384.2404,39079.9642,34011.5726,36329.8953,4018.3067,48418.4325,43013.1555,54193.5414,-2586.9459,-3273.9043,22990.7781
53239.0326,25239.0504,51393.1811,39100.4831,34049.2129,36347.5084,4029.9296,48454.1953,43032.378,54206.1478,-2561.152,-3251.4632,23001.0152
53257.7634,25249.1981,51396.9809,39106.9651,34064.4121,36354.2587,4034.7576,48468.7686,43047.0407,54215.4461,-2551.6301,-3242.746,23005.3514
53250.6108,25246.7841,51400.2442,39109.0661,34054.5326,36354.6163,4035.9646,48458.4868,43041.9892,54211.3334,-2556.5028,-3248.4233,23003.4739
53231.3436,25247.7229,51404.044,39104.3276,34039.1546,36355.7339,4037.4398,48446.8192,43030.2769,54207.4889,-2571.2103,-3257.7664,23003.9209
53235.5011,25249.511,51407.3074,39105.9816,34039.557,36357.969,4038.6468,48445.791,43037.2059,54208.2489,-2567.7681,-3254.7265,23005.9326
53255.2153,25255.5907,51410.079,39119.795,34067.3625,36363.6464,4040.7479,48466.7122,43058.7083,54218.7989,-2548.7244,-3237.2922,23012.8169
53261.6079,25260.1951,51409.3637,39129.138,34080.9524,36366.418,4047.5875,48484.5936,43065.2797,54228.5442,-2540.0072,-3231.1678,23019.433
53245.5146,25259.2117,51405.5192,39120.9573,34067.5861,36367.8932,4045.71,48474.8483,43054.2827,54218.8436,-2555.4746,-3239.7509,23014.5156
53227.9462,25252.0144,51404.2675,39109.1555,34043.9826,36361.4559,4040.882,48458.9338,43039.754,54209.9476,-2572.9537,-3251.3291,23010.0006
53243.3242,25249.9133,51410.4813,39110.5413,34042.9991,36367.0439,4044.2348,48467.7851,43046.236,54223.5374,-2562.806,-3248.2445,23017.9578
53264.6477,25252.9532,51409.8108,39131.4626,34068.346,36376.6104,4047.0511,48496.4848,43062.8657,54230.8688,-2542.3765,-3233.8053,23024.8421
53278.1482,25256.9765,51411.5095,39137.6317,34084.4393,36378.9797,4048.3028,48508.8229,43069.5266,54231.8523,-2532.497,-3224.9093,23028.4631
53270.7274,25254.6966,51411.1072,39130.8814,34074.1575,36379.829,4044.3242,48496.0824,43063.6704,54228.1419,-2542.8236,-3233.0006,23024.708
53243.4583,25247.2311,51410.1684,39113.4471,34039.2888,36370.1284,4041.5972,48472.3449,43041.1398,54212.2275,-2564.46,-3248.2445,23015.5438
53244.71,25247.0076,51412.5824,39109.1555,34041.6133,36367.3568,4041.9102,48474.4906,43037.2059,54210.7075,-2567.4552,-3250.4797,23012.504
53268.6263,25259.3458,51415.5775,39118.2303,34069.7765,36376.6551,4046.3805,48498.8987,43058.8424,54221.8387,-2550.7808,-3236.3981,23017.4214
53276.36,25264.7102,51415.354,39122.8348,34079.0302,36378.3091,4045.1735,48500.4187,43061.4799,54225.6385,-2540.9013,-3231.7042,23018.4495
53252.7566,25258.0047,51407.3968,39110.139,34058.556,36370.1284,4035.7411,48484.8619,43047.8901,54217.6813,-2553.3289,-3248.1104,23010.9394
53240.2396,25250.8968,51407.0392,39103.21,34035.5337,36364.4511,4036.5458,48467.2487,43034.1214,54213.658,-2572.3279,-3261.745,23008.123
53241.7148,25245.8006,51407.0392,39103.3441,34037.143,36364.2275,4038.1998,48467.2934,43038.5023,54214.0156,-2574.3842,-3260.3145,23008.7936
53255.6623,25250.4498,51409.1849,39113.5365,34057.7513,36370.3519,4039.2727,48494.5178,43053.7462,54219.3353,-2560.3473,-3247.8869,23010.9394
53265.9441,25251.4333,51412.046,39124.0418,34077.3761,36372.8553,4043.0278,48518.4342,43071.717,54225.9067,-2549.7526,-3240.2873,23013.8004
53252.0413,25247.097,51408.9167,39116.3081,34071.9223,36368.9214,4039.228,48507.0348,43064.6092,54220.4082,-2562.4931,-3249.0939,23008.6595
53229.9131,25242.9843,51408.5144,39101.4218,34043.1333,36360.6066,4035.0705,48482.4926,43042.1233,54214.7756,-2581.358,-3261.2085,23004.6809
53238.9879,25245.4877,51410.9731,39106.1157,34038.8417,36358.0585,4038.1104,48487.6782,43044.8949,54219.9165,-2580.151,-3260.1804,23006.5584
53261.6973,25251.925,51414.147,39121.4043,34063.3839,36365.3004,4043.1619,48509.6276,43065.8609,54226.2644,-2562.8507,-3244.3553,23012.9063
53265.4971,25256.2612,51416.3375,39120.4208,34075.6774,36368.6979,4041.7761,48524.4691,43074.6228,54228.9466,-2551.049,-3237.1581,23018.539
53263.2619,25251.0756,51419.4667,39121.5384,34066.1556,36368.6085,4043.1172,48511.8181,43063.9833,54224.0292,-2557.6651,-3241.8519,23020.2377
53241.4466,25242.582,51417.2316,39104.5511,34039.7358,36360.696,4035.5623,48482.8055,43051.9581,54217.6813,-2577.0217,-3259.2416,23013.3086
53241.1337,25243.9678,51415.4434,39103.2994,34038.5735,36362.6629,4036.7693,48481.4644,43050.4382,54221.4364,-2577.2452,-3256.7382,23015.7673
53267.2852,25250.4051,51418.8409,39120.9126,34066.0661,36373.8388,4042.4913,48504.7996,43079.0037,54237.619,-2551.8537,-3233.0006,23026.7197
53280.4281,25255.5013,51419.9138,39133.7872,34077.8232,36381.5278,4045.6206,48518.3001,43089.062,54242.3576,-2535.4922,-3222.9871,23030.5642
53273.3202,25259.8822,51421.1655,39134.8153,34076.1691,36381.9748,4048.3028,48515.9755,43083.5634,54240.9271,-2538.9791,-3228.7538,23031.1453
53263.2172,25256.8424,51422.7301,39125.2041,34058.556,36379.1138,4050.0015,48505.9619,43075.6509,54236.9038,-2542.913,-3237.918,23035.7051
53268.3134,25259.7928,51431.6708,39136.7376,34069.0166,36388.1439,4060.1045,48521.5634,43084.3234,54248.3926,-2533.8382,-3228.8879,23042.3212
53293.8838,25277.9871,51443.5172,39160.8328,34102.7677,36405.9806,4071.5039,48550.8889,43107.4351,54265.0223,-2513.5875,-3204.7927,23055.4193
53307.116,25288.0454,51447.317,39168.2535,34117.9222,36418.4976,4079.5505,48566.9374,43112.6654,54271.8619,-2499.7294,-3195.9414,23061.0073
53301.7963,25287.4196,51448.5687,39166.5548,34107.0592,36418.3635,4084.8255,48564.3446,43114.1853,54267.9727,-2503.8421,-3196.6567,23062.9295
53294.5544,25285.1397,51457.6882,39165.5266,34084.0369,36420.7327,4090.4135,48560.8131,43106.2728,54269.9397,-2514.8392,-3201.2165,23066.1482
53295.6272,25288.403,51456.7941,39166.8677,34083.1876,36425.6948,4092.0228,48564.2552,43113.783,54275.3488,-2511.844,-3198.4448,23070.3503
53315.2074,25294.0357,51451.8321,39171.6957,34107.1486,36433.1603,4092.291,48584.5506,43127.4176,54274.0971,-2500.5341,-3187.5372,23072.4066
53318.0237,25297.5225,51450.1333,39172.6345,34121.4538,36430.2546,4091.3969,48591.6585,43130.2786,54273.5606,-2502.1434,-3186.509,23071.1997
53304.255,25294.1698,51452.6814,39163.4703,34108.2215,36425.4266,4086.256,48581.1085,43123.3495,54272.6219,-2509.2959,-3195.0921,23067.6234
53290.7993,25292.7393,51456.3024,39161.5033,34090.6531,36422.8785,4085.5855,48563.54,43119.7286,54273.0689,-2517.5661,-3207.3408,23065.6117
53299.7847,25304.3175,51462.248,39173.3497,34106.9698,36431.6404,4093.8556,48570.7372,43126.1212,54282.1437,-2508.3572,-3202.5129,23071.1102
53326.9644,25318.3991,51473.2003,39189.1748,34140.4527,36446.3925,4104.048,48607.9305,43150.1716,54296.8512,-2480.5069,-3179.8035,23085.1024
53351.1937,25332.9724,51483.4821,39212.1524,34169.957,36467.8502,4117.012,48628.8518,43166.4437,54308.4294,-2460.9715,-3163.1738,23098.5582
53354.7252,25344.7741,51495.4627,39216.8015,34165.889,36476.6121,4127.562,48628.7177,43175.2056,54320.0523,-2461.0162,-3156.6918,23107.7671
53334.6087,25343.0307,51499.933,39208.7996,34138.2176,36470.3983,4128.2773,48614.3231,43160.8558,54316.3419,-2473.8461,-3165.3196,23105.4425
53339.9731,25345.6682,51509.7678,39215.5945,34150.2428,36475.8074,4134.6699,48622.191,43158.4865,54323.718,-2468.0346,-3158.614,23112.5057
53368.8962,25354.743,51512.897,39232.4924,34180.1047,36485.9104,4142.1801,48649.7283,43179.0054,54334.2233,-2447.1134,-3136.7987,23122.6981
53386.5094,25361.7167,51515.311,39243.8024,34192.0406,36495.5217,4147.4998,48663.2735,43187.1861,54343.0299,-2432.2271,-3123.5218,23129.2695
53379.2675,25367.707,51520.4966,39249.9715,34190.9677,36499.992,4153.356,48649.773,43192.9529,54344.9074,-2435.9375,-3124.3265,23137.0032
53363.3977,25359.6157,51523.7153,39241.299,34172.0134,36490.1125,4153.8477,48633.0986,43182.4028,54341.9123,-2451.1367,-3134.9212,23131.7282
53363.353,25358.3193,51522.4636,39237.8569,34169.9123,36490.6937,4154.8312,48630.5505,43188.4378,54343.2534,-2444.3418,-3129.7803,23132.8458
53384.1401,25365.1142,51524.7434,39253.1902,34183.3234,36496.8628,4158.6757,48657.5514,43205.7381,54348.7966,-2422.5712,-3111.1836,23141.0265
53394.1537,25370.5233,51529.1691,39267.8529,34207.9103,36508.0386,4166.32,48682.8089,43217.5845,54356.0386,-2409.4731,-3094.3751,23148.8943
53384.1848,25370.568,51532.9242,39261.1027,34196.9132,36507.7704,4171.9526,48673.9576,43214.0976,54356.2621,-2417.2068,-3101.5277,23154.7505
53374.5289,25370.7469,51537.0369,39252.7431,34185.8268,36509.648,4178.1664,48657.1491,43209.672,54358.2737,-2423.5547,-3103.5841,23160.3384
53380.5639,25370.568,51536.0534,39264.9472,34194.6334,36513.0007,4180.5804,48660.9489,43214.0082,54358.229,-2418.0114,-3098.4432,23162.3948
53388.2976,25367.1706,51531.4043,39261.2368,34205.3622,36507.3234,4171.4609,48675.2093,43221.2502,54359.6148,-2406.2544,-3093.9281,23157.1198
53390.2198,25367.5729,51527.2915,39258.5546,34211.6654,36498.7403,4164.8448,48686.4746,43211.4601,54357.6926,-2409.5625,-3097.2362,23150.7272
53366.1246,25353.6254,51515.758,39245.6353,34189.716,36481.1271,4150.629,48663.5864,43192.5952,54343.4769,-2433.3,-3116.0563,23138.2549
53338.8555,25338.3368,51503.0622,39220.6907,34150.511,36466.0621,4140.3025,48630.5505,43166.4437,54329.1718,-2465.71,-3144.7113,23123.5027
53328.9313,25334.8947,51495.5968,39211.3924,34138.0835,36455.065,4131.943,48620.5369,43156.0725,54323.0921,-2476.1707,-3154.1437,23117.1101
53342.3424,25331.1843,51495.0156,39222.0765,34150.9134,36459.8036,4128.5455,48637.256,43159.6488,54324.2097,-2462.6255,-3148.6005,23118.0936
53348.1538,25331.2737,51491.5735,39217.8744,34157.4401,36460.9212,4128.9479,48642.4416,43162.7333,54319.9629,-2455.3835,-3145.1583,23112.0586
53341.7165,25332.3913,51493.4957,39211.9288,34149.9299,36454.2603,4126.5339,48634.1715,43157.3689,54319.6052,-2465.6653,-3150.9697,23108.3483
53332.15,25328.3679,51492.1099,39202.6305,34127.5781,36450.55,4123.0917,48610.3445,43148.8305,54312.4527,-2486.3631,-3168.0912,23102.7156
53326.3385,25324.8811,51487.416,39192.7063,34121.4538,36450.9523,4117.012,48603.6837,43149.9928,54304.0931,-2492.1298,-3172.2933,23098.6923
53336.0392,25328.7256,51486.1196,39205.6704,34145.3701,36456.0485,4117.1014,48624.1132,43162.9568,54306.0601,-2477.3329,-3157.0047,23100.1228
53351.596,25328.5915,51486.6114,39213.8511,34157.8871,36456.4955,4120.9012,48629.2094,43162.1522,54306.5071,-2472.0579,-3151.5509,23100.0334
53335.8604,25318.9355,51483.348,39197.4002,34132.4955,36444.2468,4114.8663,48612.8479,43147.8471,54302.0815,-2482.7421,-3164.649,23093.0597
53314.0004,25307.0444,51479.4588,39181.9775,34100.2643,36435.2167,4109.8148,48587.6799,43136.4924,54292.7831,-2499.8635,-3177.2554,23085.4601
53323.9692,25311.2465,51482.4539,39193.6004,34110.9931,36443.5315,4110.1724,48593.4913,43142.9297,54292.5596,-2496.3319,-3170.0134,23086.4435
53336.4862,25316.6556,51482.5433,39203.9716,34140.2739,36450.997,4115.2686,48612.0433,43160.4534,54300.9192,-2479.3893,-3154.8142,23093.3279
53339.1237,25316.8792,51484.1527,39204.5528,34142.6879,36449.4771,4118.219,48632.8751,43164.432,54305.2554,-2470.4933,-3147.2147,23096.6806
53330.7195,25316.745,51485.6279,39203.167,34133.7025,36445.9902,4115.2239,48636.0043,43159.917,54302.9308,-2476.4836,-3156.1553,23096.77
53307.0713,25310.1736,51483.348,39196.9532,34110.7249,36442.5033,4111.3347,48617.1842,43154.5526,54295.9571,-2491.2357,-3171.578,23095.0713
53301.1258,25313.3476,51480.8446,39193.6898,34113.8542,36443.0845,4113.4357,48626.4825,43159.6488,54298.0134,-2489.7605,-3171.3992,23096.5465
53319.9012,25321.5283,51478.2071,39202.3176,34139.7375,36453.6345,4116.8779,48647.6272,43173.2386,54306.7753,-2474.7849,-3157.4965,23096.6359
53333.6252,25324.5682,51477.1342,39210.543,34149.1699,36456.1826,4115.6709,48663.7205,43175.3397,54306.1048,-2468.6605,-3152.445,23096.9936
53324.5504,25318.3097,51476.2849,39200.7977,34133.926,36443.5315,4113.0781,48653.3046,43157.3689,54294.3478,-2482.608,-3167.4206,23090.5116
53311.497,25307.9385,51474.4073,39191.2758,34113.9436,36437.0495,4111.1112,48627.3319,43155.4466,54289.2069,-2497.5389,-3175.0649,23087.1141
53311.497,25305.3904,51473.5579,39190.4712,34109.9203,36436.9154,4108.9654,48625.9013,43151.9151,54289.9668,-2497.5389,-3174.1261,23087.5611
53323.8351,25310.3077,51473.6921,39195.3439,34127.0417,36439.9999,4106.8643,48641.9499,43154.1502,54291.2185,-2488.8664,-3166.3477,23084.7001
53331.1665,25313.0794,51471.8145,39202.9434,34142.6879,36441.8775,4107.0431,48650.0859,43159.5594,54294.2584,-2478.227,-3164.649,23084.6554
53316.8614,25308.7878,51470.9204,39195.2097,34124.2254,36440.8046,4100.6058,48631.1764,43153.7926,54290.995,-2487.3465,-3173.3215,23080.4533
53295.8061,25299.8918,51468.8194,39176.3002,34092.3071,36432.3556,4092.3804,48600.2415,43131.9326,54277.9416,-2511.1288,-3187.6266,23073.1666
53304.7915,25305.0774,51473.0662,39187.2078,34097.6715,36440.447,4095.8226,48602.4767,43130.0551,54279.8638,-2508.8489,-3183.1563,23074.8206
53327.4561,25312.8558,51471.0993,39198.2943,34125.2536,36445.2749,4096.0014,48625.946,43151.8257,54285.4518,-2489.4923,-3166.6607,23078.084
53324.9974,25316.6556,51465.9137,39199.9036,34132.1379,36441.6093,4091.3075,48634.842,43158.5312,54283.1719,-2486.9442,-3165.5431,23072.8537
53316.5485,25309.5478,51459.2975,39194.0475,34115.8658,36436.066,4086.1219,48628.0024,43145.0754,54271.8619,-2496.6002,-3177.5683,23065.7011
53303.495,25305.4798,51459.2081,39182.7375,34090.1166,36432.0874,4080.534,48608.1094,43127.7305,54262.9212,-2507.0161,-3193.8851,23063.6895
53302.3328,25302.7529,51456.3024,39171.204,34081.31,36431.551,4073.4261,48607.8411,43117.6722,54259.3896,-2518.9519,-3199.9648,23061.499
53323.2987,25307.2232,51453.6649,39181.2176,34106.791,36437.0495,4073.7391,48626.259,43130.815,54264.3964,-2501.8752,-3187.1349,23064.9412
53333.7593,25304.8539,51453.6202,39183.2292,34118.4139,36436.5578,4070.6098,48636.4514,43139.8451,54263.3235,-2495.9296,-3181.5916,23066.5952
53317.0849,25297.3884,51447.0935,39171.2487,34100.5325,36427.3489,4065.7371,48620.984,43127.7752,54256.3051,-2505.7197,-3191.6946,23059.3532
53293.7944,25281.1611,51442.4443,39153.9931,34075.2304,36420.0622,4061.7138,48598.0064,43109.1785,54247.9455,-2526.6856,-3210.1572,23048.3562
53288.0276,25270.2087,51436.6776,39146.7512,34072.6823,36412.8202,4058.8975,48581.1085,43099.4332,54245.1292,-2534.4193,-3216.7733,23044.467
53300.6787,25269.7617,51427.8263,39145.4548,34091.4577,36402.7172,4055.6788,48594.2066,43097.958,54242.8046,-2528.1608,-3210.9171,23043.5729
53292.0957,25260.1951,51416.2928,39141.342,34094.0952,36395.2518,4045.7994,48599.5263,43084.4128,54232.5228,-2529.8148,-3213.2417,23037.5379
53264.2454,25248.2146,51413.3871,39125.2935,34076.8397,36384.1206,4039.228,48575.744,43061.1223,54227.7396,-2545.1928,-3228.8879,23027.7032
53232.3718,25234.8483,51407.9332,39103.3888,34044.5638,36365.5239,4034.2212,48540.5177,43041.6316,54221.4811,-2571.7467,-3247.7081,23017.2873
53223.6546,25235.2953,51403.9993,39093.6434,34044.8767,36357.5667,4033.0589,48526.0338,43029.6063,54213.2556,-2577.2452,-3254.056,23011.9228
53245.5593,25244.996,51403.3288,39105.5793,34071.6094,36362.3053,4037.6633,48540.2495,43032.6015,54219.6929,-2559.7215,-3244.2212,23013.9792
53239.7479,25249.0193,51397.2938,39102.7182,34069.9553,36353.6775,4032.433,48532.6499,43033.4061,54214.4179,-2556.1899,-3243.4613,23010.3135
53209.7518,25242.582,51391.4824,39087.3849,34048.5424,36338.3442,4023.4476,48494.3837,43009.1321,54197.7435,-2577.2452,-3258.2581,22996.7684
53179.2194,25228.4557,51385.9391,39069.6377,34017.7864,36327.3472,4015.848,48465.997,42988.1662,54182.142,-2598.1218,-3280.744,22986.0395
53162.992,25219.6044,51375.9255,39055.0643,34001.7378,36320.1052,4012.7188,48441.9465,42973.8611,54172.7096,-2611.6669,-3291.8751,22978.4846
53174.0785,25222.4654,51366.2249,39059.8029,34019.2169,36316.6183,4010.2154,48444.0923,42967.0215,54172.2625,-2602.2345,-3288.2988,22976.5624
53177.3865,25224.3876,51360.6817,39061.6804,34020.8262,36314.4279,4003.0628,48437.2079,42967.4238,54169.2227,-2601.7874,-3288.12,22971.198
53157.3594,25214.4188,51349.3717,39046.8836,33998.3851,36305.5766,3994.0774,48403.0992,42953.8786,54155.007,-2615.8243,-3300.1006,22961.1844
53129.3303,25205.344,51345.1248,39031.6844,33972.2335,36292.6573,3989.3389,48371.0915,42925.3131,54138.422,-2636.2091,-3320.8877,22949.338
53114.5334,25196.895,51337.2123,39019.0333,33964.9916,36281.4814,3979.7723,48360.765,42914.8525,54130.6883,-2646.178,-3327.6826,22939.5479
53126.4693,25197.2079,51328.5846,39025.1577,33989.8914,36280.0509,3977.7607,48373.2373,42918.6076,54126.7544,-2631.8729,-3319.8595,22940.1737
53138.3157,25198.7278,51327.2882,39032.6232,33994.8982,36283.3142,3979.6382,48369.2139,42915.076,54127.4697,-2628.2072,-3318.0714,22939.6373
53120.2108,25196.0903,51326.8858,39031.1927,33978.5814,36281.5708,3978.6547,48341.319,42902.9614,54122.6417,-2639.249,-3326.4756,22934.0494
53102.8211,25189.6977,51325.4553,39021.3579,33952.3405,36277.011,3971.9045,48309.8477,42894.0654,54111.9128,-2648.6367,-3337.875,22930.3837
53104.1175,25185.7638,51322.192,39019.3462,33951.0888,36274.3735,3967.7024,48301.2646,42895.183,54109.32,-2647.6532,-3338.1879,22928.3273
53117.5733,25186.3897,51323.1307,39032.6232,33968.3443,36278.1286,3970.6975,48313.5134,42903.0955,54116.2044,-2632.1411,-3328.2638,22931.0989
53128.2574,25191.2624,51327.0646,39034.456,33972.3676,36279.425,3971.681,48319.8166,42903.4531,54118.7525,-2626.5979,-3324.8663,22934.407
53109.7054,25185.4062,51325.7682,39027.6164,33958.6437,36273.5689,3970.2505,48299.253,42885.08,54113.701,-2635.1362,-3333.9858,22930.339
53099.4236,25182.0087,51326.9752,39024.8448,33939.8235,36269.0091,3970.027,48282.4445,42870.909,54110.2588,-2643.6746,-3340.5125,22930.3837
53106.3527,25178.8348,51330.6856,39022.1626,33934.0121,36269.322,3969.5799,48287.4066,42877.4804,54110.7059,-2646.1333,-3338.1879,22933.2894
53119.9425,25174.7221,51326.6623,39023.3696,33950.0606,36268.3833,3965.1543,48298.4036,42886.5105,54109.8565,-2640.4113,-3335.0587,22930.0261
53120.3896,25166.9884,51315.4864,39016.664,33952.7875,36256.0004,3956.1689,48287.1383,42884.7671,54100.6476,-2642.3782,-3339.2161,22921.0407
53105.101,25157.7348,51310.2561,38999.4532,33931.1063,36244.1987,3946.6023,48265.3677,42874.0382,54092.5562,-2659.2314,-3352.8507,22911.2506
53085.4315,25150.8504,51305.5176,38986.3998,33903.2561,36232.9334,3943.5625,48239.9762,42865.4552,54082.0956,-2675.8164,-3366.7982,22905.3497
53096.2497,25151.0739,51303.1036,38989.8866,33904.4183,36235.258,3939.8521,48226.3863,42858.4814,54083.4367,-2677.381,-3367.4687,22903.3381
53108.0067,25158.6288,51303.1036,38995.8769,33926.2784,36237.4932,3940.8356,48242.9266,42864.2929,54089.1588,-2664.5064,-3357.1422,22903.1146
53114.7122,25160.5064,51307.0375,39007.8127,33940.047,36242.5447,3946.7812,48256.5612,42870.9984,54087.9965,-2653.9564,-3350.3026,22906.0203
53110.3313,25155.2314,51307.1716,39003.6553,33927.2171,36240.98,3942.8025,48244.7147,42863.1306,54087.013,-2661.8242,-3355.3988,22908.2555
53098.5296,25149.0176,51305.8305,38990.4231,33899.9927,36234.5427,3937.9746,48225.0452,42854.2793,54079.2793,-2677.5151,-3368.4969,22905.4391
53101.3906,25145.1284,51305.0705,38989.0373,33900.7527,36235.258,3938.1981,48225.9393,42852.0441,54078.564,-2675.8164,-3364.2501,22903.8298
53120.5237,25147.14,51302.8353,38993.91,33917.0247,36234.1851,3935.7841,48238.4562,42863.4882,54087.9965,-2656.2363,-3350.0344,22908.6578
53132.996,25151.3869,51301.7178,39001.1072,33923.8197,36239.2366,3932.7443,48251.2861,42876.8545,54091.0363,-2648.145,-3343.0159,22910.893
53125.1281,25149.9116,51303.1483,38997.7992,33919.1258,36237.8955,3931.1796,48243.6419,42869.8808,54090.3658,-2656.2363,-3355.0858,22908.6578
53108.8114,25139.1828,51304.9364,38982.6,33898.6963,36231.5476,3929.615,48217.3562,42854.0558,54083.1238,-2673.1342,-3372.0285,22902.1311
53113.237,25139.8534,51302.433,38982.0635,33895.9694,36236.8673,3931.582,48216.4174,42858.3026,54083.8391,-2676.6658,-3368.2287,22903.204
53144.4401,25162.4286,51306.3669,39004.8176,33933.9226,36254.0334,3941.372,48258.4387,42879.1791,54098.9488,-2655.2975,-3346.771,22915.6762
53149.6257,25164.8873,51305.6517,39012.596,33944.9644,36258.7273,3942.2214,48286.6466,42887.5387,54103.4192,-2648.9049,-3337.3386,22916.7938
53131.6996,25158.1818,51297.1133,38992.5241,33921.5398,36251.5301,3938.1981,48265.1889,42878.8662,54096.0878,-2666.5181,-3349.3638,22909.4625
53113.4605,25151.1186,51298.8567,38982.8682,33903.9713,36241.6506,3936.0076,48237.8304,42869.5679,54088.22,-2680.5103,-3362.1043,22903.651
53113.1923,25142.5356,51302.5671,38984.1199,33907.7264,36234.4533,3937.1699,48236.4893,42875.2899,54086.253,-2684.8465,-3363.0431,22899.2701
53131.8337,25148.4364,51300.9578,39004.8176,33933.118,36243.6175,3941.6403,48259.5563,42890.6679,54091.2598,-2667.7698,-3350.6155,22903.5616
53139.8356,25151.5657,51301.6284,39007.6786,33939.9129,36241.8294,3940.5227,48264.9654,42895.3171,54095.6855,-2654.314,-3348.1121,22907.5402
53132.1913,25149.3752,51300.0637,39007.9021,33934.6826,36237.8955,3940.1203,48243.6866,42884.7224,54098.0548,-2659.0079,-3353.9236,22906.2885
53115.4275,25143.832,51301.0472,38991.9877,33909.2463,36231.2794,3937.7511,48220.5302,42870.3725,54098.2783,-2672.9554,-3366.4852,22901.2817
53119.8978,25139.5851,51298.9014,38990.6466,33903.4796,36234.8109,3935.8735,48219.6808,42869.9255,54092.1539,-2673.4471,-3369.391,22899.4042
53134.3371,25145.1731,51295.0122,38995.0722,33923.2832,36244.1093,3932.789,48247.6205,42879.7156,54092.0645,-2664.3723,-3359.1539,22899.4489
53140.6403,25158.1371,51299.3932,39003.9235,33946.082,36251.083,3941.0144,48265.0548,42899.8768,54102.7486,-2649.8884,-3349.7214,22907.4508
53139.3886,25168.1954,51306.814,39007.5445,33945.2326,36256.0004,3946.3341,48275.9625,42906.5824,54111.1529,-2652.8835,-3352.8507,22908.3449
53118.3779,25159.3441,51305.3387,38997.8886,33917.3824,36245.7186,3940.5227,48263.1773,42888.4774,54101.6757,-2670.7649,-3367.4687,22901.4158
53110.1525,25162.518,51305.5176,38998.4697,33916.9353,36244.4222,3943.0708,48266.3065,42879.8944,54098.8594,-2669.8261,-3364.6524,22903.9639
53129.6879,25176.1526,51304.5788,39008.3939,33941.4328,36248.8478,3944.6801,48293.978,42897.5075,54100.9605,-2654.4034,-3346.7263,22909.686
53144.2612,25180.7123,51302.1648,39014.2053,33955.8274,36257.3862,3944.4566,48301.7564,42900.905,54099.6641,-2648.5473,-3342.5689,22910.9377
53138.0922,25180.0418,51301.3154,39011.0314,33942.6398,36256.3133,3939.9862,48287.5407,42896.1664,54092.6903,-2660.2596,-3353.0295,22902.9804
53137.1981,25177.2702,51304.8023,39004.9517,33925.2949,36261.8566,3941.4614,48273.9061,42887.1363,54090.7681,-2666.0711,-3360.1373,22903.4275
53147.2564,25181.07,51307.2163,39009.2432,33927.4853,36272.6301,3945.2165,48284.6349,42890.5785,54095.5514,-2662.0924,-3353.2083,22908.8366
53164.646,25194.1681,51314.8606,39023.1907,33955.1568,36286.1753,3951.7879,48315.3462,42916.9536,54110.1694,-2642.2441,-3332.6,22920.5936
53173.1397,25194.481,51316.157,39026.4094,33975.4522,36291.182,3951.8774,48329.3384,42931.9292,54110.4823,-2633.214,-3324.9557,22923.6335
53167.82,25188.9825,51321.6555,39026.7223,33974.7369,36289.3045,3954.7384,48327.0139,42925.7154,54110.6164,-2638.5337,-3329.6943,22924.9746
53159.5498,25178.2984,51325.5894,39024.8448,33963.0693,36291.495,3960.1922,48308.4619,42921.8262,54116.6067,-2649.8437,-3337.115,22929.4449
53161.9638,25180.1312,51329.3445,39023.6378,33963.7399,36295.4736,3965.3778,48313.7816,42933.9856,54120.4065,-2645.1051,-3331.0354,22933.8259
53188.5177,25192.067,51335.9606,39036.2442,33983.767,36302.6708,3970.4293,48347.801,42949.8106,54132.4317,-2626.8214,-3317.6243,22941.0231
53199.8277,25202.617,51338.9558,39045.2743,33998.1169,36305.3977,3972.4857,48361.972,42960.4053,54141.3277,-2615.422,-3310.3824,22945.0911
53188.473,25208.0262,51343.4261,39046.6154,33991.3219,36306.7836,3980.13,48354.5959,42953.2975,54148.7038,-2620.697,-3312.3046,22946.0299
53161.5615,25196.7162,51340.1628,39027.8846,33967.7632,36289.5727,3977.2689,48334.7923,42941.4064,54143.7864,-2644.3899,-3327.9061,22937.0892
53170.3681,25198.6831,51346.0189,39032.8914,33974.6028,36290.6009,3980.9346,48340.559,42949.5871,54147.8097,-2636.0303,-3320.4854,22942.9901
53198.8889,25214.7317,51353.8867,39048.9846,34004.6883,36300.391,3993.094,48370.2421,42969.346,54162.696,-2608.7165,-3295.5855,22957.6081
53203.091,25218.308,51352.8138,39051.7563,34019.0381,36296.2335,3994.4351,48385.6201,42974.3081,54170.6085,-2603.1286,-3288.0306,22961.8102
53197.5925,25220.722,51355.809,39051.8904,34010.6338,36298.2452,3998.1008,48383.9661,42978.6891,54169.5803,-2603.0391,-3292.2328,22963.6878
53190.9764,25225.5052,51363.185,39042.2791,33993.5124,36301.598,4002.0347,48364.2966,42971.6259,54169.0439,-2614.6621,-3302.291,22964.0007
53193.0327,25229.1709,51367.2084,39045.5425,33998.1616,36305.4425,4007.1756,48361.8826,42981.1031,54175.3024,-2610.7728,-3297.5972,22970.4827
53217.7091,25236.1447,51372.7069,39060.7417,34028.4705,36314.3384,4018.1279,48386.2013,42998.4927,54189.384,-2590.4775,-3278.8664,22980.4069
53227.6779,25242.4031,51377.2219,39071.3811,34042.1945,36323.5921,4024.9676,48405.692,43002.516,54196.9836,-2579.391,-3265.6789,22987.47
53220.436,25243.789,51382.6311,39068.2071,34030.8845,36324.8438,4028.5438,48402.2498,43003.0525,54191.3956,-2579.7486,-3268.5399,22987.1124
53209.9307,25247.0076,51390.8565,39062.4851,34015.3724,36324.3967,4031.986,48391.6998,42996.0787,54195.9107,-2591.9974,-3276.4524,22988.4088
53207.3379,25247.5441,51392.6446,39068.073,34019.1722,36331.7728,4033.1036,48397.4218,43008.6404,54197.6988,-2587.3035,-3271.2668,22993.058
53228.7955,25252.9532,51395.2374,39086.4462,34046.5307,36342.1887,4042.3572,48427.1944,43031.7074,54204.5385,-2566.3823,-3254.056,23001.5516
53233.6682,25251.5674,51394.8351,39092.6152,34059.3606,36338.7913,4039.3621,48436.6715,43036.6695,54206.7289,-2557.7992,-3248.781,23000.4787
53215.8762,25242.0902,51388.2637,39081.6182,34035.8466,36328.8671,4028.365,48414.4986,43026.8347,54196.4471,-2572.3279,-3259.5992,22990.3758
53195.5361,25227.0252,51380.3512,39062.5298,34000.9332,36319.837,4020.0055,48385.4413,43005.2429,54182.142,-2593.2938,-3276.9442,22981.6586
53200.99,25228.3663,51380.2171,39070.487,34005.5376,36323.7262,4025.057,48387.2741,42999.9679,54183.0361,-2593.5173,-3279.8946,22982.2397
53216.5468,25232.5237,51378.9654,39081.4841,34028.4705,36327.5707,4024.0288,48410.4306,43005.3324,54184.9583,-2579.7933,-3267.4223,22984.2514
53226.8733,25235.3847,51379.7253,39082.3781,34039.3782,36329.9847,4025.8616,48415.795,43008.9086,54188.177,-2572.2831,-3261.3873,22986.1736
53220.3466,25234.8483,51380.2171,39073.2586,34028.247,36330.6552,4028.4097,48408.8659,43009.0427,54185.0924,-2579.8827,-3265.8577,22986.576
53193.2563,25228.2321,51379.323,39063.6027,33999.2791,36325.2014,4027.0239,48382.0438,42993.933,54177.0011,-2594.4561,-3277.3465,22982.7315
53191.1552,25222.9124,51377.0431,39063.7368,33999.4133,36324.4861,4024.3417,48379.8087,42989.3732,54173.0672,-2598.8817,-3284.2755,22977.5012
53208.366,25221.9737,51370.6952,39071.3364,34019.0381,36330.7446,4018.2173,48394.2479,42997.7328,54174.2742,-2587.6611,-3271.4903,22976.8753
53200.4088,25208.5626,51356.8819,39063.8709,34019.3957,36317.1995,4007.2203,48391.6104,42995.4082,54163.0983,-2591.2821,-3276.3183,22964.3136
53172.0221,25192.2458,51342.8003,39039.8204,33989.3103,36295.1159,3989.7859,48369.348,42973.4141,54154.6494,-2619.2218,-3305.8673,22948.2651
53144.4401,25178.8348,51330.4174,39020.8215,33952.7875,36279.7827,3975.8384,48334.4793,42949.8106,54139.0032,-2643.8087,-3330.5436,22933.2894
53140.0591,25175.482,51328.9422,39017.2452,33948.5854,36279.6485,3973.6032,48336.8039,42951.4647,54135.4716,-2643.6746,-3334.4775,22930.8307
53159.6392,25175.3926,51330.6856,39026.32,33976.838,36286.8011,3972.1727,48360.765,42971.8047,54141.8642,-2628.5648,-3320.7983,22935.5693
53168.5799,25173.3363,51329.2104,39030.835,33982.4706,36286.1753,3972.5304,48364.073,42972.4753,54147.9886,-2618.3724,-3317.4008,22935.2117
53147.4799,25163.9038,51321.9237,39019.7933,33965.2598,36277.0557,3964.5731,48349.6338,42950.4365,54139.4055,-2627.7155,-3331.84,22928.0144
53122.8036,25152.415,51313.5642,38999.7214,33934.8167,36263.5106,3954.649,48329.2043,42936.042,54126.0391,-2655.1187,-3348.3803,22914.961
53112.6559,25147.1847,51307.708,38984.8351,33923.2385,36253.1841,3948.4352,48324.3763,42932.9574,54120.8088,-2667.1886,-3354.8623,22906.6461
53131.5207,25151.6998,51308.468,38998.4697,33949.8818,36256.2239,3949.7763,48339.3967,42940.5123,54119.6465,-2652.4812,-3347.8886,22907.5402
53137.1087,25146.2013,51304.8917,39001.9119,33952.5193,36257.8332,3947.7646,48337.8768,42938.3218,54116.2044,-2648.3685,-3348.6485,22905.1262
53118.3332,25136.9923,51300.4214,38990.5125,33936.5602,36252.8265,3940.7462,48319.6825,42929.9176,54108.1578,-2658.5162,-3357.4998,22898.9571
53099.826,25132.2538,51296.5322,38979.4707,33914.3425,36242.947,3937.1699,48298.046,42918.3394,54105.1626,-2676.7999,-3371.4026,22893.4586
53103.6705,25128.9904,51291.3913,38973.3016,33909.6487,36236.1968,3931.0902,48300.1471,42920.664,54102.5698,-2683.2372,-3374.0401,22890.9105
53118.7803,25131.3597,51288.2173,38981.5718,33928.3794,36234.5874,3926.1729,48325.181,42929.8282,54100.2452,-2677.7387,-3363.803,22889.033
53124.1,25136.2771,51289.469,38989.3502,33943.9809,36236.5097,3928.2292,48337.2062,42934.7008,54100.2005,-2666.4287,-3354.9964,22889.6588
53122.2224,25140.0769,51294.7887,38992.3006,33941.8352,36242.5894,3937.304,48334.7923,42931.8845,54105.565,-2667.591,-3356.114,22895.4703
53112.7006,25135.4724,51298.9461,38985.1481,33922.0762,36244.5116,3938.4216,48320.5765,42930.454,54111.7787,-2677.0234,-3363.4454,22898.1078
53124.7258,25143.2955,51301.3154,38989.082,33930.2123,36252.6923,3940.7462,48329.4278,42929.6941,54115.6232,-2667.5463,-3355.667,22901.6393
53154.4089,25158.1371,51306.814,39007.0528,33961.2365,36265.1646,3950.8492,48352.8972,42946.9496,54126.4862,-2648.1003,-3338.7244,22912.0553
53169.8763,25162.6968,51313.3407,39013.9371,33973.1723,36271.7807,3955.7219,48371.6726,42967.6026,54140.076,-2638.9807,-3331.4377,22918.582
53162.4109,25160.8193,51316.2911,39008.3045,33961.1471,36266.1034,3954.0678,48363.4025,42964.9204,54142.5794,-2647.5191,-3336.1763,22920.0125
53146.3176,25160.0593,51319.5544,39002.493,33942.8186,36264.2258,3956.3924,48338.2344,42959.6454,54137.8856,-2657.7115,-3344.357,22920.2807
53146.2282,25165.2449,51320.6273,39009.7797,33952.4746,36269.2773,3962.5615,48349.9914,42968.2285,54143.9205,-2651.006,-3337.6515,22928.7744
53165.2719,25176.0185,51324.6059,39022.9672,33985.287,36283.2248,3970.6975,48378.8699,42986.4675,54157.6892,-2632.6776,-3321.0665,22936.821
53177.3865,25189.5189,51333.5019,39035.0819,34009.4268,36291.8973,3980.4876,48403.0992,43000.9514,54173.0672,-2616.7184,-3302.3357,22947.3263
53185.1202,25197.1632,51344.0967,39045.8107,34002.9448,36298.5134,3990.1882,48409.8047,43006.6735,54175.4812,-2610.6834,-3296.7478,22955.0153
53174.9725,25192.4694,51344.4543,39040.938,33988.3268,36302.8497,3993.0493,48390.8951,43007.1205,54173.7378,-2620.8311,-3305.4203,22956.9376
53175.7772,25195.241,51348.12,39048.0012,33992.0372,36308.7952,3996.8491,48392.1468,43004.8853,54178.6104,-2615.4667,-3300.1453,22961.0056
53200.4535,25206.8192,51357.2395,39064.9885,34017.2052,36317.1995,4004.8957,48428.3566,43021.3362,54186.7912,-2595.5737,-3279.0899,22971.6003
53221.2406,25218.4868,51362.4698,39081.037,34038.7523,36328.0177,4012.0035,48452.1389,43036.5354,54192.7367,-2579.9274,-3268.7187,22979.1999
53219.0055,25225.8629,51368.4154,39082.1546,34032.9856,36332.8904,4015.401,48447.7133,43034.5237,54199.6211,-2580.3745,-3270.0151,22983.2679
53197.9948,25229.1709,51374.7185,39072.2305,34010.9915,36332.9798,4012.8529,48443.1982,43030.9027,54192.4685,-2590.7457,-3277.6147,22981.2115
53204.9686,25229.3944,51383.8381,39079.9642,34018.1887,36338.0313,4023.0453,48460.5432,43031.4839,54198.2353,-2590.0751,-3272.4291,22984.8772
53227.1415,25238.0669,51386.6991,39095.5657,34047.3354,36350.8165,4028.8121,48485.5324,43041.3634,54211.0652,-2574.6971,-3261.4321,22993.8626
53238.3174,25248.304,51390.0071,39105.1769,34064.2333,36355.8233,4032.746,48497.5129,43054.4615,54221.1235,-2562.0461,-3248.5574,23002.1328
53236.3951,25251.5227,51398.6349,39099.4102,34065.2615,36356.8962,4038.3339,48488.9299,43046.6831,54221.4811,-2560.9732,-3251.8208,23004.8597
53226.2027,25248.3934,51402.7923,39088.9496,34049.7941,36356.6279,4040.2114,48478.6034,43044.4479,54220.14,-2571.6126,-3263.8907,23001.4622
53221.7324,25248.1252,51401.4512,39089.2178,34047.4695,36358.282,4038.7809,48474.7589,43055.892,54222.3305,-2573.356,-3261.3873,22999.8976
53234.6517,25250.8074,51399.3502,39096.2362,34066.1108,36362.9758,4041.3737,48492.5061,43066.3526,54224.6103,-2559.9003,-3249.3174,22998.9588
53240.5078,25255.5013,51398.9925,39102.0477,34079.209,36363.7805,4041.4631,48510.8793,43078.5567,54228.276,-2555.877,-3243.953,23000.2999
53240.7761,25248.2146,51400.1548,39104.1934,34061.9534,36366.2839,4042.6254,48505.2019,43071.9405,54224.0292,-2561.3755,-3251.5526,22999.1823
53230.8072,25244.1019,51403.9546,39095.8339,34041.971,36368.6532,4040.1667,48485.1301,43060.6306,54220.3635,-2572.8643,-3263.1755,22999.7635
53226.918,25245.0407,51402.4794,39094.0905,34045.1896,36368.5638,4039.675,48487.9017,43062.2399,54225.7279,-2571.2997,-3256.7382,23001.6857
53245.6934,25256.3953,51404.2675,39104.1934,34073.3081,36374.2411,4044.3689,48505.9172,43075.4274,54234.8474,-2552.703,-3239.2591,23009.0618
53260.3562,25260.5975,51411.6436,39114.0729,34084.5734,36379.5161,4047.4087,48527.6878,43081.3283,54234.8921,-2539.6496,-3231.7042,23015.2309
53258.0763,25256.5295,51413.7447,39108.8426,34068.8825,36374.5093,4047.5875,48519.4176,43078.5567,54236.6356,-2544.3435,-3239.9744,23015.0074
53243.3242,25250.6286,51415.3093,39095.8339,34042.865,36369.9049,4046.604,48501.4021,43072.477,54239.0049,-2564.2812,-3249.1386,23014.605
53243.3689,25250.0027,51424.4288,39105.6687,34048.5424,36375.761,4055.7235,48518.3895,43076.6791,54245.1739,-2559.4532,-3239.5273,23023.814
53266.7488,25263.4138,51427.871,39123.9971,34078.8066,36387.518,4061.088,48544.2281,43097.0192,54256.9757,-2536.2074,-3221.5565,23032.9335
53276.0471,25273.338,51428.0945,39129.7638,34092.7094,36391.5861,4061.3562,48557.1027,43111.3243,54265.7822,-2526.1492,-3214.9851,23036.9568
53269.0734,25274.5003,51432.2519,39131.7755,34090.1613,36395.6094,4063.7702,48545.0327,43114.4536,54269.4032,-2523.6905,-3218.5614,23040.5778
53251.1026,25268.2865,51432.7884,39120.8678,34074.5151,36396.0564,4062.1608,48522.681,43106.3622,54257.7803,-2535.6263,-3228.7538,23036.9568
53252.0413,25263.4585,51431.8049,39116.8445,34075.6327,36393.0166,4057.6458,48525.4526,43107.7033,54252.5053,-2541.706,-3230.7208,23032.7547
53271.9344,25271.9969,51434.2189,39127.2604,34096.8668,36399.4986,4062.4738,48553.8393,43121.4273,54264.9329,-2523.8693,-3216.0133,23039.639
53279.8022,25280.4458,51435.7388,39129.9874,34107.7745,36402.0467,4067.9723,48565.6857,43128.8034,54269.8056,-2513.2746,-3207.6091,23047.3727
53275.1977,25276.1096,51440.5221,39127.5287,34096.8221,36404.4607,4069.8498,48554.644,43122.0531,54273.3371,-2519.8907,-3209.2184,23047.8644
53263.4407,25278.7918,51444.8136,39125.7405,34079.7007,36405.0865,4073.0238,48534.3039,43114.7218,54266.5869,-2532.497,-3214.6275,23044.2435
53262.8596,25281.1164,51448.3005,39124.0865,34073.621,36407.9028,4074.6331,48541.8588,43119.9968,54269.2691,-2530.9324,-3208.6372,23047.8197
53286.3289,25289.5206,51451.2062,39144.963,34105.3605,36423.3255,4084.4679,48569.1726,43138.3252,54277.271,-2509.2959,-3188.4313,23058.7274
53307.6078,25293.0522,51455.9895,39158.1506,34122.9737,36430.5675,4090.4582,48594.3854,43146.5507,54283.0378,-2495.9296,-3181.5469,23065.4776
53304.7467,25292.9628,51461.5774,39151.445,34107.9086,36423.862,4090.8605,48584.5953,43147.4894,54290.3244,-2503.6633,-3189.8618,23067.0869
53300.5446,25291.1299,51470.9204,39149.031,34097.0457,36422.7444,4093.9897,48575.2076,43144.092,54296.27,-2513.4087,-3196.165,23071.5126
53301.4387,25292.1581,51474.0944,39155.3789,34107.8639,36431.9086,4098.3707,48579.5438,43145.6119,54295.1971,-2506.4349,-3185.9726,23075.7594
53318.6942,25303.8704,51477.7601,39173.7968,34133.5237,36447.6889,4106.015,48611.1939,43165.952,54308.5188,-2484.5302,-3163.9338,23083.3143
53329.5125,25317.9967,51482.4539,39186.1349,34148.1417,36457.2108,4113.2122,48631.981,43181.5088,54315.3137,-2476.4836,-3154.0096,23090.3774
53314.4027,25313.2582,51479.2353,39175.8978,34125.5665,36453.5004,4110.53,48614.3231,43165.192,54308.8764,-2488.5982,-3161.6986,23089.4834
53297.8624,25302.9764,51476.2402,39169.8182,34111.8425,36447.9572,4108.1607,48590.8538,43152.0939,54301.6791,-2503.1269,-3175.1543,23083.4484
53300.0976,25304.2281,51477.1342,39173.8862,34114.2118,36451.8911,4111.6923,48585.2212,43159.47,54304.8531,-2499.6847,-3174.305,23086.3988
53321.6,25317.4603,51482.4986,39188.3254,34139.9163,36458.5519,4115.0004,48616.9159,43176.949,54310.1728,-2479.2999,-3158.0329,23094.3561
53331.1665,25329.0385,51485.1362,39193.0193,34156.5907,36462.0835,4117.772,48633.188,43188.3931,54311.9162,-2469.4651,-3148.6005,23096.0995
53326.2938,25334.2241,51486.4773,39194.8074,34150.1981,36460.3847,4121.3483,48632.3833,43180.8382,54308.0717,-2475.8577,-3159.5528,23090.8692
53320.7953,25338.7839,51493.451,39195.3886,34139.0669,36457.5237,4125.5057,48610.9704,43171.7634,54310.3516,-2484.262,-3167.9571,23092.3891
53322.1364,25331.6313,51494.3451,39188.0572,34139.8269,36454.7074,4120.7224,48599.2134,43172.7916,54313.7491,-2482.7868,-3166.5266,23093.4173
53341.493,25331.2737,51490.8582,39195.2544,34157.5295,36460.1165,4119.5601,48630.9081,43193.7128,54316.8336,-2470.7168,-3153.7861,23093.7749
53347.975,25330.916,51486.1643,39199.3225,34155.6519,36457.0767,4113.2122,48641.9946,43195.1433,54314.3302,-2468.3475,-3155.753,23091.808
53311.7205,25321.7071,51475.659,39174.1544,34123.5548,36439.1059,4098.5942,48611.9539,43161.7051,54298.9075,-2495.3038,-3182.2622,23074.6865
53293.6156,25309.4137,51467.0759,39154.5743,34098.7444,36424.5325,4088.8488,48581.2873,43141.0074,54281.8755,-2522.3494,-3208.4584,23058.5039
53293.7944,25308.0279,51468.5065,39152.3391,34102.9018,36428.4664,4087.6418,48579.4097,43142.572,54288.3575,-2519.8907,-3204.5245,23062.1248
53305.1938,25306.3738,51466.1372,39155.513,34116.3576,36430.2993,4083.4844,48597.8723,43157.3689,54295.4654,-2511.7099,-3190.2194,23064.9859
53304.1656,25304.094,51461.5774,39159.4917,34125.0747,36428.1088,4085.1384,48607.8411,43166.3543,54296.3594,-2503.6633,-3181.5916,23063.4212
53294.9567,25300.1601,51461.1751,39155.4683,34106.5675,36420.9116,4086.5242,48602.2532,43157.8159,54295.9124,-2508.2678,-3187.5372,23061.2308
53286.8207,25290.9064,51467.2548,39149.2993,34085.9145,36424.3984,4087.5077,48588.0375,43152.8986,54297.7899,-2519.0413,-3195.3156,23061.8119
53292.0063,25297.9249,51470.1158,39155.8707,34094.4082,36432.2215,4093.9003,48592.1055,43161.3475,54303.6908,-2515.2862,-3188.0289,23068.6069
53318.9625,25308.2514,51472.798,39169.237,34122.8843,36437.4965,4099.3094,48616.3348,43176.2338,54313.7938,-2492.398,-3172.6509,23080.8556
53326.115,25318.4885,51479.7717,39175.5402,34140.6316,36439.9999,4102.3493,48626.259,43181.1512,54316.476,-2482.2503,-3166.7948,23086.4435
53316.4144,25317.5497,51483.0351,39171.3381,34127.0864,36438.8376,4107.3114,48622.1462,43175.6526,54317.3254,-2487.7489,-3172.2933,23084.2084
53305.5067,25314.7781,51484.1974,39171.2487,34113.1836,36435.7531,4111.29,48605.1142,43161.7051,54311.0222,-2500.1764,-3181.3681,23079.5145
53316.1908,25322.78,51490.7688,39176.1214,34119.3974,36441.2963,4121.3483,48610.2104,43173.3727,54315.3137,-2493.2474,-3171.2204,23088.0529
53338.0955,25335.2523,51501.3635,39191.2311,34148.0076,36456.8084,4132.1218,48638.5524,43193.8916,54330.3341,-2469.2863,-3152.132,23099.8993
53350.7466,25339.9909,51508.6949,39198.4284,34159.5411,36464.8998,4135.8769,48662.1112,43200.9548,54338.4254,-2459.6304,-3142.342,23106.0237
53346.4551,25343.433,51510.3042,39194.8074,34156.7695,36462.7987,4137.9333,48661.6641,43196.2609,54336.9055,-2467.677,-3144.9795,23106.6495
53330.183,25336.8169,51511.6006,39189.3536,34136.2059,36459.8036,4136.9945,48638.5077,43184.4145,54330.4682,-2482.5633,-3158.614,23103.7885
53338.9002,25334.4923,51515.9816,39195.478,34139.961,36465.928,4140.5708,48634.2162,43186.3368,54328.9483,-2480.3728,-3157.0941,23102.5815
53366.7505,25341.6896,51518.5744,39209.8278,34165.9784,36476.6568,4146.6951,48655.0927,43204.6652,54342.8063,-2458.334,-3138.2293,23110.6728
53367.734,25343.6118,51520.0496,39214.3428,34176.5285,36475.1816,4146.6504,48672.3036,43216.6904,54355.1445,-2447.9628,-3131.8367,23115.4561
53356.5134,25343.0307,51522.3294,39211.3924,34162.5363,36475.6286,4145.8905,48663.0052,43206.9898,54354.4739,-2456.9482,-3139.2127,23112.5057
53342.0295,25337.5769,51523.8494,39204.5528,34144.1184,36473.2593,4147.7233,48641.8158,43197.6914,54349.1095,-2464.5925,-3146.1865,23113.7127
53346.8574,25342.8072,51525.6822,39207.5479,34144.3419,36475.8074,4151.2102,48649.8624,43199.8372,54352.0153,-2458.1552,-3138.8104,23121.2229
53365.7223,25352.4184,51532.2983,39221.3166,34167.8113,36485.2399,4155.5464,48673.3317,43213.8294,54362.4312,-2442.6877,-3125.9358,23128.9119
53376.6747,25355.0559,51533.8629,39225.2058,34182.2952,36484.7034,4156.3958,48680.4396,43226.6146,54366.6333,-2435.1329,-3120.7949,23131.3258
53364.6494,25354.5195,51532.4771,39217.1592,34170.0464,36479.7413,4158.8992,48680.9313,43222.4125,54364.0852,-2440.8549,-3125.9805,23130.4318
53351.1043,25360.018,51535.4723,39211.1242,34149.7064,36478.6237,4161.7155,48672.2142,43216.1987,54362.3865,-2452.1202,-3129.9591,23130.7
53359.2403,25368.1093,51540.032,39223.0153,34159.3176,36491.0513,4165.7835,48679.6349,43219.8197,54366.3204,-2447.6945,-3124.3265,23136.3326
53379.3122,25377.8994,51541.9543,39238.7509,34190.0736,36501.1543,4172.2655,48709.1839,43241.3667,54376.9151,-2424.4487,-3107.3838,23144.3793
53389.9516,25380.5816,51541.6861,39245.4118,34197.4497,36504.1047,4174.9924,48716.56,43243.0208,54378.1221,-2418.2796,-3103.5841,23145.8098
53385.3024,25383.7109,51546.4246,39246.887,34192.1747,36510.095,4178.5687,48705.0712,43241.7691,54376.5128,-2424.4487,-3108.2779,23143.4852
53377.9711,25388.2259,51552.2361,39250.4632,34181.8929,36516.6217,4184.6037,48683.7029,43243.1996,54375.4399,-2427.8015,-3110.1108,23145.8545
53383.9613,25390.1929,51557.7346,39256.1853,34188.9113,36519.2145,4190.1469,48691.7049,43250.1733,54381.9666,-2420.9172,-3101.9747,23153.9458
53400.0546,25394.7526,51553.5325,39264.0084,34205.3622,36516.7111,4188.4482,48721.3433,43249.3687,54379.5079,-2408.7131,-3093.347,23156.0469
53406.4025,25398.016,51559.2098,39272.2338,34218.3709,36519.7062,4194.6173,48727.3782,43262.8691,54385.0958,-2399.4148,-3089.2342,23156.9856
53400.7698,25394.842,51563.412,39275.0055,34206.4351,36520.8238,4194.0361,48716.9176,43255.1354,54385.0958,-2406.7014,-3099.3819,23150.2801
53383.8272,25390.8187,51562.9202,39259.4486,34185.6927,36508.3516,4189.6999,48688.7991,43241.3667,54379.6867,-2423.4205,-3111.8989,23146.3909
53393.1702,25392.0704,51566.8094,39256.4982,34191.9512,36514.7442,4192.2033,48684.6417,43250.218,54383.6206,-2418.1455,-3109.172,23150.0566
53414.1362,25404.8109,51569.9834,39273.4855,34218.9968,36532.8938,4197.523,48719.4657,43272.838,54394.8412,-2398.6101,-3089.5472,23156.7174
53429.1118,25415.6739,51570.2069,39286.2707,34231.2902,36535.5313,4198.5065,48742.9798,43281.1975,54402.9325,-2389.3565,-3081.5899,23164.317
53420.797,25415.3162,51571.4139,39278.3582,34223.6906,36537.0065,4196.6289,48733.6814,43270.6475,54403.6031,-2400.3088,-3087.9378,23164.9429
53399.384,25411.3823,51570.5198,39260.7003,34199.5955,36536.2018,4198.5065,48707.7087,43251.2015,54395.1541,-2415.9551,-3097.5491,23160.8748
53404.8826,25419.6972,51573.4702,39264.366,34200.3107,36543.265,4202.5745,48719.734,43252.1403,54399.1774,-2411.1271,-3095.3139,23167.178
53432.4199,25423.6758,51573.7385,39279.5205,34227.2669,36550.7752,4206.0614,48743.7397,43267.563,54405.6147,-2391.994,-3082.5287,23173.5706
53446.1886,25424.6593,51576.5101,39287.9248,34241.1697,36555.3349,4205.0779,48751.7864,43279.6329,54406.5088,-2382.2039,-3074.3033,23178.6668
53429.0671,25425.4192,51579.8628,39278.4923,34226.4622,36553.9044,4206.2849,48738.1965,43269.7982,54400.4291,-2387.2554,-3076.8961,23178.0857
53409.487,25415.5397,51577.6724,39264.0084,34197.0026,36550.2387,4201.0099,48713.1178,43250.5757,54390.6391,-2404.2875,-3092.8552,23171.2461
53403.5861,25411.6505,51575.6607,39259.2251,34197.5391,36549.5235,4200.2052,48713.4308,43247.4017,54390.6838,-2402.3205,-3092.0953,23170.2179
53423.4792,25415.1821,51578.6558,39273.0832,34232.7654,36552.4739,4204.8991,48744.4997,43263.942,54401.949,-2385.9143,-3071.2634,23177.6834
53431.9729,25416.702,51582.2768,39282.6051,34245.0142,36557.4807,4212.3199,48759.6989,43272.9274,54403.2007,-2374.6043,-3064.5579,23186.3558
53422.9428,25410.0859,51583.305,39273.3067,34232.7654,36558.0618,4217.5055,48740.6105,43263.3162,54403.9607,-2382.338,-3072.1575,23186.937
53407.3859,25404.7662,51588.58,39269.1493,34218.1921,36551.7586,4220.7241,48710.9721,43241.9926,54406.33,-2391.8152,-3079.8912,23184.3889
53401.2169,25402.0393,51586.7919,39268.0317,34213.9453,36548.4059,4221.3053,48707.4405,43238.5057,54403.3796,-2382.8745,-3077.7007,23184.4336
53408.6376,25404.5427,51584.8249,39271.6527,34224.7188,36546.573,4220.4559,48719.8681,43245.8371,54405.3912,-2367.72,-3066.2566,23185.4171
53411.7669,25410.3094,51590.547,39278.6711,34245.9083,36552.161,4227.8767,48721.1198,43246.2841,54412.1414,-2359.9863,-3054.0526,23191.1838
53410.4258,25413.3046,51590.7705,39281.5322,34242.7343,36551.6245,4233.107,48702.7913,43236.4941,54412.052,-2371.6092,-3060.2664,23190.7815
53387.8952,25412.0529,51590.9046,39264.7237,34220.472,36539.4205,4236.1468,48673.7788,43216.4222,54403.4243,-2390.5635,-3074.2139,23184.97
53390.4433,25422.8264,51599.6218,39265.0366,34229.4574,36540.3146,4245.5345,48670.6942,43209.8955,54405.0783,-2385.2438,-3066.659,23190.9603
53405.5531,25429.9343,51602.9745,39273.1726,34250.9598,36541.9239,4252.7318,48680.3949,43222.1889,54411.2027,-2371.1622,-3053.5609,23198.0681
53416.2372,25440.3055,51605.0756,39283.365,34261.1521,36549.5682,4260.9125,48678.562,43227.5534,54416.2542,-2359.271,-3047.8835,23202.8067
53403.1838,25446.6534,51607.8919,39285.6002,34261.6439,36551.2222,4262.8348,48661.6194,43219.1491,54414.5107,-2359.5393,-3055.796,23205.0419
53381.2791,25450.4085,51609.4118,39283.1415,34245.5059,36543.8908,4262.7901,48631.981,43202.0277,54408.6993,-2374.0232,-3069.6094,23202.4044
53378.9992,25454.8788,51604.1815,39277.5983,34243.3602,36535.8442,4256.4422,48618.8829,43190.0918,54403.9607,-2379.3876,-3073.9009,23197.0847
53388.9681,25458.9468,51599.3983,39284.2591,34260.7051,36539.8675,4253.6706,48627.4213,43197.155,54406.777,-2366.2001,-3059.2382,23198.1575
53400.2334,25464.2665,51597.923,39288.9529,34260.2134,36546.3942,4254.1623,48630.1482,43195.5457,54409.4145,-2360.031,-3053.5609,23199.3645
53395.5842,25459.4833,51598.8171,39286.4943,34246.4447,36540.4487,4252.4636,48612.7585,43188.8849,54398.8645,-2365.1272,-3059.417,23195.4753
53376.7194,25448.0839,51599.9347,39277.1512,34226.194,36538.5711,4253.8047,48587.1881,43175.295,54394.26,-2379.6558,-3071.6211,23193.0166
53375.87,25448.6203,51602.2593,39279.2523,34229.7256,36543.712,4255.0564,48586.2941,43178.2901,54401.4126,-2376.5266,-3069.5647,23196.9506
53389.281,25459.8856,51600.9629,39295.435,34256.9053,36552.2504,4252.2401,48593.6701,43186.6497,54404.3183,-2358.2876,-3054.2314,23203.0749
53397.5959,25466.5017,51598.683,39300.5311,34267.2318,36560.2076,4253.0447,48597.2911,43194.4728,54406.0618,-2347.7823,-3042.9214,23203.3879
53380.7874,25454.6553,51595.7773,39290.3835,34242.8237,36559.1347,4251.5695,48575.744,43178.916,54390.8626,-2358.2876,-3051.9515,23197.2188
53361.9672,25440.3502,51588.58,39278.3135,34219.9355,36546.3942,4244.4617,48543.4681,43155.1337,54379.9549,-2375.7219,-3071.0846,23190.6921
53362.0566,25440.3502,51584.959,39281.711,34221.0978,36543.0415,4242.8523,48538.7743,43152.1386,54378.8821,-2378.27,-3073.4539,23189.6192
53383.6037,25450.2296,51592.1116,39294.2727,34242.9131,36544.6955,4247.2333,48559.2037,43167.4272,54385.4982,-2356.9912,-3053.5161,23193.9107
53393.8855,25452.5095,51594.6597,39302.8557,34251.4515,36552.2057,4252.553,48567.9209,43176.3679,54389.3427,-2344.206,-3047.7494,23198.5599
53386.3753,25448.1733,51591.7987,39298.0725,34237.9063,36550.3281,4248.9767,48548.0279,43166.0414,54384.6041,-2356.0077,-3062.3674,23194.7601
53365.8117,25440.4843,51588.4459,39277.2406,34208.6256,36532.2679,4241.1089,48521.8763,43143.6449,54373.5623,-2380.9522,-3080.4276,23183.7183
53361.3414,25437.4444,51583.6179,39268.6129,34197.9414,36530.0328,4234.9845,48515.6178,43136.9394,54367.7062,-2383.6344,-3079.623,23179.5609
53384.6319,25439.8137,51585.1825,39280.3252,34221.679,36535.8889,4236.2809,48538.1931,43153.1668,54372.9812,-2364.4567,-3066.3013,23183.7183
53398.3558,25442.8983,51587.373,39287.0754,34231.3349,36533.6537,4232.9729,48543.9599,43163.1356,54378.2115,-2355.2477,-3061.071,23182.9584
53393.9749,25437.355,51592.0222,39281.711,34215.7334,36532.0891,4233.4199,48537.7014,43157.3242,54377.3174,-2366.5577,-3066.8825,23184.6124
53382.3967,25431.4095,51590.1893,39273.3961,34193.4264,36532.8491,4236.6832,48522.5916,43144.9413,54376.8257,-2377.0183,-3074.7056,23187.6075
53381.8603,25426.805,51585.1825,39269.9093,34189.0007,36530.6139,4232.2576,48521.2505,43139.9345,54374.0988,-2380.1029,-3073.4092,23184.1207
53390.801,25429.7107,51582.9027,39273.0385,34208.402,36533.3855,4230.1118,48534.9298,43147.4,54380.7596,-2368.927,-3062.0098,23185.8641
53393.3043,25429.5319,51578.477,39269.4622,34206.6586,36527.6188,4227.072,48530.6829,43152.6303,54380.8043,-2366.513,-3063.3509,23183.0478
53388.7446,25421.53,51579.3711,39261.1474,34188.2408,36519.9298,4224.7474,48514.9473,43145.746,54372.8918,-2381.6228,-3074.1692,23177.0575
53371.6679,25405.7497,51574.1855,39246.7976,34160.4352,36509.8268,4215.9408,48479.5868,43128.2669,54362.4312,-2403.1252,-3093.7493,23166.8204
53374.7524,25408.3425,51576.376,39245.9035,34163.3409,36507.234,4213.8845,48478.8269,43134.3019,54364.5322,-2398.2078,-3092.8999,23171.0225
53396.5677,25420.6806,51585.4061,39256.7664,34191.0571,36515.1018,4219.6959,48509.7617,43158.5759,54382.5924,-2381.1311,-3076.3596,23182.3772
53420.1711,25432.7506,51591.1728,39276.1678,34211.0395,36529.7198,4225.1945,48533.0522,43173.7751,54390.9967,-2365.7978,-3060.5793,23190.0662
53417.3995,25439.322,51594.9726,39280.1017,34213.4088,36537.99,4234.314,48534.4827,43169.5729,54393.366,-2369.1505,-3063.8427,23191.6308
53398.8476,25436.8633,51593.5868,39268.8364,34196.5109,36535.1737,4233.0176,48520.8482,43159.7829,54388.1804,-2384.3497,-3078.7736,23185.4618
53404.972,25437.3997,51596.0455,39267.5847,34198.5673,36539.644,4231.9894,48524.9162,43168.3213,54390.9967,-2381.6675,-3077.2984,23188.3675
53419.4112,25436.7292,51593.8997,39276.2125,34217.5215,36540.0463,4233.2411,48541.4118,43183.4757,54394.4389,-2364.3225,-3068.5365,23192.5696
53416.9525,25435.2093,51588.0883,39276.4807,34217.2086,36536.783,4232.3917,48555.3592,43189.3319,54388.091,-2362.1768,-3064.9155,23189.9321
53408.9953,25429.666,51588.9823,39273.3961,34206.9268,36530.9268,4232.9282,48534.6615,43179.4524,54383.1736,-2371.8774,-3075.242,23183.2713
53387.7164,25424.391,51588.0883,39258.5546,34185.9609,36520.9132,4225.0603,48509.3594,43158.4865,54373.6964,-2391.8599,-3092.0058,23176.2975
53380.0274,25426.6262,51590.234,39259.9404,34184.1727,36522.1202,4226.8485,48516.2437,43159.2911,54376.8704,-2387.166,-3086.5967,23179.6056
53412.661,25433.0188,51592.9163,39277.3747,34221.1425,36533.7431,4230.7824,48544.5857,43175.3397,54383.3077,-2368.7035,-3068.6259,23184.3889
53419.59,25428.2355,51590.1446,39279.1182,34230.6644,36537.677,4228.3237,48553.884,43180.4806,54378.9268,-2362.8473,-3064.692,23183.316
53408.7718,25432.4377,51588.4012,39273.4855,34213.0959,36537.3641,4225.5968,48546.9997,43168.9918,54372.1318,-2371.4751,-3069.8329,23179.3821
53396.4336,25434.4046,51588.1777,39265.4836,34193.8734,36537.4535,4224.8815,48535.2874,43158.0395,54374.814,-2388.7753,-3084.8533,23174.867
53405.6872,25442.1383,51593.1845,39274.6478,34204.1105,36542.0133,4232.3917,48541.68,43169.1706,54386.8393,-2381.6228,-3078.7736,23183.6289
53428.3519,25452.2413,51597.1184,39288.4165,34232.5419,36551.8481,4237.2644,48570.469,43188.8849,54394.0365,-2361.998,-3059.4617,23189.9768
53427.9048,25448.3521,51597.7889,39289.7129,34245.0589,36552.1163,4238.1585,48592.9102,43194.7857,54397.2999,-2360.7016,-3054.589,23192.6143
53422.3616,25451.2131,51601.8122,39288.6847,34239.6945,36548.1377,4242.7629,48584.5506,43190.8518,54396.3611,-2363.5179,-3060.3558,23190.7815
53402.3792,25447.9498,51597.9677,39284.6614,34211.2184,36548.4059,4241.1536,48561.2601,43178.3795,54387.5545,-2377.1971,-3071.3528,23186.2664
53412.8398,25455.1917,51599.7112,39288.193,34207.195,36554.2173,4239.3655,48564.3446,43184.0122,54390.1026,-2374.7385,-3069.6541,23190.4238
53444.1322,25467.4852,51606.8637,39299.19,34242.0191,36565.572,4244.3722,48596.3076,43204.1734,54400.8315,-2353.9066,-3050.8339,23201.4656
53457.8562,25482.5503,51610.7976,39311.1706,34261.6439,36578.8937,4248.6638,48620.984,43217.361,54407.2241,-2342.3284,-3038.3617,23211.7474
53441.9417,25477.9905,51607.5343,39307.9072,34245.6847,36581.9782,4247.0992,48614.3231,43210.3872,54406.4641,-2350.4645,-3049.2693,23207.7688
53423.8368,25463.5066,51606.2826,39303.0345,34229.5915,36581.6653,4243.4782,48600.1074,43203.1006,54403.2454,-2363.205,-3062.6804,23199.7669
53427.6366,25460.8244,51611.1106,39307.1473,34228.7421,36578.8043,4244.417,48599.7945,43204.6205,54405.6594,-2358.5558,-3056.2431,23202.8067
53448.2002,25462.3443,51611.1106,39316.8479,34249.0375,36578.8043,4245.1769,48613.9655,43217.8527,54409.7722,-2346.1729,-3044.1731,23206.0254
53452.1788,25460.6903,51604.5392,39314.9704,34253.5526,36567.539,4239.6337,48619.017,43217.2716,54406.9558,-2352.4314,-3044.5307,23201.5997
53435.8174,25454.2083,51600.6947,39305.7168,34239.5157,36563.1133,4237.8008,48605.1589,43212.3989,54403.7372,-2359.3158,-3051.6833,23199.3645
53416.1925,25437.8021,51594.4809,39285.6896,34221.4555,36551.2222,4234.3587,48579.6332,43200.5525,54390.5944,-2377.9571,-3066.7484,23192.3014
53416.7737,25430.3813,51587.4177,39280.3252,34221.679,36542.9074,4227.2955,48583.433,43194.1152,54387.4651,-2380.9522,-3072.6045,23186.4899
53436.7114,25441.9148,51588.4012,39290.2941,34241.5273,36542.9968,4228.3684,48606.6341,43202.9665,54396.674,-2365.0378,-3060.0876,23187.831
53453.3858,25440.8866,51588.4906,39296.1055,34243.7625,36541.611,4227.832,48614.0996,43210.7002,54395.78,-2356.9465,-3055.5278,23188.9486
53437.9631,25429.9343,51588.4012,39287.7012,34223.6012,36532.8938,4228.9943,48600.3309,43210.6555,54399.1327,-2362.5791,-3064.6026,23187.831
53412.5715,25426.5368,51589.7423,39271.0716,34200.0872,36525.5624,4227.2061,48570.6925,43195.0092,54397.4787,-2384.4391,-3079.623,23183.2266
53401.8874,25426.1792,51586.7472,39268.5682,34205.2728,36520.6897,4224.3898,48564.4788,43191.2541,54393.7683,-2385.6908,-3079.4889,23180.3656
53415.9243,25428.3696,51585.4508,39270.1775,34229.7256,36526.7247,4224.7027,48589.1551,43210.9237,54398.9986,-2370.6257,-3061.5628,23186.4899
53427.3237,25429.7554,51583.8414,39276.3913,34244.5672,36533.5643,4230.3354,48607.707,43214.7682,54407.0005,-2360.2992,-3053.4267,23191.9885
53420.1264,25426.4921,51586.6578,39273.262,34231.9608,36528.8705,4233.1517,48598.4534,43204.6205,54407.4029,-2373.3079,-3063.6191,23190.8262
53394.6902,25416.6573,51584.065,39256.4535,34197.6285,36521.6732,4232.6152,48579.0074,43192.4611,54399.2668,-2387.6578,-3077.7454,23186.2664
53406.0895,25426.1345,51586.8366,39262.7567,34206.7033,36527.8423,4238.1585,48584.193,43197.5573,54399.5798,-2381.0863,-3073.6774,23192.0779
53426.9661,25436.8633,51589.0718,39274.022,34231.2455,36538.7052,4236.9515,48613.295,43213.8741,54406.8664,-2365.1272,-3059.2382,23194.7601
53438.6784,25434.8069,51585.8084,39281.1298,34246.7576,36537.0065,4234.001,48624.6049,43217.2269,54405.6594,-2357.617,-3052.0409,23193.3296
53433.5822,25430.873,51587.1942,39278.8053,34238.0404,36537.4088,4235.4763,48609.8081,43218.7021,54407.3135,-2361.2827,-3055.9748,23193.419
53414.8961,25430.2025,51589.4294,39268.5235,34212.3359,36538.1241,4239.4996,48594.8771,43206.3192,54404.676,-2376.8842,-3066.0331,23192.5249
53410.1576,25433.9576,51591.5751,39267.4506,34210.369,36540.0463,4243.0758,48600.6439,43197.602,54401.8596,-2374.1573,-3066.7484,23193.866
53435.8621,25440.3949,51591.4857,39279.5205,34234.9112,36544.3826,4245.9369,48616.9606,43214.0529,54397.7469,-2356.8571,-3057.0924,23191.452
53443.8193,25445.2676,51592.6033,39286.4048,34247.2494,36545.7237,4246.4286,48621.2969,43220.7584,54406.777,-2353.5043,-3050.3869,23196.0118
53419.59,25439.0091,51589.2059,39277.7324,34233.9724,36541.3427,4238.6055,48609.5846,43215.7069,54405.1677,-2369.7764,-3060.8028,23192.7037
53392.3209,25430.0684,51584.6461,39267.6741,34208.3126,36535.3972,4229.0837,48592.7314,43194.7857,54393.0084,-2387.2107,-3077.3431,23186.9817
53387.7611,25428.9508,51582.9921,39269.7304,34210.8607,36534.6372,4229.9777,48591.9267,43194.9198,54391.5331,-2381.2652,-3077.5219,23185.73
53410.0235,25437.2209,51587.373,39280.9957,34241.4379,36546.573,4232.1682,48612.7138,43206.2745,54399.4009,-2362.892,-3064.3791,23190.3344
53419.6347,25444.9546,51592.1563,39285.6896,34241.125,36549.2553,4235.968,48624.2473,43210.1637,54405.0783,-2355.3371,-3055.796,23193.2402
53411.2304,25437.9809,51595.4196,39277.9559,34222.6624,36546.8413,4238.0691,48605.9189,43202.2959,54400.9656,-2366.1554,-3066.4802,23188.144
53391.2033,25429.0849,51590.6364,39261.6391,34205.9433,36534.6372,4229.3966,48584.7741,43191.9694,54391.8014,-2386.4061,-3082.6628,23182.1984
53390.6221,25429.0402,51585.5402,39260.4321,34205.2728,36529.1387,4226.8038,48583.6565,43195.4563,54387.9569,-2388.6412,-3083.2887,23181.7067
53415.5667,25435.2093,51588.7141,39272.8597,34228.5186,36537.0065,4229.6648,48601.5826,43207.9285,54394.4836,-2373.2632,-3070.4141,23185.2829
53422.6298,25432.84,51581.2486,39276.0783,34238.8004,36532.9385,4227.1614,48602.0744,43204.1287,54391.0861,-2370.134,-3068.9836,23181.7961
53402.0215,25422.6923,51578.8347,39268.4788,34223.0648,36524.8471,4219.9194,48582.7178,43197.7808,54385.6323,-2382.1145,-3079.9359,23175.6717
53383.559,25412.5893,51578.1194,39253.369,34198.7014,36516.8452,4212.0963,48564.9258,43184.638,54373.4729,-2401.65,-3094.7775,23168.5191
53383.2908,25401.2793,51573.4255,39252.2961,34194.991,36513.5372,4207.0895,48566.8033,43181.9111,54368.8685,-2403.751,-3095.5374,23167.2674
53404.0779,25406.152,51574.2749,39263.5614,34213.5876,36520.5556,4208.2071,48583.746,43192.4611,54374.9034,-2389.4459,-3081.8582,23173.3024
