FC3,FCz,FC4,C5,C3,C1,Cz,C2,C4,C6,CP3,CPz,CP4
51530.8678,24219.9451,50752.8037,37623.4353,33387.4226,35039.3504,4609.108,48388.4364,44031.5455,54623.1419,-3782.2276,-3601.1338,21898.1802
51531.0913,24216.637,50750.7473,37621.6024,33386.5732,35039.0822,4605.2188,48390.1352,44029.7127,54624.93,-3783.3899,-3603.1902,21897.1968
51522.1059,24218.6487,50748.4227,37621.4683,33381.3429,35042.6137,4604.0565,48383.3402,44013.3065,54618.0457,-3786.3404,-3612.2203,21894.2463
51513.2993,24220.3027,50748.378,37614.0922,33364.6238,35041.3173,4601.6872,48381.3286,44005.5728,54613.6647,-3795.8175,-3624.2008,21892.19
51522.8659,24231.7915,50750.792,37620.9319,33373.0727,35046.5477,4601.4637,48402.3839,44016.6593,54615.0953,-3793.2247,-3622.6362,21888.7925
51534.757,24235.3678,50749.2721,37629.4255,33393.8152,35044.536,4602.7154,48422.2323,44029.9809,54616.0787,-3781.0206,-3609.7616,21887.8984
51533.6841,24232.5515,50749.3615,37632.8677,33399.8948,35042.122,4600.3461,48432.2011,44029.3998,54618.4033,-3780.7524,-3607.7499,21890.7148
51519.2449,24230.2716,50746.8134,37622.5859,33380.3594,35033.7178,4594.4452,48411.5481,44018.7603,54612.0554,-3795.8175,-3622.7703,21882.847
51502.4811,24219.5427,50743.7289,37617.8026,33359.4382,35027.8169,4591.9865,48388.9729,44009.8196,54606.3781,-3805.697,-3632.9627,21876.052
51516.4286,24224.2366,50746.1876,37625.0893,33370.8376,35034.1648,4593.9088,48399.2547,44014.9605,54611.4743,-3800.2878,-3626.9277,21878.6448
51532.7901,24223.6108,50743.5501,37627.2351,33394.3516,35041.5856,4592.6571,48419.7736,44029.4445,54611.3849,-3788.0391,-3618.1211,21879.1813
51533.4159,24224.4154,50734.9223,37624.9999,33398.2408,35043.329,4582.7329,48419.416,44025.0188,54604.0088,-3789.559,-3620.1328,21873.4592
51519.6919,24215.2512,50731.346,37612.2147,33385.9473,35034.1648,4574.5522,48398.9418,44014.6476,54600.7454,-3805.1158,-3634.5273,21865.8596
51500.693,24204.9247,50729.7367,37600.0553,33366.4119,35033.1813,4570.5289,48388.9729,44008.4785,54597.8397,-3817.4093,-3647.9831,21862.4175
51509.1866,24204.8353,50725.4004,37606.4032,33371.3293,35038.501,4572.5852,48400.4617,44013.3512,54600.7007,-3815.1294,-3640.5176,21863.8927
51535.7852,24218.5593,50734.3411,37622.4071,33397.8832,35045.1171,4584.2975,48419.863,44034.0936,54615.3188,-3793.7611,-3618.9705,21874.9344
51540.345,24226.3824,50741.4043,37623.167,33411.0707,35047.3076,4589.8408,48430.9942,44048.4881,54621.0855,-3786.4298,-3615.126,21879.1813
51525.0564,24217.6205,50744.8912,37615.2098,33396.1844,35039.9315,4589.9749,48413.6045,44035.4347,54615.9446,-3801.4054,-3621.6974,21877.6166
51514.1934,24217.397,50749.6744,37602.7375,33374.995,35034.2989,4588.0973,48401.9369,44036.2394,54613.0836,-3814.1459,-3629.6546,21876.5885
51521.793,24224.7283,50753.3401,37604.7939,33386.6626,35039.5292,4594.3558,48407.2119,44047.3258,54621.9796,-3802.3442,-3620.8034,21881.9529
51542.5801,24232.8197,50757.274,37618.2497,33408.2991,35046.5924,4601.5531,48432.067,44058.0994,54627.9699,-3785.3569,-3606.0512,21886.7362
51547.721,24235.4125,50760.7162,37619.6802,33413.3059,35047.2629,4606.5599,48442.7512,44054.8807,54630.9203,-3780.6183,-3604.0843,21888.8372
51538.0204,24226.3377,50760.9844,37601.5753,33394.0834,35042.3902,4604.5929,48423.3499,44040.0392,54628.3722,-3792.6435,-3613.2485,21883.5175
51521.1225,24218.9616,50762.1914,37594.4227,33380.0465,35037.3834,4603.0283,48401.5346,44038.3852,54632.7531,-3799.5279,-3621.2951,21883.294
51529.3926,24221.2415,50758.5257,37597.0155,33394.2175,35037.6964,4602.5366,48414.1409,44045.5824,54632.0379,-3791.7048,-3615.573,21886.155
51537.4392,24220.258,50755.2177,37609.8454,33413.8423,35040.468,4600.8825,48429.206,44053.0926,54633.2002,-3778.2937,-3600.508,21888.7478
51542.446,24220.9285,50757.2293,37607.6102,33417.9997,35042.7926,4601.7766,48426.9708,44060.3346,54638.3858,-3779.0984,-3597.9152,21891.8771
51526.7998,24214.1783,50753.653,37594.0204,33401.9065,35036.6235,4598.3791,48411.2352,44055.0148,54634.3178,-3794.7446,-3608.5993,21887.1832
51513.9699,24208.0986,50750.2556,37590.2653,33387.1543,35033.8519,4599.5861,48405.0214,44047.6388,54630.2944,-3803.5065,-3616.0201,21886.602
51513.9699,24203.9412,50747.2157,37592.9028,33388.0484,35036.6235,4598.2003,48417.6278,44053.4055,54634.4072,-3801.1372,-3612.5332,21886.8703
51531.5384,24208.3669,50745.517,37596.8367,33406.6004,35039.3951,4597.798,48445.5675,44052.5562,54634.2731,-3793.3588,-3604.9783,21886.1103
51525.0564,24205.5058,50741.4937,37601.7988,33417.2398,35033.7178,4595.2499,48445.5228,44049.3375,54631.9038,-3793.9399,-3604.129,21880.0306
51511.9582,24197.191,50739.1691,37591.5617,33392.787,35029.5603,4589.1702,48425.9874,44042.0061,54628.6851,-3812.1343,-3616.4671,21873.3698
51506.4597,24196.7887,50737.828,37584.1856,33379.3312,35025.7605,4585.281,48411.5481,44033.1101,54625.2429,-3823.8019,-3626.0784,21870.5982
51516.7862,24201.4825,50741.0914,37593.3498,33391.2224,35031.0355,4590.3772,48425.2274,44048.6223,54628.4616,-3810.7485,-3619.6858,21875.4262
51526.4422,24206.6681,50740.7337,37604.5257,33406.0192,35034.7012,4593.5959,48447.3109,44057.6524,54633.2896,-3798.9914,-3610.4321,21874.9791
51522.8212,24213.8207,50736.4869,37604.7045,33405.6169,35029.3368,4590.3772,48448.6073,44049.5163,54630.6074,-3801.1372,-3615.3048,21871.8052
51505.2527,24213.016,50735.414,37597.999,33384.4721,35027.8169,4585.6386,48420.6229,44036.3735,54626.4052,-3812.4919,-3630.5487,21865.4126
51492.6463,24207.741,50732.4636,37587.7172,33363.4615,35026.9675,4581.973,48401.9369,44028.1928,54619.7891,-3824.2936,-3642.6187,21860.1823
51507.6667,24207.741,50731.4801,37588.6559,33372.3575,35026.3864,4580.766,48426.3003,44037.7593,54621.0408,-3823.1313,-3639.1318,21856.9189
51519.4684,24212.0326,50731.8377,37597.239,33392.4741,35027.1016,4584.1187,48446.238,44054.9701,54626.9417,-3811.419,-3628.3135,21861.8363
51523.2235,24218.0228,50732.0613,37613.8687,33405.5275,35036.8023,4590.5113,48444.7181,44054.8807,54626.7182,-3803.6853,-3623.7985,21866.3961
51507.7114,24216.1453,50733.0,37609.2196,33394.1281,35036.4447,4586.9797,48433.8999,44042.1402,54623.276,-3809.8097,-3629.2076,21867.4242
51497.1167,24209.0374,50732.4189,37600.0553,33379.3759,35032.0637,4580.2295,48413.6045,44029.2656,54618.6715,-3822.0584,-3637.0754,21862.1492
51503.6434,24205.9976,50731.2119,37601.1282,33389.7918,35032.5108,4579.1566,48421.0253,44033.0654,54620.415,-3817.8116,-3633.8568,21862.5069
51521.2119,24213.6866,50732.8212,37616.0145,33420.0114,35038.8139,4585.281,48440.516,44043.3472,54627.1205,-3798.2315,-3623.1279,21870.6876
51530.9572,24211.1832,50732.0166,37617.2215,33422.2913,35037.7858,4587.1586,48448.0262,44054.2102,54630.4286,-3791.4813,-3617.8976,21874.7109
51520.3178,24204.2094,50731.346,37610.5607,33400.6101,35040.6468,4587.0692,48429.2507,44052.0197,54629.1322,-3800.5114,-3627.2854,21876.6779
51509.8125,24206.6234,50735.9058,37607.789,33383.2204,35043.0161,4592.8806,48419.416,44048.0858,54625.5112,-3808.7815,-3635.4214,21876.812
51517.9932,24219.1851,50736.8892,37611.3206,33394.3516,35043.6419,4595.9204,48434.2128,44047.147,54625.0194,-3806.0546,-3625.8996,21881.3717
51532.5218,24225.2648,50736.3975,37623.3459,33421.8442,35046.9053,4600.3014,48458.1739,44059.8875,54632.619,-3790.0507,-3609.0016,21887.4067
51542.1331,24227.5894,50741.9407,37629.0232,33427.7451,35050.7051,4603.2518,48467.9192,44066.146,54639.8163,-3780.8865,-3601.715,21892.0112
51538.6015,24227.947,50743.7736,37624.6423,33413.5294,35048.8275,4602.8942,48459.7385,44059.664,54637.9834,-3786.8768,-3606.7665,21889.6866
51521.2119,24222.4038,50736.8892,37616.9086,33395.4692,35042.6137,4597.9321,48435.5539,44051.3045,54631.8144,-3801.0925,-3619.3728,21884.0539
51526.0398,24228.0364,50736.8445,37621.513,33403.6499,35048.3805,4601.7319,48442.5277,44059.3511,54637.5364,-3794.5211,-3610.3427,21886.3338
51545.9776,24236.4854,50740.5102,37637.2486,33425.5099,35053.3426,4606.5599,48465.1923,44075.042,54646.1642,-3775.4774,-3595.9929,21890.6701
51553.756,24237.6029,50740.7784,37638.0086,33433.1989,35050.0792,4603.3412,48471.2273,44078.5736,54645.6724,-3777.9808,-3596.6188,21888.6584
51534.5335,24226.74,50734.8329,37628.0844,33417.2398,35042.5243,4595.4287,48451.826,44066.0566,54637.3129,-3792.733,-3613.1144,21881.0141
51514.1934,24217.7099,50734.1623,37612.17,33392.2952,35037.7411,4592.9253,48430.9047,44053.4055,54628.5957,-3805.0711,-3627.2854,21875.7838
51519.9155,24212.4796,50735.2352,37608.9513,33398.3302,35039.8868,4590.3325,48441.0971,44054.4337,54629.0874,-3803.5512,-3624.022,21874.1298
51551.8337,24217.1288,50740.4208,37624.9552,33422.3807,35041.0044,4594.5793,48470.1097,44077.0537,54643.3032,-3787.5921,-3610.3427,21879.0025
51557.5558,24216.3688,50741.2702,37621.2448,33424.2135,35037.7411,4591.316,48472.7472,44072.8962,54644.3313,-3791.6154,-3612.0415,21878.019
51538.5121,24210.6915,50740.7784,37609.9795,33409.5955,35033.3601,4587.248,48449.9037,44058.9935,54635.5247,-3805.0264,-3625.8548,21870.0171
51521.793,24206.4446,50734.6988,37596.1214,33391.8929,35029.2027,4580.453,48428.3119,44049.1587,54630.5627,-3815.04,-3641.2776,21863.6692
51525.2799,24205.6847,50729.3344,37599.1613,33400.1184,35025.984,4578.8884,48432.1564,44053.7632,54631.0544,-3815.9788,-3637.4331,21862.4622
51535.0699,24205.5506,50729.4685,37614.0028,33420.8161,35034.5224,4581.973,48456.0281,44064.5814,54636.1059,-3804.0429,-3623.1726,21865.949
51534.5335,24208.0986,50732.4189,37617.6685,33428.6392,35035.7294,4584.074,48463.7618,44072.2704,54639.5928,-3794.8787,-3619.2387,21870.6429
51525.3693,24202.1084,50734.3858,37608.2361,33408.4779,35030.9014,4581.1683,48450.7084,44067.4871,54637.1788,-3803.6853,-3627.643,21871.7158
51510.5277,24193.2124,50735.6822,37599.8765,33389.3895,35029.2027,4580.8107,48443.0641,44060.3346,54632.1273,-3819.868,-3636.7625,21871.984
51517.2333,24199.9626,50734.2517,37601.7094,33399.2243,35031.7955,4584.2975,48454.0612,44060.3793,54632.6637,-3817.8563,-3631.6663,21872.5652
51533.7288,24205.6847,50728.1721,37615.7016,33420.5031,35033.8072,4581.4812,48468.5451,44072.181,54639.1457,-3802.4783,-3622.5468,21873.3698
51528.9903,24205.1035,50723.9699,37616.7744,33421.6207,35034.0754,4577.9943,48471.5402,44071.1081,54635.4353,-3804.8029,-3628.9394,21871.1793
51513.9699,24198.3533,50727.3227,37605.1962,33405.1251,35026.5652,4574.9098,48462.6442,44061.4074,54634.2283,-3818.9739,-3637.4331,21867.5137
51503.9116,24197.638,50726.3392,37598.2225,33390.0601,35021.7372,4570.8418,48443.0641,44050.9021,54628.6404,-3828.5404,-3647.536,21861.7469
51512.2712,24198.9791,50727.4121,37599.1613,33391.1777,35027.6828,4575.5804,48453.7035,44060.4687,54632.7531,-3820.9409,-3640.16,21863.9374
51532.7901,24206.1317,50732.7318,37613.2429,33415.2728,35039.4845,4580.3636,48486.2477,44075.7573,54641.2915,-3807.6639,-3626.3019,21872.2522
51538.1098,24209.2162,50732.553,37619.7249,33431.0979,35047.1288,4580.3636,48489.511,44073.5221,54638.3411,-3802.6571,-3624.2455,21874.9344
51519.9155,24201.8402,50728.6638,37610.0689,33407.1815,35040.1103,4577.7261,48471.3614,44064.0002,54630.0262,-3815.5317,-3632.2474,21867.5584
51505.1186,24193.6147,50724.9981,37596.9261,33387.9143,35033.5836,4572.6746,48455.8493,44055.1937,54621.309,-3831.3568,-3642.9763,21857.6342
51514.3275,24197.7274,50729.4685,37603.0505,33403.784,35038.9481,4577.3685,48463.4489,44065.8331,54627.7016,-3827.6017,-3635.5108,21864.3844
51539.7191,24207.2046,50739.6162,37624.1505,33436.4623,35052.4932,4588.6785,48496.6189,44088.9001,54642.9008,-3805.4734,-3610.5663,21876.6779
51546.514,24208.8139,50737.0681,37631.3478,33435.4788,35054.3708,4592.7465,48499.7928,44094.2198,54647.9523,-3799.6173,-3607.4817,21878.9577
51533.6394,24205.4164,50734.2964,37632.1077,33418.3127,35053.2532,4594.177,48485.9794,44082.5969,54641.0233,-3806.7698,-3618.6129,21875.8285
51515.2216,24199.6497,50731.5695,37622.1389,33404.0076,35045.743,4587.2033,48463.0018,44072.9856,54635.3012,-3818.1245,-3630.951,21871.3582
51524.967,24204.4777,50729.5579,37621.513,33408.165,35042.1667,4578.799,48469.7074,44075.6232,54634.0495,-3817.4987,-3632.8286,21868.7207
51539.2721,24205.9976,50730.899,37628.3973,33426.0911,35045.0724,4578.799,48489.8239,44081.8369,54638.9222,-3808.4239,-3623.4856,21867.8266
51535.4276,24204.433,50727.3227,37626.7433,33427.6557,35042.2114,4578.9331,48491.478,44083.1333,54639.3692,-3802.4783,-3623.3515,21865.6361
51524.8328,24201.9296,50722.9418,37618.1602,33411.1601,35039.261,4574.0157,48476.9493,44074.0138,54628.1487,-3818.9292,-3638.5953,21858.26
51508.5161,24195.2688,50728.4403,37606.6267,33394.5304,35032.019,4571.9594,48467.4722,44068.2918,54628.104,-3834.7095,-3648.6089,21856.7848
51515.1322,24192.4524,50733.4471,37604.9727,33399.1349,35033.0472,4572.2276,48474.4012,44072.4492,54628.9086,-3834.6201,-3646.5526,21860.1823
51535.3382,24196.6099,50731.793,37607.6549,33411.786,35031.572,4569.5007,48497.6023,44085.0556,54632.3955,-3819.4656,-3633.1415,21863.9374
51543.4295,24206.3105,50737.2469,37618.3838,33426.2699,35036.9811,4576.2062,48509.4041,44093.8175,54640.1739,-3807.7086,-3624.2902,21868.5418
51534.757,24210.2891,50741.7172,37616.685,33422.5148,35038.7245,4579.559,48507.303,44089.6153,54640.1292,-3810.3908,-3626.5254,21869.9276
51523.2235,24207.5622,50740.9573,37605.0621,33397.6597,35038.9481,4576.4744,48492.1038,44073.1198,54635.0777,-3824.8748,-3636.4943,21866.4408
51523.9388,24195.1346,50736.3528,37600.5471,33395.6033,35036.2659,4568.6066,48486.203,44069.32,54633.2896,-3827.9146,-3637.9248,21864.0268
51537.4839,24199.0238,50735.727,37612.5723,33420.8161,35035.64,4572.9429,48502.7879,44084.2509,54638.7434,-3810.5249,-3620.9375,21869.3018
51552.2361,24204.3436,50735.9058,37629.0232,33435.2106,35043.0608,4577.6367,48516.5119,44092.1187,54641.6938,-3806.144,-3616.9142,21872.4757
51536.3216,24198.1745,50733.313,37611.7229,33409.1038,35034.4777,4573.971,48502.7879,44078.5736,54633.2002,-3818.7504,-3629.7888,21867.9607
51515.8921,24185.2105,50729.5579,37599.1166,33392.2952,35026.8781,4569.6348,48476.4129,44067.8895,54622.069,-3837.0788,-3643.6468,21861.5681
51524.0282,24185.7469,50730.0943,37607.6996,33402.2641,35035.4165,4570.3948,48492.2379,44078.3054,54628.4616,-3826.2159,-3636.0025,21865.0103
51542.0884,24193.9276,50734.4753,37620.7083,33426.1358,35043.8207,4573.3005,48513.8744,44092.7446,54639.3245,-3809.8097,-3621.4739,21871.8052
51545.1729,24204.2094,50740.3314,37620.7083,33426.851,35047.0394,4576.1168,48518.7918,44096.3656,54642.0962,-3804.7135,-3619.6858,21873.4592
51530.7337,24195.6711,50736.8445,37610.4712,33406.5109,35040.8703,4571.7359,48508.2418,44083.491,54639.8163,-3817.5434,-3632.6945,21868.0948
51512.897,24182.9306,50733.0894,37598.5354,33387.6014,35032.2872,4565.5668,48483.9678,44072.3151,54634.6754,-3830.0157,-3647.6254,21861.1211
51518.932,24182.4389,50730.5861,37601.8435,33401.1018,35030.7673,4563.2422,48488.3934,44074.9079,54634.3178,-3822.5502,-3642.9316,21861.8363
51534.2653,24186.9539,50728.1274,37613.4664,33422.0678,35030.812,4563.4657,48514.0532,44088.4978,54641.7832,-3813.073,-3633.5438,21863.848
51540.9261,24190.0831,50726.2051,37614.0922,33421.3972,35029.8285,4563.7786,48523.0833,44098.6007,54643.8843,-3813.9224,-3630.1911,21865.3679
51530.9125,24186.9092,50727.8591,37605.7327,33404.097,35030.0521,4563.6892,48510.2534,44081.6134,54637.2235,-3826.2606,-3644.0045,21859.0647
51508.8737,24181.813,50726.4286,37594.9591,33384.6956,35024.1065,4559.2636,48491.2097,44067.1742,54625.9582,-3840.0292,-3658.3543,21851.1075
51515.9816,24185.8363,50730.5861,37606.7609,33394.3516,35030.365,4561.7223,48508.4653,44079.423,54629.7133,-3828.6746,-3648.2066,21856.3378
51533.55,24191.6031,50730.4966,37617.9367,33412.7694,35032.8237,4562.5269,48532.2922,44089.8389,54634.0942,-3819.2868,-3635.0638,21860.5846
51533.3265,24190.0384,50730.6308,37615.5674,33412.8588,35028.6216,4561.9458,48534.3039,44093.6834,54634.9883,-3821.522,-3633.4991,21859.8247
51528.1856,24194.1065,50734.3411,37608.1914,33399.7607,35032.019,4568.7407,48531.1747,44091.8952,54632.9767,-3830.0604,-3643.2892,21861.1658
51510.3042,24192.8101,50733.6706,37600.7259,33387.3779,35028.9345,4568.9195,48512.7121,44087.6484,54629.5792,-3839.7163,-3652.0958,21858.1259
51510.3042,24193.4806,50733.3577,37609.6219,33399.0008,35030.4991,4568.5619,48526.2126,44088.4978,54632.8425,-3827.1546,-3641.6352,21861.1658
51530.3314,24205.5058,50737.2022,37625.6257,33428.4157,35037.8752,4572.3617,48552.8558,44107.3179,54644.1525,-3811.1955,-3627.4642,21867.7372
51525.5928,24207.6963,50738.8562,37623.3906,33425.957,35036.5341,4572.6299,48552.23,44111.4753,54644.6443,-3811.4637,-3625.0502,21868.0054
51511.5559,24205.64,50740.5549,37615.8357,33406.6451,35033.0472,4571.0653,48533.1863,44101.8194,54638.1176,-3820.6279,-3633.2309,21867.0666
51498.2343,24199.6944,50735.6822,37603.1399,33391.4906,35026.3417,4567.7125,48513.7403,44088.5425,54631.3673,-3834.1284,-3644.8538,21861.7022
51505.6998,24194.6429,50728.3062,37604.2128,33393.994,35021.7819,4564.6727,48518.0765,44089.1683,54634.0942,-3829.6133,-3644.4962,21859.6458
51519.9602,24199.3815,50727.5909,37614.0922,33410.4002,35023.0783,4566.3714,48536.8967,44105.1722,54637.4917,-3815.9788,-3634.0356,21861.2999
51529.7055,24207.1152,50734.1623,37621.1554,33417.3292,35031.7061,4573.5687,48541.0094,44113.8893,54640.7998,-3810.0332,-3628.0006,21865.7255
51520.139,24202.1978,50738.1409,37613.0641,33399.716,35031.7955,4572.6299,48532.6052,44102.8476,54640.3527,-3822.7737,-3634.2591,21864.5185
51509.7231,24193.9723,50736.174,37600.2789,33385.8132,35023.4807,4569.8583,48519.6859,44091.4929,54631.9485,-3834.486,-3644.7644,21858.9753
51521.2119,24198.0851,50738.588,37606.2244,33398.5537,35024.9559,4571.1994,48529.8336,44102.2664,54639.4587,-3822.8631,-3636.2708,21861.1658
51547.274,24209.9762,50742.0301,37625.2681,33424.75,35033.9413,4578.4414,48555.9851,44125.2887,54649.1593,-3805.4287,-3617.8976,21867.469
51546.9164,24206.9811,50739.5267,37624.4187,33424.5265,35038.6351,4580.4083,48555.3592,44121.5783,54650.411,-3805.3393,-3618.0764,21869.123
51528.9009,24207.4728,50738.0515,37614.9863,33406.0192,35036.1764,4577.7708,48541.3671,44103.3393,54644.5549,-3815.5317,-3632.5157,21865.3232
51512.6288,24201.5719,50733.1342,37601.7541,33390.4177,35028.2192,4574.1051,48536.1814,44092.2081,54636.3294,-3826.2606,-3645.1221,21859.4223
51524.967,24202.5107,50736.3081,37606.5373,33401.4595,35033.986,4575.8039,48542.3952,44101.73,54642.7667,-3822.3267,-3634.5273,21861.0317
51539.7191,24208.0539,50738.9456,37622.72,33430.4273,35038.4563,4581.2577,48557.5497,44113.7999,54653.7638,-3807.8874,-3617.8976,21865.9937
51540.7473,24213.4631,50740.0632,37623.8823,33436.8199,35042.7479,4585.9069,48563.987,44117.9574,54658.3235,-3803.4618,-3613.2485,21870.0618
51531.7619,24216.0559,50742.4772,37613.1982,33413.1718,35038.9034,4586.2645,48552.3194,44116.8845,54654.1214,-3815.8447,-3620.6245,21869.9723
51518.4402,24212.2561,50745.5617,37612.6617,33401.37,35036.9364,4587.6056,48532.7393,44109.7319,54653.0932,-3820.762,-3627.8665,21869.0336
51526.3081,24215.3406,50747.8863,37617.2662,33409.819,35046.9947,4591.1372,48549.7713,44115.9904,54660.0223,-3810.0779,-3620.7139,21874.398
51546.9611,24225.98,50747.7969,37628.3079,33429.7568,35052.2697,4593.5512,48569.9773,44122.1148,54662.928,-3803.5959,-3612.3991,21875.3815
51550.7162,24227.2317,50746.3217,37633.1806,33441.2903,35055.0413,4594.8476,48573.9559,44120.729,54664.135,-3798.455,-3609.8957,21878.466
51538.3333,24214.8489,50746.4111,37625.7598,33422.7383,35050.4816,4592.1206,48553.4817,44118.0468,54665.029,-3804.4006,-3620.3116,21879.9412
51535.2488,24210.3338,50746.5452,37621.2895,33403.0241,35049.9004,4594.3558,48539.5342,44112.3694,54662.1233,-3811.9555,-3625.676,21880.4777
51541.4625,24205.327,50741.9407,37619.9037,33408.0756,35050.7051,4592.0759,48548.2514,44114.7834,54662.5704,-3807.798,-3616.9589,21879.4495
51544.1895,24209.0374,50740.9573,37628.2185,33429.7568,35055.086,4591.4501,48567.6527,44126.0934,54664.5373,-3793.1353,-3605.0677,21883.3834
51542.6248,24209.9762,50743.0583,37633.1359,33433.5566,35053.4767,4588.5891,48569.8432,44131.726,54664.2691,-3791.7048,-3607.3029,21883.5175
51529.0797,24201.1696,50742.8795,37627.548,33411.6518,35048.604,4586.3986,48553.7499,44118.6726,54658.1447,-3804.3559,-3618.8811,21878.8236
51518.932,24192.7654,50741.2702,37620.5295,33395.8268,35042.9714,4582.7776,48539.7577,44108.972,54654.6131,-3815.7105,-3630.8616,21874.4427
51521.9271,24197.5933,50741.8513,37625.4022,33405.7957,35044.4466,4582.6882,48558.0862,44113.7552,54655.7754,-3813.073,-3623.3068,21876.1414
51541.8202,24202.6001,50746.1876,37641.0484,33436.0152,35054.6837,4586.3986,48585.3106,44132.6201,54667.1301,-3796.488,-3604.9336,21881.8188
51548.1234,24204.9247,50743.8183,37639.8414,33434.0036,35049.9451,4585.9069,48589.5574,44128.0156,54671.5111,-3800.6455,-3613.7849,21876.0967
51525.0564,24204.2094,50735.8164,37625.2234,33407.0474,35038.1881,4579.0225,48566.4457,44113.6658,54658.0106,-3820.5385,-3637.2542,21865.949
51503.6881,24189.6808,50731.6142,37615.3439,33388.4954,35032.3766,4573.7922,48547.9385,44098.6902,54652.2886,-3829.3451,-3648.9218,21864.4291
51520.9883,24188.6526,50732.8659,37619.3225,33403.6946,35037.8752,4577.0556,48559.7402,44107.7203,54661.0504,-3821.075,-3635.8237,21869.3465
51541.5072,24192.5418,50731.0778,37631.6607,33425.957,35036.1764,4577.6367,48581.2873,44114.694,54665.2526,-3808.2898,-3625.1396,21867.3348
51539.138,24192.4971,50727.6803,37631.5713,33421.5313,35033.8072,4576.1615,48579.9015,44114.5599,54661.721,-3805.1158,-3629.0735,21865.8596
51519.7814,24186.1939,50725.4899,37621.3789,33393.4128,35027.3699,4571.4229,48552.7664,44105.9321,54652.6015,-3818.7951,-3637.2542,21861.3893
51506.1915,24184.3164,50724.6852,37612.9746,33377.3196,35018.8762,4567.9361,48529.3865,44089.7942,54647.103,-3828.3616,-3644.7197,21857.0083
51520.5413,24193.6594,50730.2284,37617.0427,33398.8667,35031.7955,4569.6795,48539.5789,44096.8126,54652.3333,-3819.4209,-3635.332,21861.3893
51546.067,24206.7128,50733.2683,37628.2185,33421.0396,35044.6701,4575.4462,48567.2504,44110.626,54661.0504,-3806.0099,-3622.5021,21868.4077
51550.4479,24211.362,50736.1293,37629.2914,33420.8161,35047.1735,4577.4579,48575.3864,44115.8116,54659.3964,-3804.7135,-3622.2786,21869.8829
51543.9659,24214.5807,50738.9903,37625.0893,33406.3768,35047.1288,4578.2179,48568.5468,44106.7368,54653.1379,-3811.5084,-3630.7275,21868.8995
51536.6346,24210.6915,50740.0185,37622.5412,33389.0319,35049.7216,4579.559,48560.9919,44100.0313,54653.3614,-3817.5434,-3635.1532,21867.916
51548.7939,24217.4417,50743.7736,37633.8065,33405.1698,35060.6292,4585.9516,48572.0336,44111.073,54661.5422,-3805.8311,-3622.0104,21876.7226
51564.0825,24223.2978,50743.1924,37646.2787,33426.1805,35063.6691,4587.5609,48591.7032,44128.418,54663.4644,-3789.6037,-3610.7898,21883.0705
51566.4965,24223.1637,50742.9242,37642.0319,33424.0794,35063.4903,4584.834,48588.9316,44130.072,54662.4362,-3789.2461,-3611.7733,21882.3552
51544.9494,24210.4679,50741.8513,37625.1787,33394.7986,35055.4883,4578.1732,48563.4953,44111.4306,54655.2837,-3804.4006,-3621.5633,21875.7838
51530.689,24204.2989,50741.4043,37616.5062,33373.6092,35050.4816,4576.6979,48553.2582,44103.4287,54652.6462,-3812.9389,-3629.8335,21876.1414
51534.3547,24205.8635,50743.7289,37619.3225,33388.719,35056.9636,4583.8505,48566.848,44108.7484,54660.3352,-3803.1489,-3614.0978,21883.5175
51545.0835,24211.809,50744.3547,37631.0796,33415.2728,35061.7021,4589.2149,48582.5837,44114.4705,54663.6432,-3790.8107,-3601.0444,21889.1948
51548.5257,24213.9548,50743.9524,37636.8016,33427.2534,35066.0384,4588.2761,48583.3436,44110.4919,54661.0057,-3787.5921,-3603.5925,21890.3571
51529.9737,24205.5058,50742.656,37624.374,33418.9832,35060.0928,4587.3374,48564.4341,44099.4501,54653.8532,-3798.1868,-3614.7237,21888.1667
51509.8125,24201.8402,50746.4558,37612.3041,33408.2544,35052.7167,4586.2645,48540.5624,44087.1567,54650.8133,-3808.0215,-3624.3796,21884.1881
51514.1934,24201.9743,50745.517,37616.0145,33419.3408,35052.9402,4590.1984,48540.6518,44093.9963,54653.3167,-3797.8739,-3617.8082,21887.6749
51521.793,24200.1861,50743.7289,37621.4236,33432.7519,35050.9286,4590.4219,48550.6654,44096.3209,54657.1165,-3787.3238,-3608.5546,21891.4747
51521.2119,24201.3931,50740.4655,37629.2467,33433.1095,35048.7381,4590.8689,48540.9647,44087.5143,54659.8434,-3783.2111,-3607.7499,21889.6419
51494.5239,24200.1414,50736.621,37615.791,33405.0357,35038.1434,4589.1702,48516.7354,44070.8399,54650.8133,-3796.7116,-3620.4904,21882.8022
51465.4666,24195.224,50734.0282,37595.0038,33381.3876,35024.8665,4586.3986,48490.8074,44056.6242,54648.3099,-3813.2071,-3633.365,21875.605
51467.1654,24198.1745,50733.0447,37593.6627,33391.3118,35020.709,4582.5988,48487.2311,44056.356,54645.136,-3817.901,-3630.6828,21873.4592
51484.2868,24211.4514,50732.6871,37606.0456,33410.266,35024.33,4584.4764,48495.7248,44063.9555,54646.7006,-3807.7086,-3623.8879,21874.8003
51482.6775,24210.4679,50727.2333,37607.0291,33414.7364,35018.8315,4584.074,48488.4828,44059.0829,54642.6773,-3809.0497,-3625.1396,21872.4757
51471.8592,24205.8188,50729.692,37592.9028,33391.58,35013.9141,4584.9234,48477.2176,44042.6767,54640.9786,-3817.454,-3633.4991,21869.0783
51458.2694,24209.3951,50731.2566,37586.8231,33371.5081,35012.8859,4588.0079,48451.3342,44026.0023,54636.4188,-3826.35,-3638.193,21872.3863
51462.8738,24215.2065,50728.1274,37601.1729,33385.5003,35018.1609,4590.8242,48449.5908,44033.8254,54634.6307,-3813.8777,-3629.0735,21876.3649
51483.4821,24222.1355,50726.1604,37610.6948,33406.8239,35026.4311,4593.1041,48469.2603,44043.4813,54638.7434,-3797.6503,-3618.8364,21881.4164
51485.6279,24227.6788,50729.0214,37614.7628,33410.6684,35026.6546,4593.5959,48472.8813,44047.5941,54639.5481,-3795.0575,-3619.507,21880.4777
51473.5132,24223.5661,50730.4072,37613.7793,33393.2787,35023.7936,4592.0759,48455.6258,44031.8137,54634.3178,-3803.2383,-3629.4311,21878.4213
51464.2596,24214.1336,50728.3956,37609.2196,33372.6257,35019.4126,4589.8855,48424.5121,44020.1908,54629.9368,-3814.1459,-3637.0307,21875.9179
51463.2761,24211.5408,50727.278,37611.1865,33379.6889,35020.1279,4589.2149,48422.5452,44021.1743,54630.0709,-3807.5745,-3631.3981,21878.7342
51472.9768,24216.9499,50727.3674,37619.859,33394.6645,35027.0569,4591.1372,48438.862,44032.6184,54633.8707,-3789.559,-3616.78,21882.3105
51469.6687,24216.637,50727.9932,37618.2497,33390.3283,35026.2076,4590.109,48434.5704,44029.355,54631.5461,-3788.2626,-3616.9142,21881.8188
51463.0973,24211.5408,50727.7697,37614.5393,33371.5528,35020.8431,4590.8242,48418.9242,44017.2404,54621.9349,-3803.5512,-3630.8616,21876.0073
51447.5852,24204.433,50721.4218,37603.3187,33353.2244,35011.813,4588.0526,48393.2644,44002.2647,54608.2109,-3816.7387,-3642.261,21867.8713
51452.2791,24206.3105,50724.417,37606.4926,33367.0825,35019.502,4589.4831,48398.5841,44011.1607,54614.6035,-3806.2334,-3629.6546,21869.7935
51477.4024,24218.6934,50729.2002,37620.5742,33384.0251,35026.0288,4593.2829,48422.5005,44022.8283,54625.7794,-3790.4084,-3616.9142,21876.7226
51485.5832,24219.9451,50735.5928,37625.7151,33390.5518,35024.4641,4595.8757,48422.9922,44019.2521,54626.2711,-3785.7145,-3616.78,21878.3766
51468.6853,24207.6963,50731.7036,37617.1321,33371.2399,35020.6643,4590.1984,48402.9651,44013.9323,54616.6599,-3799.1703,-3625.6313,21874.1298
51459.834,24203.3154,50733.2236,37610.0689,33345.9377,35021.2008,4592.2548,48390.8504,44008.1209,54610.4014,-3808.8262,-3635.9578,21871.6711
51473.8262,24212.7031,50738.0068,37616.8191,33354.3867,35025.3135,4596.591,48401.7134,44013.6641,54617.0175,-3795.0575,-3630.1464,21876.3202
51483.4374,24213.8207,50735.9505,37620.5742,33376.649,35024.2406,4594.6687,48417.4937,44031.5008,54624.7959,-3785.3122,-3621.9209,21880.4777
51499.2177,24213.9101,50737.9621,37627.1009,33385.9473,35026.3417,4596.7698,48419.7289,44036.597,54629.1769,-3783.1664,-3617.4953,21882.847
51490.4112,24204.7459,50736.7104,37618.4732,33374.8609,35021.7372,4593.1041,48402.2051,44029.8915,54624.3042,-3796.1751,-3628.4477,21879.4942
51475.1226,24197.7721,50731.0331,37602.067,33357.1136,35013.3777,4589.4384,48378.244,44015.1393,54615.2294,-3812.8048,-3638.4165,21875.9626
51485.7173,24201.8849,50728.9767,37605.2856,33365.652,35018.7421,4587.6503,48386.7377,44017.6427,54619.8785,-3803.0595,-3627.1065,21878.8236
51508.1137,24206.4446,50728.6638,37614.1369,33377.0514,35023.123,4585.5045,48406.8543,44028.1928,54621.1749,-3790.1402,-3613.6955,21881.1482
51508.1584,24204.2094,50729.692,37611.3206,33381.477,35023.436,4582.5988,48406.139,44028.9974,54618.8951,-3791.8389,-3618.1659,21878.019
51495.865,24206.087,50733.3577,37603.8104,33368.513,35020.1726,4582.1965,48389.7775,44018.5368,54619.7444,-3803.4618,-3627.5536,21876.1414
51482.0069,24197.3698,50732.1507,37592.4557,33342.4956,35014.2717,4579.1119,48375.1148,44008.7467,54613.4859,-3813.6542,-3644.0939,21869.7488
51494.8815,24201.1249,50732.6871,37591.8746,33353.8055,35017.2669,4581.1236,48390.8951,44020.2802,54620.415,-3804.3112,-3636.0919,21872.1181
51520.2284,24219.0063,50737.9621,37607.2079,33387.512,35031.3932,4591.0031,48426.1215,44037.8934,54627.6569,-3787.3238,-3614.0084,21880.7459
51514.9981,24218.9616,50733.4918,37609.9795,33390.5965,35030.5438,4591.5395,48429.6083,44040.2627,54629.5792,-3785.044,-3610.0745,21880.0753
51499.1283,24209.0374,50732.4189,37601.8882,33370.5693,35022.9442,4591.6289,48417.3596,44033.3784,54624.6171,-3799.1703,-3617.4953,21877.1249
51491.8864,24203.3154,50735.5034,37603.5422,33358.4547,35018.2056,4593.9088,48401.2663,44024.5271,54623.8124,-3808.6474,-3620.8481,21878.6895
51492.8699,24199.605,50734.4753,37602.3799,33370.4799,35021.0667,4594.177,48408.6424,44032.3055,54629.8921,-3800.1984,-3615.886,21886.0209
51510.9748,24200.4097,50737.7833,37613.2429,33392.5188,35028.3533,4597.038,48425.138,44046.8341,54638.5646,-3781.2442,-3600.9103,21892.7711
51510.1701,24199.605,50740.1079,37612.7511,33387.5567,35022.2737,4596.2334,48419.2818,44050.0528,54640.9786,-3778.5172,-3601.402,21888.6584
51498.5919,24197.5933,50739.3926,37614.2263,33371.4187,35019.9491,4595.4287,48401.4452,44036.7758,54640.4868,-3790.9448,-3613.025,21884.948
51491.6182,24201.8402,50738.6327,37607.3867,33353.7161,35025.537,4596.8145,48388.5705,44027.2093,54638.7434,-3806.144,-3627.1065,21884.7692
51500.5141,24202.2872,50737.9174,37610.516,33360.377,35033.4495,4596.5463,48409.9835,44039.9051,54643.5714,-3795.7728,-3620.2669,21889.5525
51512.9864,24201.9296,50731.2119,37619.6802,33380.27,35031.0355,4594.9817,48430.4577,44050.6786,54641.0233,-3786.4745,-3610.7004,21885.7527
51497.0273,24196.6099,50727.9038,37617.9367,33386.6626,35025.0006,4589.349,48428.8931,44049.8292,54638.5646,-3786.2062,-3614.9025,21878.7342
51483.7056,24195.7158,50726.8757,37614.0922,33377.7666,35016.2387,4586.3986,48415.3926,44039.1004,54635.8824,-3802.6571,-3630.0123,21873.2804
51475.4355,24197.7274,50727.2333,37612.4829,33360.1534,35018.6527,4589.4831,48403.0545,44034.5854,54631.8591,-3809.8097,-3635.8237,21871.4029
51486.969,24200.8567,50729.7367,37618.4732,33368.6024,35024.0171,4592.97,48419.5054,44045.3142,54634.0048,-3799.7514,-3624.8714,21875.7838
51510.5277,24208.7692,50730.5413,37625.2234,33385.3662,35030.2309,4591.3607,48437.4762,44055.2384,54634.1389,-3787.2344,-3611.9968,21877.3037
51523.4917,24215.5641,50732.553,37628.8444,33390.5518,35043.0608,4593.0147,48444.0476,44060.5581,54637.7152,-3783.9264,-3609.1357,21880.7459
51512.6288,24205.0141,50727.7697,37620.9766,33376.7831,35044.4913,4588.1867,48430.3236,44051.1256,54631.3673,-3795.9516,-3621.2951,21877.5272
51499.0389,24195.1346,50725.4004,37613.6899,33361.7181,35041.4068,4580.9001,48411.3246,44039.1451,54623.0078,-3807.4404,-3632.3816,21870.8664
51508.7843,24199.2921,50726.7863,37617.892,33377.9901,35047.1288,4584.6999,48429.5636,44043.7943,54625.6006,-3802.3442,-3624.8714,21873.7721
51530.6443,24213.1054,50733.3577,37639.5285,33415.1387,35060.9869,4591.0031,48462.3313,44061.2286,54634.5413,-3783.4346,-3607.3923,21881.4611
51535.6958,24213.776,50737.7833,37638.858,33419.7432,35062.6409,4591.8077,48457.9951,44067.353,54635.8377,-3780.9312,-3606.4088,21879.0472
51523.3129,24211.4514,50742.7454,37624.6423,33401.0571,35059.6905,4591.8971,48447.8027,44062.0333,54632.619,-3793.0012,-3615.0813,21875.4709
51518.932,24212.2114,50744.8018,37614.271,33387.8696,35052.0909,4595.4734,48439.9348,44058.7252,54630.3838,-3802.5677,-3623.1726,21874.6662
51527.1127,24221.6438,50749.138,37622.0495,33406.198,35054.5496,4602.9389,48459.2915,44066.2354,54633.6472,-3789.2014,-3610.0298,21883.741
51535.7852,24234.1161,50753.8766,37635.0582,33429.5332,35063.7138,4608.4374,48482.5373,44081.3899,54645.4489,-3768.1013,-3590.4497,21893.084
51537.8863,24233.4455,50753.3401,37630.5878,33428.1474,35060.4057,4607.6775,48487.3205,44092.4317,54650.858,-3769.8448,-3593.0872,21896.5709
51524.7434,24232.2385,50751.552,37621.6918,33408.7908,35052.0015,4612.8184,48475.5635,44083.6251,54649.6958,-3784.6863,-3604.6654,21899.7002
51513.7464,24229.1093,50752.4014,37613.5558,33397.615,35049.9004,4612.9972,48461.929,44073.9244,54647.4606,-3794.6105,-3613.4273,21897.5991
51522.9106,24223.2978,50754.3236,37619.9484,33411.2048,35050.6604,4611.8349,48466.5781,44085.3238,54654.9708,-3785.2228,-3603.2796,21900.5942
51536.0534,24226.7847,50751.1944,37627.6821,33434.7188,35052.0909,4615.1429,48488.1699,44101.0594,54657.1165,-3770.2471,-3589.7791,21903.5
51536.8134,24230.9421,50750.2556,37630.9454,33438.3845,35047.8888,4613.7571,48499.2564,44108.3908,54658.3235,-3771.6329,-3590.4944,21899.5661
51517.8591,24226.8741,50746.5452,37614.8969,33417.6868,35037.2046,4608.7056,48478.8269,44095.4715,54653.1379,-3783.3452,-3604.3972,21894.4252
51505.3868,24217.6205,50741.8513,37594.3333,33391.1777,35032.3766,4604.0565,48456.341,44076.3831,54648.8911,-3803.5065,-3621.5633,21887.5855
51514.104,24215.9218,50739.5267,37605.1515,33399.8948,35034.433,4603.9671,48458.7103,44078.3501,54652.9591,-3796.488,-3613.7849,21884.8139
51536.5899,24219.5874,50741.5384,37617.6685,33420.5031,35037.9199,4605.3976,48475.3847,44086.9331,54656.1778,-3785.6251,-3599.8374,21884.7245
51537.0369,24221.8673,50742.209,37620.7083,33425.6887,35037.3387,4606.7387,48476.6364,44083.2675,54653.4508,-3786.9662,-3600.3739,21883.294
51520.4966,24217.7546,50740.0632,37604.7045,33395.8268,35037.6964,4605.0847,48459.3362,44070.5717,54647.0582,-3800.869,-3613.2485,21877.4825
51509.9913,24215.0277,50743.6395,37599.8765,33382.6393,35036.7129,4603.9224,48444.1817,44067.3083,54645.6277,-3807.1275,-3619.9987,21875.605
51521.1672,24221.1074,50747.2605,37611.8571,33405.2593,35042.4796,4612.0137,48463.0018,44078.1713,54652.9144,-3796.7116,-3608.2864,21886.1103
51544.1447,24226.3377,50746.3664,37622.6306,33428.6392,35049.7663,4618.898,48487.6782,44086.8437,54662.1233,-3779.5454,-3591.7461,21892.8158
51537.1263,24225.1754,50745.07,37624.374,33429.7568,35049.9004,4621.8038,48490.3157,44088.5425,54665.8784,-3772.3482,-3588.9298,21895.1851
51521.3907,24220.9285,50747.1263,37617.3109,33417.8209,35047.5758,4620.3285,48484.8619,44072.4492,54663.8221,-3785.7592,-3599.2563,21893.2629
51512.0029,24214.4018,50748.6016,37612.6617,33411.6071,35047.0394,4618.7192,48465.3711,44069.9458,54661.2293,-3792.2412,-3604.0395,21893.5758
51511.5112,24212.4796,50745.6064,37616.9086,33422.7383,35049.2299,4618.5851,48465.5946,44084.1615,54656.1331,-3782.0935,-3597.7811,21896.3921
51521.5248,24210.6467,50739.9738,37619.5908,33435.4788,35047.3076,4614.3383,48482.8949,44082.0605,54653.6744,-3778.4278,-3595.233,21892.5476
51524.9223,24205.6847,50740.3761,37616.1486,33434.4506,35045.3407,4611.7455,48487.097,44077.1878,54653.4508,-3781.8253,-3596.0823,21891.9218
51509.4101,24197.1016,50736.2634,37608.9513,33410.6684,35034.9694,4604.5929,48469.1262,44061.7204,54637.5364,-3795.7728,-3605.6042,21883.3834
51489.2936,24186.6857,50733.1342,37598.446,33385.0533,35024.4641,4597.351,48444.4499,44045.5824,54626.5393,-3812.1343,-3624.2008,21873.9957
51505.1633,24190.3961,50734.6094,37611.6782,33402.2194,35035.0589,4599.0497,48458.8891,44058.3676,54630.8756,-3801.8972,-3617.8082,21876.3202
51525.3693,24198.8003,50737.9621,37622.1389,33424.9735,35041.4515,4601.6872,48478.961,44070.7505,54637.447,-3786.8321,-3601.6256,21879.4048
51518.3955,24203.8518,50740.7784,37620.4401,33419.7432,35043.8207,4603.073,48483.2972,44069.4094,54639.0116,-3783.1217,-3601.8938,21879.3601
51501.2741,24194.2853,50736.3528,37610.8289,33394.6645,35035.3271,4595.3393,48461.3925,44054.2102,54632.8425,-3798.902,-3620.7587,21872.2522
51491.2158,24191.4243,50737.5151,37608.5937,33388.1825,35030.0521,4593.8194,48447.1321,44047.2811,54632.3508,-3811.0614,-3627.9112,21873.6827
51492.7804,24191.6925,50737.4257,37609.1748,33392.8764,35031.3932,4591.8971,48459.8279,44059.9769,54639.6375,-3807.1275,-3620.5351,21878.1531
51518.172,24194.33,50737.6939,37621.0213,33412.0542,35032.2425,4587.5609,48473.1495,44073.0751,54645.9407,-3795.9516,-3614.0978,21880.1647
51522.3742,24205.7741,50742.7454,37625.6257,33414.7811,35036.2659,4590.8689,48477.307,44081.5687,54647.8182,-3794.6105,-3612.9355,21883.3834
51509.276,24204.2542,50749.2274,37612.8405,33404.5887,35036.7129,4592.523,48466.444,44079.7806,54645.0913,-3801.4501,-3624.2902,21885.6186
51494.1663,24200.5438,50745.9641,37599.4742,33387.4226,35029.3815,4590.109,48454.9552,44073.1198,54640.9786,-3813.6095,-3634.7955,21878.6895
51499.3072,24203.5389,50746.8581,37604.1681,33391.58,35032.6449,4592.8806,48464.0747,44081.7922,54645.583,-3806.1887,-3624.3796,21880.3883
51524.6093,24210.155,50748.9145,37617.6685,33414.7811,35038.6351,4597.5298,48489.6451,44088.5425,54651.4392,-3788.3073,-3612.3097,21887.0044
51538.825,24213.329,50749.2274,37620.7978,33420.1455,35041.1385,4600.212,48495.8589,44091.0012,54648.8464,-3788.5308,-3609.7616,21886.8703
51526.3975,24217.4864,50754.2789,37614.4052,33405.9745,35044.5807,4602.8942,48485.8453,44085.2791,54651.2157,-3799.7067,-3617.2718,21883.3834
51511.8241,24215.6982,50754.9047,37606.9397,33393.5469,35047.0394,4605.5317,48470.5567,44077.9924,54648.1311,-3801.8525,-3620.9822,21880.4777
51517.5462,24218.2463,50754.2342,37612.5276,33406.0639,35044.6701,4606.9622,48481.1515,44080.6746,54648.1311,-3793.4929,-3611.1921,21880.9247
51541.4625,24227.1423,50754.5471,37628.755,33432.3496,35050.3922,4610.6726,48497.4235,44095.1139,54656.7589,-3775.7456,-3598.7198,21884.6351
51546.2011,24228.7964,50753.6978,37632.7783,33438.8763,35047.7993,4609.4656,48497.3341,44103.9205,54658.1,-3771.1412,-3599.7927,21884.0539
51523.1341,24215.7876,50745.4276,37617.9367,33422.1572,35038.9034,4600.6143,48475.3847,44086.6649,54647.8182,-3794.9681,-3619.1493,21873.4592
51510.2148,24209.1268,50741.6725,37606.3585,33406.3768,35032.3319,4595.7416,48460.8114,44075.6232,54642.6773,-3811.866,-3631.1299,21867.2901
51517.1438,24209.7974,50742.0301,37604.3022,33413.5741,35033.4048,4594.7582,48476.5023,44089.5259,54645.4936,-3803.2383,-3630.057,21869.6594
51532.3877,24211.0491,50742.6113,37616.685,33432.9307,35036.4894,4594.8923,48500.7763,44098.6902,54653.1826,-3784.3287,-3617.2718,21874.6215
51535.1146,24210.0209,50739.9291,37624.5975,33435.8811,35036.087,4593.1041,48500.0163,44097.7067,54649.9193,-3791.8389,-3617.0036,21870.9111
51520.3625,24202.1531,50738.4986,37612.7958,33407.6732,35028.3086,4588.902,48485.7559,44091.4035,54646.4771,-3809.4074,-3628.3135,21868.8101
51501.3188,24195.2688,50732.5977,37603.274,33392.4294,35020.1726,4585.4151,48471.4508,44079.7806,54636.8212,-3823.3548,-3636.2261,21862.4175
51517.0544,24200.7226,50733.7153,37608.7278,33403.1135,35019.502,4584.2528,48488.3487,44083.4016,54636.1953,-3817.9457,-3630.3699,21864.6079
51535.2488,24204.6118,50738.2303,37617.1321,33425.4205,35028.1298,4587.2033,48515.8861,44096.9914,54645.896,-3801.6737,-3614.7684,21872.1628
51544.3236,24213.329,50745.6511,37621.9153,33429.3544,35038.8587,4597.4851,48527.6431,44106.0662,54650.1875,-3791.7048,-3607.0794,21879.8071
51532.2983,24210.5573,50747.6181,37611.41,33410.8919,35038.9928,4599.4967,48513.3827,44094.2198,54647.3265,-3804.8029,-3614.8578,21876.4544
51518.485,24208.3222,50755.4859,37612.9299,33405.0804,35043.5525,4603.2518,48501.6257,44092.7446,54650.3663,-3806.591,-3617.6294,21877.8402
51524.0729,24213.776,50756.7823,37621.96,33425.644,35050.258,4606.3364,48513.8297,44101.6853,54652.6015,-3790.4978,-3604.7548,21883.1599
51532.7901,24217.397,50757.8105,37634.7005,33450.1863,35053.2085,4605.5317,48528.2242,44108.8825,54657.1165,-3776.0586,-3594.92,21885.1268
51529.6608,24216.0559,50751.0155,37631.9736,33445.85,35049.6769,4600.4355,48524.9609,44106.0662,54654.7472,-3781.5571,-3600.0162,21879.2707
51524.5199,24213.016,50748.9592,37633.27,33437.9375,35050.7051,4599.8096,48516.959,44096.6785,54651.9756,-3796.3092,-3612.6226,21874.5768
51505.6103,24200.0967,50743.6842,37625.3128,33413.9317,35038.9481,4591.6289,48499.0329,44075.5785,54639.2798,-3811.4637,-3629.1182,21865.6361
51510.1701,24194.5088,50741.002,37627.1904,33414.4235,35038.0093,4588.0526,48510.1193,44081.1664,54639.1457,-3802.4336,-3625.0949,21867.0219
51526.0398,24197.5486,50738.5433,37632.1077,33436.4623,35038.9481,4590.3772,48534.9298,44097.1702,54644.7784,-3792.5988,-3613.4273,21873.9957
51521.3013,24194.4194,50735.8164,37631.4819,33430.025,35036.1317,4586.488,48531.6664,44101.8194,54648.1758,-3794.1635,-3615.2154,21877.4378
51505.1633,24184.9422,50735.5481,37622.72,33415.4516,35034.6118,4583.9846,48506.9007,44092.2529,54646.7453,-3807.3063,-3626.7042,21875.3368
51495.3732,24186.7304,50740.4208,37616.1486,33402.13,35035.5506,4586.7115,48499.2117,44091.6717,54640.5762,-3811.9107,-3629.1182,21874.4874
51510.6618,24193.4359,50743.9971,37625.894,33421.9337,35040.7809,4591.0031,48517.2272,44102.0876,54640.4421,-3802.3889,-3617.3612,21879.3601
51535.2041,24203.9859,50746.5899,37634.9241,33446.8335,35047.7993,4594.7582,48541.3224,44116.9292,54649.2487,-3788.4414,-3603.5031,21884.9927
51540.3897,24208.501,50746.8581,37634.3429,33454.6119,35048.2911,4593.1041,48549.9054,44115.9457,54649.5169,-3786.5639,-3606.3641,21883.1599
51520.4966,24199.4709,50743.2818,37626.1622,33428.7733,35039.7974,4588.9914,48533.4098,44101.5512,54641.1127,-3803.5512,-3619.4623,21875.4262
51510.1254,24193.9276,50747.3499,37623.5694,33406.6898,35043.1949,4590.0196,48508.063,44093.281,54639.861,-3811.7319,-3626.7489,21873.5039
51525.1905,24205.7741,50752.8931,37628.442,33427.7898,35052.8955,4596.3675,48520.3117,44100.4336,54641.9173,-3801.6289,-3620.0434,21876.3649
51541.8202,24215.2512,50753.206,37637.9192,33453.092,35052.7167,4597.6639,48548.6537,44111.1177,54645.7171,-3789.9166,-3613.919,21877.8402
51539.3615,24208.0986,50751.105,37633.1359,33445.3136,35046.95,4591.5395,48547.4467,44113.1294,54646.0301,-3792.6883,-3616.4224,21874.8897
51523.9835,24199.605,50746.8581,37614.0028,33418.9832,35038.6798,4583.5823,48523.9774,44095.8738,54641.2468,-3811.1508,-3630.6828,21865.6361
51516.5627,24201.6166,50748.0204,37615.3439,33406.0639,35040.2445,4583.8952,48506.5877,44095.3374,54640.0398,-3815.5764,-3640.1153,21866.3961
51533.2371,24207.5175,50751.5967,37629.962,33425.3758,35050.1686,4588.9914,48521.7422,44112.9953,54645.9407,-3801.4501,-3627.5089,21870.4641
51546.9164,24213.016,50752.4461,37641.8978,33436.5964,35051.9568,4593.2829,48545.2116,44124.6629,54651.618,-3788.5308,-3609.9851,21874.8897
51540.8814,24203.5389,50749.585,37640.6014,33430.3826,35049.051,4589.0808,48539.713,44119.9243,54646.7453,-3793.8952,-3611.3262,21873.9957
51524.654,24193.4806,50746.1876,37627.1009,33417.9103,35039.1269,4585.8622,48518.1659,44102.7582,54637.0,-3808.111,-3624.6032,21869.57
51514.5063,24191.469,50749.585,37619.2331,33409.059,35041.7644,4587.6503,48509.6723,44101.73,54634.586,-3814.0118,-3628.2241,21870.0171
51526.0845,24190.262,50747.2157,37622.0047,33415.4069,35043.4184,4587.1139,48525.5867,44112.6823,54637.894,-3808.9156,-3618.1659,21872.0734
51549.4198,24195.0452,50747.1263,37632.5548,33441.2009,35049.4087,4590.4219,48550.4866,44126.0487,54644.6443,-3792.4647,-3604.5313,21876.8567
51542.4013,24196.431,50745.8746,37627.0562,33434.093,35044.6701,4586.4433,48539.9365,44126.6745,54644.376,-3796.3986,-3605.6489,21871.8946
51528.4091,24195.2688,50747.3499,37624.4187,33418.8938,35045.8324,4586.3092,48526.7043,44110.4025,54636.7764,-3807.6639,-3616.9589,21866.0831
51517.0991,24190.8878,50752.2225,37617.0427,33405.5275,35052.4932,4589.0808,48516.199,44103.2499,54636.3294,-3816.6493,-3624.2008,21865.3232
51532.1642,24199.4709,50749.7638,37628.7103,33417.3739,35058.0812,4590.9137,48527.3302,44121.936,54642.3644,-3801.0031,-3615.1707,21867.9607
51546.6481,24202.1978,50745.2935,37644.8035,33436.3729,35056.6059,4590.2878,48547.9385,44124.9758,54647.5947,-3790.0507,-3608.5099,21869.2124
51549.7774,24202.7342,50744.4441,37644.4012,33443.7042,35055.6672,4592.8806,48550.3525,44123.2324,54647.7735,-3791.213,-3607.437,21871.7158
51530.1973,24193.57,50742.2984,37629.8279,33422.783,35047.4417,4584.9681,48530.4147,44117.6444,54644.3313,-3808.4686,-3619.5517,21866.3514
51507.175,24189.3232,50739.035,37613.6452,33400.1184,35040.0656,4576.8321,48514.2767,44110.9389,54643.169,-3823.6678,-3630.8616,21864.9209
51514.551,24195.8052,50745.07,37621.6918,33413.7976,35045.0277,4585.2363,48540.3389,44124.9758,54651.5733,-3805.2946,-3618.7917,21876.052
51538.378,24209.9762,50751.5967,37642.3001,33450.678,35055.8013,4595.6522,48566.4904,44143.9748,54661.9445,-3781.5124,-3596.44,21888.3902
51540.032,24208.6798,50750.8814,37645.4294,33457.8753,35059.8246,4596.7698,48574.3135,44144.7794,54664.5373,-3774.7175,-3591.5226,21893.4864
51520.139,24199.2921,50747.9757,37637.2933,33439.815,35063.0432,4597.4404,48559.919,44131.9048,54657.5189,-3785.1334,-3603.369,21891.8771
51510.8407,24196.0734,50746.6793,37636.2652,33422.8277,35063.1773,4599.8991,48544.2728,44127.2557,54653.4061,-3788.5308,-3605.8277,21890.983
51519.6919,24195.8499,50745.6511,37642.3448,33429.4438,35062.0151,4596.8592,48549.3243,44129.5356,54652.6015,-3787.2344,-3604.3972,21890.6701
51534.1312,24197.5039,50741.1808,37645.2059,33447.7276,35058.6176,4593.7747,48567.8315,44135.7493,54651.8415,-3779.7242,-3602.4749,21886.2444
51524.6093,24192.0054,50731.8825,37637.0698,33439.9045,35051.7333,4585.0575,48561.2154,44117.5103,54642.3197,-3788.7096,-3610.3874,21873.0122
51511.7347,24185.434,50732.4189,37625.3575,33414.3341,35048.0229,4583.1352,48542.8423,44105.5745,54635.4353,-3800.5561,-3620.7139,21866.4855
51505.1186,24177.8344,50728.2615,37613.5558,33400.3866,35042.4349,4578.2626,48518.1659,44089.5706,54621.309,-3816.2023,-3634.572,21859.3776
51502.8387,24176.4933,50720.2595,37609.4431,33401.683,35038.4563,4568.3831,48522.3234,44087.6484,54616.8834,-3815.8,-3633.5438,21854.5943
51511.2877,24178.4602,50719.9019,37617.2662,33422.1125,35035.7294,4568.3831,48535.3768,44104.3228,54623.4548,-3802.5677,-3620.2669,21854.5496
51511.4218,24169.296,50714.9398,37611.6335,33416.8822,35026.8781,4562.6163,48534.7062,44104.6357,54622.2925,-3812.4919,-3627.196,21848.2018
51495.1944,24154.3204,50708.9943,37598.6695,33387.8696,35016.5069,4555.8214,48516.6013,44098.7349,54615.1847,-3830.3286,-3645.7032,21842.7032
51479.7717,24145.5138,50711.3636,37582.3528,33368.3789,35011.0084,4552.5134,48504.7996,44085.9944,54613.62,-3842.4879,-3654.331,21843.8655
51488.4889,24147.7937,50716.2362,37589.4606,33384.4721,35019.7256,4557.386,48519.2835,44100.4783,54622.9631,-3830.7756,-3636.539,21853.4321
51505.6103,24149.5371,50714.0011,37602.3799,33402.5323,35024.33,4562.6163,48540.8306,44122.5171,54632.619,-3812.179,-3620.1328,21860.7187
51511.6006,24153.918,50714.2246,37610.7842,33411.6518,35023.123,4568.4725,48534.7956,44126.4063,54643.7055,-3805.5629,-3612.9802,21871.6711
51498.9942,24147.6148,50713.9117,37605.7774,33396.5421,35019.4126,4569.2325,48511.7733,44112.6376,54642.3644,-3814.8165,-3620.6692,21871.5817
51482.5881,24133.5332,50709.933,37598.5801,33377.3643,35020.0832,4566.7291,48503.5926,44102.4005,54634.3178,-3824.6959,-3633.4544,21866.5749
51480.7999,24133.9356,50707.3849,37601.1282,33386.7073,35025.0006,4567.9808,48517.1825,44112.3247,54632.2614,-3815.6658,-3627.9559,21866.3067
51495.9097,24133.9803,50708.4578,37612.0806,33408.165,35029.158,4570.3948,48539.8471,44118.1809,54635.6142,-3798.5444,-3612.8908,21867.7819
51504.6716,24137.6013,50709.486,37617.445,33418.8044,35025.6711,4565.388,48545.8374,44115.141,54635.3012,-3798.902,-3616.3777,21865.5467
51495.9991,24135.9472,50707.2061,37612.6617,33404.4546,35019.8597,4564.4045,48528.9395,44103.4734,54626.6735,-3811.7766,-3630.3252,21855.8908
51479.3694,24123.922,50699.3383,37605.9115,33389.0766,35012.9306,4556.8943,48503.9055,44091.0012,54613.5306,-3821.7008,-3641.0093,21848.9617
51486.8349,24123.4303,50696.4773,37610.8289,33397.9726,35013.5565,4552.2898,48514.9473,44088.7213,54610.0885,-3817.7222,-3640.8305,21847.3077
51496.8932,24133.5332,50698.7125,37616.0592,33410.4449,35015.8364,4553.4074,48533.7228,44107.2285,54618.9845,-3806.9934,-3632.3369,21849.4534
51493.9874,24139.6576,50694.7339,37606.8503,33399.1349,35010.6061,4550.01,48531.4876,44105.3957,54620.7726,-3812.3131,-3633.6333,21846.5477
51474.1391,24131.6557,50691.8281,37592.724,33379.2418,35006.7616,4546.5678,48513.8297,44088.0507,54613.9777,-3829.9263,-3645.2115,21842.7479
51455.2295,24118.4235,50686.5531,37583.9621,33356.756,34998.3126,4538.5659,48495.7248,44079.9594,54606.1099,-3842.3985,-3655.2697,21839.1269
51457.0177,24116.3224,50686.0167,37585.6161,33369.7647,35004.7946,4539.3258,48506.9454,44086.4414,54607.3616,-3833.279,-3647.6701,21846.6371
51475.9719,24126.1572,50690.8,37604.0339,33396.3633,35009.5332,4545.8078,48528.4925,44094.1751,54615.7658,-3818.8845,-3633.4544,21853.4768
51475.3014,24126.5148,50690.6658,37603.3634,33395.5586,35009.712,4546.6572,48530.2359,44101.3724,54619.208,-3817.5434,-3628.0006,21854.952
51462.1139,24125.3525,50688.9671,37591.204,33379.3312,35006.538,4549.4288,48510.164,44095.695,54616.6152,-3827.2887,-3634.125,21854.2367
51449.8204,24124.1902,50689.6824,37585.5267,33360.0193,35006.9851,4550.6358,48494.8307,44085.9497,54613.3071,-3836.0059,-3638.193,21852.091
51454.7825,24126.2913,50691.5599,37593.5286,33366.3672,35008.9967,4551.4405,48512.131,44097.8855,54617.3304,-3825.4559,-3630.1911,21854.0132
51468.1041,24130.0911,50691.7834,37601.2623,33393.5022,35014.5847,4552.0663,48541.6353,44107.9438,54622.1584,-3811.3743,-3623.3962,21855.4884
51472.0827,24137.7801,50689.2353,37609.8901,33397.7044,35023.0336,4553.9439,48549.4137,44110.5366,54624.8853,-3805.7864,-3625.8101,21850.4369
51459.6105,24135.8131,50685.3014,37603.7657,33387.8696,35015.6128,4550.2782,48541.4118,44095.1139,54620.1915,-3820.7173,-3637.9695,21845.6984
51447.8087,24130.3593,50685.1226,37596.2108,33373.2963,35008.5497,4552.0663,48535.8238,44093.8622,54618.4927,-3832.9214,-3647.4466,21845.5195
51460.5492,24138.8977,50689.3694,37601.5753,33386.1262,35016.9539,4555.0168,48546.7315,44115.9904,54632.8425,-3824.4724,-3632.471,21852.5827
51481.9175,24147.0784,50693.2139,37610.1136,33403.337,35021.9607,4557.1178,48561.7965,44120.0584,54638.2517,-3813.4307,-3618.8811,21856.6954
51489.8747,24154.4545,50693.8845,37619.7249,33407.6285,35018.5633,4558.5483,48566.7139,44116.661,54634.6754,-3810.3461,-3620.3563,21855.9802
51476.6425,24148.1066,50697.8184,37611.1418,33388.5401,35015.8364,4557.8778,48549.9948,44109.9107,54630.2944,-3819.5997,-3631.8451,21854.9967
51467.3889,24142.0269,50698.4442,37595.9426,33366.5013,35008.505,4556.5367,48532.6946,44098.6902,54621.6667,-3833.0555,-3641.5458,21848.7829
51484.8679,24148.7771,50699.3383,37600.1447,33379.2418,35008.505,4558.3248,48543.9599,44105.9768,54622.2031,-3822.9972,-3630.0123,21852.8956
51496.0885,24155.5721,50703.1828,37609.0854,33398.2408,35013.9141,4558.1907,48561.6177,44115.8563,54629.0427,-3806.9934,-3620.3116,21859.1094
51497.9213,24161.8305,50707.4296,37609.9348,33403.0241,35017.848,4557.5202,48568.6809,44120.1478,54630.1156,-3806.9934,-3620.2669,21861.0764
51482.0069,24159.4613,50705.9544,37599.4295,33380.4041,35014.1376,4551.2617,48548.6537,44103.0711,54620.3703,-3822.4608,-3635.1085,21852.9403
51480.3976,24162.5458,50710.4695,37605.5986,33369.5412,35022.4525,4555.6873,48540.3389,44094.0857,54618.8951,-3829.4345,-3635.6896,21851.778
51500.8718,24174.5263,50712.9282,37617.892,33385.7238,35033.7178,4557.2966,48554.8675,44103.4287,54621.5773,-3816.9622,-3621.8762,21855.5778
51516.6074,24178.5049,50717.3985,37631.3478,33413.9764,35037.607,4560.8282,48573.5983,44120.9078,54626.0476,-3796.1751,-3608.3758,21860.8975
51519.379,24183.5117,50715.3869,37637.2039,33423.543,35038.6351,4563.7339,48581.2873,44126.6298,54628.3275,-3791.0342,-3604.7995,21863.848
51508.382,24182.5283,50717.2644,37627.2351,33405.1698,35039.8868,4562.6163,48573.1959,44116.661,54621.3984,-3805.6523,-3618.3894,21863.7586
51489.1148,24173.5429,50715.3869,37613.6452,33379.51,35036.2659,4555.732,48557.7285,44103.384,54615.0953,-3825.0089,-3634.1697,21860.3611
51495.9097,24176.0463,50711.0059,37621.7812,33388.7637,35035.193,4555.1509,48570.6925,44108.659,54619.9232,-3819.6445,-3627.5089,21861.8363
51519.6472,24184.0482,50713.1517,37629.202,33403.1582,35038.3222,4558.5483,48591.5244,44119.2985,54624.8406,-3804.7582,-3615.5283,21862.7751
51520.0496,24184.8528,50716.3703,37624.8211,33402.8006,35035.5059,4560.56,48597.0676,44119.522,54628.2381,-3801.8525,-3618.9258,21866.1278
51498.3237,24170.0113,50711.6765,37609.1301,33382.2817,35028.9345,4556.8943,48579.4097,44111.3412,54625.4665,-3815.2188,-3632.6498,21865.2338
51477.7601,24166.882,50715.1186,37598.9377,33365.9649,35025.2241,4556.8943,48560.0084,44110.0001,54628.8192,-3828.5404,-3640.0706,21864.5632
51481.7387,24173.7217,50719.7231,37602.9611,33374.0115,35026.6546,4557.1178,48564.7917,44110.2684,54632.3955,-3824.9195,-3632.0239,21865.6808
51491.3052,24186.2386,50724.2829,37614.3157,33399.4925,35028.3533,4562.8399,48580.9296,44111.5648,54635.5695,-3807.798,-3619.2387,21866.3067
51501.14,24196.4757,50730.3178,37617.5791,33410.1766,35032.1978,4573.8816,48578.8733,44110.0895,54640.7551,-3795.5046,-3615.3942,21872.3416
51486.0302,24193.57,50727.5909,37610.6501,33395.6927,35024.5535,4576.6532,48552.6323,44095.9632,54634.4519,-3805.0264,-3623.4409,21870.5982
51466.0478,24194.4194,50726.4286,37603.5869,33380.1359,35017.9821,4575.3121,48534.5274,44085.905,54627.9252,-3817.454,-3631.0852,21866.8431
51489.7853,24214.0442,50732.6871,37620.3954,33408.612,35029.158,4583.18,48548.9666,44087.9613,54630.8309,-3802.1207,-3619.5964,21873.9063
51501.8106,24221.7332,50733.9388,37630.4537,33430.1144,35034.4777,4587.0692,48554.3758,44094.041,54635.2118,-3789.0226,-3605.3807,21877.5272
51501.2741,24225.1754,50736.8445,37634.8794,33431.4555,35035.9976,4594.0429,48544.7198,44089.66,54636.24,-3782.3617,-3602.1173,21877.7955
51482.4092,24223.5214,50736.3528,37623.6141,33416.2563,35033.3601,4594.1323,48527.9113,44075.0867,54629.5792,-3791.7048,-3614.0084,21872.1181
51460.9069,24219.498,50733.7153,37608.3255,33390.4177,35020.0385,4588.1867,48502.2962,44054.7019,54618.2245,-3811.0167,-3631.5769,21867.3348
51466.0925,24220.705,50732.8212,37611.3206,33392.0717,35017.5351,4586.6668,48494.4731,44058.1441,54619.655,-3806.9934,-3626.4807,21865.6361
51469.624,24218.4699,50728.5297,37621.6024,33406.3768,35015.8364,4583.2247,48502.4303,44064.8049,54618.2245,-3799.8855,-3619.0599,21864.1609
51465.5113,24217.1735,50723.8805,37615.478,33399.716,35010.6061,4577.0109,48488.4828,44056.1324,54616.794,-3804.1323,-3627.4195,21860.4952
51450.6251,24209.8868,50718.0244,37606.7609,33377.1408,35003.9452,4573.2111,48465.6394,44041.5591,54610.9378,-3817.6328,-3641.5905,21854.192
51442.5784,24205.9529,50716.1468,37602.0223,33360.5111,34999.8325,4575.0886,48449.9037,44027.9245,54603.6959,-3827.3335,-3647.849,21853.2085
51453.9778,24212.6584,50723.0312,37610.7395,33371.1505,35005.2416,4580.2295,48461.5266,44032.3502,54612.2789,-3820.1362,-3637.6119,21861.1658
51471.0099,24219.4086,50730.0496,37623.7482,33391.6694,35012.3495,4584.8787,48474.133,44042.5873,54617.5987,-3804.9817,-3624.469,21867.0219
51465.1537,24211.8984,50731.2566,37623.48,33396.1397,35017.9374,4587.6056,48462.8677,44040.0839,54617.9116,-3799.0808,-3619.9093,21871.3135
51456.3471,24205.8635,50730.2284,37614.2263,33377.8113,35018.8315,4588.7679,48443.7793,44035.39,54617.1069,-3803.9088,-3625.5419,21872.3416
51444.6795,24202.2872,50731.0331,37608.3255,33360.6005,35020.0832,4593.2382,48428.9825,44032.1267,54613.173,-3808.6027,-3625.989,21873.3698
51458.3588,24207.6963,50734.1176,37618.7861,33372.8045,35027.3252,4595.5628,48431.0389,44040.218,54614.38,-3801.4501,-3620.2222,21880.12
51473.3344,24209.8868,50740.9573,37631.4372,33393.2787,35032.3319,4600.1226,48446.8639,44048.8011,54620.102,-3788.4414,-3610.0298,21884.9927
51471.6357,24211.4067,50741.9854,37632.4207,33387.959,35030.4544,4602.4472,48447.3109,44049.0246,54620.415,-3782.8535,-3606.3194,21882.534
51460.9069,24204.2989,50737.9621,37622.5859,33360.4664,35023.3018,4597.6639,48419.103,44026.7175,54613.173,-3797.9633,-3620.5798,21875.605
51455.1401,24193.1677,50734.6541,37610.2924,33344.8201,35013.5118,4592.0759,48398.6288,44010.9372,54604.7688,-3814.0565,-3633.678,21870.8217
51464.1255,24193.123,50732.8212,37612.7511,33356.2642,35009.2202,4591.4054,48398.7182,44020.1014,54606.8251,-3806.9934,-3627.8665,21871.984
51489.6512,24199.4262,50734.3411,37628.442,33378.2583,35021.1114,4594.1323,48420.9359,44034.9877,54610.4461,-3790.0954,-3611.4156,21876.9014
51494.4345,24197.0122,50729.6026,37620.2613,33375.0397,35014.2717,4588.0526,48412.6657,44026.6281,54607.6745,-3795.7281,-3616.2436,21868.5865
51475.3461,24190.7537,50726.7416,37610.2924,33355.996,35004.884,4580.9448,48388.8388,44017.8663,54601.1031,-3810.1673,-3629.6546,21860.4952
51463.2761,24189.0997,50726.3839,37604.3022,33337.6229,35003.7664,4576.1168,48369.7057,44010.8031,54597.9291,-3824.2489,-3640.4729,21859.5117
51477.2236,24196.4757,50730.139,37611.0524,33350.4975,35010.7402,4582.4647,48385.4413,44024.9294,54604.4558,-3813.2519,-3627.2854,21869.2571
51498.1002,24209.0821,50734.6541,37624.687,33374.5033,35018.9209,4586.3986,48405.1108,44038.5193,54616.5258,-3788.0391,-3607.4817,21879.3601
51503.1964,24212.7925,50734.207,37621.4683,33382.2817,35021.7372,4588.4997,48409.9388,44038.1169,54619.8338,-3783.5687,-3606.0959,21880.2541
51492.6463,24208.3222,50741.0914,37611.4547,33365.6967,35020.3514,4586.2645,48392.7727,44029.7127,54618.1798,-3799.5726,-3620.1328,21876.4991
51476.1955,24197.2804,50738.8562,37596.6579,33348.3964,35014.8529,4580.5871,48367.3811,44012.7254,54606.4675,-3814.1012,-3634.1697,21870.5088
51485.5385,24197.638,50737.6045,37595.4509,33357.6947,35015.8364,4579.9166,48377.6629,44030.7409,54607.9874,-3805.9205,-3621.9209,21872.2522
51508.5161,24207.9645,50737.381,37612.3488,33378.7054,35024.5535,4585.5492,48406.1837,44045.4483,54615.8552,-3788.352,-3606.5429,21880.0753
51507.5326,24215.9218,50736.8892,37618.2497,33376.8725,35027.1463,4586.3539,48408.6424,44041.5144,54615.4082,-3787.0109,-3607.9288,21877.8402
51495.1944,24211.362,50735.3246,37605.1962,33356.8007,35019.9491,4584.3869,48400.2382,44036.3288,54616.1681,-3799.4385,-3617.4506,21873.2357
51482.0516,24203.3601,50730.0943,37594.6015,33338.3381,35011.9472,4581.7047,48389.8669,44025.2423,54614.3353,-3815.7552,-3629.8335,21869.3465
51486.522,24207.7857,50729.2449,37598.3566,33350.0057,35014.3611,4581.3918,48393.935,44038.1169,54621.622,-3809.0497,-3624.6032,21875.6944
51497.3849,24209.7527,50733.4471,37609.7113,33369.9435,35016.8198,4583.3588,48410.6541,44052.735,54627.9699,-3794.1635,-3609.8957,21879.7177
51497.1167,24198.4874,50734.7882,37611.5441,33371.6869,35011.1872,4586.9797,48406.1837,44046.6106,54626.2711,-3793.5823,-3613.025,21880.88
51478.5647,24191.0219,50734.207,37596.5685,33356.443,35004.124,4586.2198,48388.2129,44034.8089,54620.7726,-3806.904,-3625.3184,21878.6001
51467.3889,24188.6973,50735.8164,37589.4159,33344.5966,35006.538,4586.3092,48377.1712,44022.6495,54615.0953,-3811.6872,-3628.3135,21877.4378
51482.9457,24195.224,50740.5102,37604.0339,33364.8473,35017.5798,4591.3607,48394.2926,44033.5125,54619.5656,-3796.3986,-3615.2154,21882.4893
51501.7211,24203.4048,50741.5384,37618.3391,33390.1048,35023.6148,4591.0925,48418.5219,44050.8127,54626.2264,-3785.8486,-3604.6207,21885.3056
51502.4811,24203.9412,50740.6443,37615.1651,33385.3662,35025.6264,4587.9632,48422.7687,44045.8953,54620.8173,-3789.3802,-3608.0182,21879.0919
51488.4442,24208.4116,50746.7687,37602.2011,33365.2496,35020.1279,4588.0973,48406.0943,44037.2676,54618.001,-3802.5677,-3620.9822,21873.3251
51487.6395,24212.2114,50748.7804,37599.6977,33359.6617,35021.1114,4588.6785,48396.6619,44030.3832,54615.0506,-3806.3228,-3628.3582,21871.4476
51501.9,24222.4038,50747.6628,37605.5986,33373.6539,35029.2474,4594.5346,48416.1079,44045.4036,54618.5374,-3799.0808,-3618.5682,21872.6546
51520.0496,24235.0101,50751.0155,37621.7812,33398.2855,35040.7362,4599.8096,48441.2313,44065.0284,54622.3372,-3785.6251,-3605.5148,21876.5438
51529.8843,24243.8167,50755.6647,37630.4984,33403.9629,35048.604,4600.4355,48455.3576,44069.4094,54621.0855,-3779.3219,-3605.8277,21879.5836
51514.2381,24244.8449,50754.3683,37624.374,33389.3448,35041.7197,4597.2615,48443.4217,44058.3676,54618.001,-3791.8836,-3612.8908,21877.0802
51505.4315,24237.9159,50748.6463,37610.4712,33369.3177,35039.9762,4594.2664,48422.3664,44045.6271,54613.9777,-3805.8311,-3624.782,21873.3698
51519.6472,24237.0218,50752.7143,37621.6918,33381.8793,35047.8441,4596.2781,48434.7939,44056.6242,54620.9961,-3790.4084,-3617.093,21884.0092
51540.792,24238.497,50757.587,37632.1524,33403.6946,35058.7517,4596.8145,48455.9387,44080.8088,54630.8309,-3774.7622,-3598.2728,21893.3076
51540.0767,24235.2337,50757.7211,37629.962,33403.9629,35057.3659,4591.6289,48467.651,44078.8418,54627.7016,-3777.3997,-3600.0609,21890.1336
51517.3674,24220.8391,50751.6414,37616.1486,33377.8113,35049.051,4583.3588,48448.3391,44068.7388,54618.9845,-3792.6435,-3617.54,21881.3717
51501.4976,24209.3951,50746.1876,37604.3916,33359.0806,35043.4184,4579.1119,48424.378,44056.043,54618.5374,-3807.5745,-3625.676,21873.3698
51506.1468,24204.9694,50745.1147,37607.8784,33371.7763,35037.0258,4577.1003,48431.173,44052.5562,54621.5326,-3806.591,-3619.0599,21871.3582
51509.3207,24203.0472,50740.2867,37614.4499,33388.7637,35035.1483,4572.0935,48447.8474,44060.3346,54617.7775,-3802.4336,-3617.0483,21871.8946
51506.2362,24202.0637,50736.3975,37614.3157,33387.512,35028.0851,4570.663,48447.1321,44060.5581,54613.3965,-3804.7135,-3622.6362,21868.3183
51499.9777,24202.6895,50733.1342,37600.8153,33371.9105,35023.3465,4569.7689,48441.6336,44054.3443,54609.4626,-3816.4705,-3633.1415,21865.4573
51483.7503,24198.0404,50726.6968,37585.0797,33357.5606,35017.1775,4570.9312,48430.1448,44044.5095,54607.8533,-3824.0254,-3644.5856,21861.8363
51490.5453,24196.6099,50728.5744,37592.3216,33370.927,35022.2737,4576.7426,48441.8124,44053.942,54620.415,-3812.6707,-3632.918,21868.9889
51508.5161,24205.8635,50735.2352,37610.203,33395.0669,35026.2523,4584.834,48468.858,44068.6494,54634.4072,-3789.0673,-3609.2252,21877.7955
51522.553,24213.5972,50739.3032,37613.6005,33403.8287,35029.4709,4589.662,48468.5004,44072.7174,54637.6258,-3785.938,-3604.7548,21879.5836
51512.0924,24212.4349,50742.3878,37602.6481,33388.5401,35024.5088,4592.7912,48451.9154,44067.2636,54634.0048,-3799.7961,-3613.7849,21878.019
51497.6531,24208.4116,50746.1876,37593.2604,33378.7948,35019.7703,4595.2946,48440.2478,44067.0848,54634.9883,-3805.7864,-3616.7353,21880.4777
51508.6502,24218.3805,50749.8085,37599.5636,33395.5586,35030.4097,4598.6027,48462.7783,44079.1547,54643.8843,-3796.488,-3604.9336,21888.122
51528.5879,24227.3211,50751.9096,37615.7016,33423.4536,35038.8587,4604.9505,48481.9561,44091.7611,54650.858,-3780.8418,-3589.958,21894.5593
51538.825,24227.6341,50754.7259,37620.2613,33418.0444,35037.7411,4602.9836,48483.2972,44094.2198,54647.4606,-3779.4113,-3591.1202,21896.3921
51523.76,24219.5874,50751.8202,37606.6715,33394.888,35031.3485,4594.2664,48466.6675,44082.4628,54642.722,-3794.6999,-3607.437,21889.9995
51512.8523,24214.9383,50750.2109,37596.1661,33385.4556,35026.5652,4594.8923,48449.6802,44066.7719,54637.0894,-3809.8991,-3617.9423,21881.9082
51513.657,24209.4398,50743.6842,37593.1263,33385.4109,35022.4525,4589.662,48448.8755,44070.4376,54632.9767,-3811.3743,-3615.126,21874.1298
51521.7036,24209.0821,50738.1856,37602.827,33402.5323,35021.3349,4585.4151,48465.3264,44075.3102,54628.6851,-3801.316,-3608.0182,21867.9607
51522.1953,24206.7575,50732.3295,37611.4547,33408.3885,35021.7372,4582.7776,48454.4635,44066.5483,54621.1302,-3800.3772,-3614.679,21861.6128
51497.6084,24201.7508,50724.417,37598.7142,33391.2671,35014.6294,4579.1119,48430.86,44055.4172,54611.0719,-3818.5269,-3627.643,21852.8062
51479.3694,24188.4738,50717.5326,37584.6773,33368.0212,35011.813,4571.7359,48414.4092,44032.2161,54599.5831,-3834.2625,-3644.2727,21846.9501
51489.383,24187.9821,50716.0574,37591.6511,33379.823,35017.3563,4574.9098,48425.4956,44038.7875,54604.5899,-3820.4044,-3636.0025,21852.0015
51507.2644,24194.777,50718.4714,37597.0155,33403.9181,35024.1959,4580.453,48450.5296,44060.0216,54614.0671,-3806.5016,-3623.3515,21859.6905
51514.3275,24201.4378,50727.3227,37602.4246,33418.9832,35034.7012,4590.9137,48466.1758,44073.8797,54619.5656,-3792.5094,-3612.265,21869.3912
51505.1633,24203.4048,50738.1409,37603.1399,33403.1582,35037.1599,4597.7086,48458.1739,44071.1975,54621.8455,-3796.488,-3611.6838,21876.1861
51494.8815,24198.7109,50742.209,37599.1166,33386.7073,35036.7129,4599.9438,48446.9533,44067.7553,54625.3771,-3804.2217,-3616.5565,21881.64
51504.8057,24207.1152,50746.4111,37610.4265,33394.6645,35039.9315,4606.4258,48458.4868,44082.731,54637.4023,-3789.7825,-3604.3078,21888.7925
51526.3081,24216.0112,50751.7308,37622.4965,33419.3408,35046.9947,4608.4374,48482.7608,44099.2713,54646.5218,-3776.0139,-3590.852,21895.1404
51528.9903,24218.8722,50757.3187,37624.2846,33423.543,35050.0345,4607.2751,48479.4974,44094.9798,54646.1642,-3775.7903,-3594.5624,21890.0442
51506.7279,24209.2609,50756.1564,37612.17,33407.6285,35034.3883,4602.2683,48447.9815,44075.0867,54634.7648,-3792.733,-3614.2319,21881.5506
51482.5881,24198.1745,50748.7804,37596.6132,33385.5003,35026.1629,4591.6289,48431.2624,44057.5629,54625.9135,-3812.3578,-3629.6099,21868.8995
51497.1167,24201.8849,50749.898,37608.9513,33403.784,35032.2872,4590.6901,48450.2167,44060.5581,54628.6851,-3804.3112,-3620.0434,21866.8431
51511.4218,24205.1482,50744.6229,37624.1952,33421.8442,35035.0589,4588.5891,48470.1991,44071.1528,54628.9533,-3793.8952,-3610.3427,21867.3795
51511.7794,24204.9247,50740.7337,37622.3624,33419.922,35028.398,4586.6221,48471.4508,44072.2704,54623.8124,-3794.3423,-3613.1144,21865.3679
51500.38,24201.1249,50737.6939,37612.5276,33402.6664,35021.1114,4585.9069,48451.2001,44058.6805,54618.7162,-3808.111,-3627.2407,21859.6458
51490.9476,24189.9937,50734.2964,37608.4596,33389.0766,35017.2222,4581.1683,48429.2954,44046.253,54611.6978,-3813.8777,-3636.7178,21856.2484
51502.6152,24192.9889,50737.1575,37615.8357,33402.2641,35026.1182,4587.5162,48437.8338,44052.8691,54616.8834,-3801.8972,-3622.7256,21866.0831
51519.2896,24197.5486,50739.6609,37621.0213,33419.6091,35032.019,4594.0876,48459.5597,44068.8729,54625.3324,-3790.2296,-3605.1571,21875.5156
51519.8708,24203.5389,50741.5831,37620.7978,33416.7033,35033.3154,4593.3723,48475.2506,44077.8136,54624.1701,-3790.0954,-3604.9783,21881.7294
51512.6735,24202.019,50743.3265,37619.5014,33406.8686,35032.5555,4592.5677,48456.8328,44077.3219,54622.1137,-3798.0974,-3617.0036,21881.64
51498.3237,24194.5982,50744.0418,37606.6267,33392.2952,35025.984,4592.1206,48442.8406,44070.527,54622.1137,-3805.9205,-3624.2008,21882.3105
51503.9563,24194.9111,50746.277,37604.3916,33397.0785,35024.7324,4593.6853,48452.2283,44075.1314,54627.6122,-3804.3559,-3616.4224,21881.4164
51524.7881,24201.0355,50744.4441,37611.5441,33414.3341,35024.9112,4592.2995,48468.9474,44090.0177,54636.8659,-3792.8224,-3605.8724,21882.0423
51518.2614,24194.9558,50737.6492,37602.7822,33409.8637,35019.6809,4583.0011,48470.1097,44084.385,54634.1836,-3801.1819,-3615.886,21876.7226
51499.6648,24180.2931,50733.6706,37589.0136,33388.0931,35010.6955,4578.3967,48453.2118,44071.0634,54624.5724,-3821.8796,-3632.2474,21868.2289
51494.211,24176.7615,50734.1623,37588.1642,33380.0018,35012.126,4577.9049,48444.3158,44068.6494,54622.8737,-3833.5025,-3639.6235,21865.5467
51501.9,24181.1424,50728.3509,37590.6676,33387.9143,35012.8859,4577.6814,48449.9931,44071.0634,54626.4946,-3823.7125,-3632.8286,21866.4408
51513.344,24187.9821,50722.5394,37599.1166,33404.544,35016.8645,4580.1848,48468.5898,44080.0041,54633.3343,-3803.5065,-3620.6692,21872.5652
51515.5792,24187.088,50723.5229,37599.6083,33405.6616,35014.1376,4580.1848,48473.7307,44083.0439,54635.8824,-3794.0741,-3616.8247,21874.2192
51507.9349,24185.2105,50727.5015,37587.9854,33394.2175,35011.3213,4576.6979,48460.0514,44071.2422,54630.7862,-3806.8146,-3624.469,21870.5535
51499.486,24184.9869,50729.6026,37584.8114,33378.5713,35010.3378,4577.7708,48445.2546,44068.1577,54623.0972,-3814.1459,-3630.0123,21868.0501
51503.9116,24185.2552,50729.8708,37583.9621,33382.7287,35008.8179,4574.8204,48461.4819,44077.4113,54623.6783,-3808.7815,-3625.2737,21866.7984
51516.7862,24189.1891,50730.899,37591.964,33414.1552,35017.401,4576.6532,48486.6947,44094.3539,54631.6355,-3797.5609,-3612.9355,21872.2969
51518.3508,24196.6993,50733.4918,37604.928,33421.0396,35022.676,4581.6153,48488.0358,44097.7067,54631.9485,-3788.5308,-3606.4088,21877.0802
51508.7396,24192.1395,50733.76,37593.5286,33397.6597,35014.5847,4580.2742,48471.0038,44079.2441,54623.5442,-3802.5677,-3619.6858,21872.6099
51497.2061,24187.1774,50732.0166,37579.3576,33382.9075,35009.8908,4579.559,48462.1078,44074.6397,54619.1186,-3818.9292,-3629.8335,21869.4359
51506.9515,24194.1065,50733.0,37583.5598,33400.7889,35012.2601,4582.7329,48474.9377,44086.6649,54624.2148,-3809.2285,-3621.6527,21871.1346
51517.278,24196.431,50738.7221,37592.1875,33419.2514,35019.9491,4583.18,48487.2758,44094.2645,54630.1156,-3794.9681,-3610.9686,21874.4427
51520.139,24201.9743,50744.6676,37606.5373,33428.9074,35028.8004,4590.3325,48491.4333,44097.1702,54634.6307,-3788.799,-3607.3923,21876.7226
51502.5258,24194.2406,50738.1409,37592.0087,33409.7296,35020.0832,4583.5823,48473.2389,44084.698,54623.5442,-3805.8311,-3624.022,21863.1327
51489.8747,24192.6759,50735.2799,37582.0398,33390.9541,35017.848,4578.9331,48465.8629,44076.7854,54617.9563,-3816.8281,-3633.0074,21859.8694
51497.8319,24195.2688,50735.3693,37591.6064,33406.6451,35026.297,4581.9283,48483.1631,44086.6202,54624.3042,-3810.1226,-3625.6313,21866.7984
51514.3275,24202.6448,50738.3645,37598.6695,33437.9375,35031.4379,4583.8505,48505.7831,44105.0828,54628.9086,-3801.3607,-3613.025,21868.7654
51511.69,24205.8635,50737.7386,37593.3051,33435.7917,35030.4991,4583.9399,48508.9123,44101.4171,54627.4781,-3803.2383,-3609.8957,21868.7207
51504.6269,24203.3154,50737.0681,37588.7454,33409.7296,35025.2241,4583.2247,48492.2379,44094.8457,54625.5112,-3813.386,-3617.4506,21868.4524
51503.6434,24197.7274,50737.1575,37587.1807,33388.1825,35022.9442,4584.074,48482.2243,44091.6717,54621.9796,-3823.1313,-3623.4856,21869.2124
51511.1983,24197.7721,50737.5151,37589.9523,33400.3866,35025.8052,4583.4929,48504.6208,44102.5794,54626.2264,-3814.593,-3616.1989,21870.1959
51528.275,24209.9315,50744.0865,37607.5208,33422.6936,35035.4165,4589.6173,48529.8336,44116.348,54635.3012,-3795.4152,-3602.2514,21877.4825
51518.485,24205.1929,50745.3382,37604.0339,33419.2514,35033.986,4587.1586,48522.3234,44115.901,54632.3955,-3798.5444,-3606.2747,21872.8334
51498.9048,24198.1298,50742.4325,37592.1875,33391.7588,35026.1182,4583.7611,48495.0095,44101.8641,54624.7512,-3810.9273,-3619.4175,21863.848
51492.6463,24187.7586,50742.0301,37583.4703,33380.717,35019.7256,4580.1401,48484.9066,44091.18,54618.8951,-3821.4326,-3634.0356,21859.5117
51516.965,24193.3465,50743.0583,37597.2837,33398.4643,35024.8665,4580.3636,48500.4634,44095.3374,54621.3984,-3811.9555,-3628.6712,21861.7469
51526.0845,24195.0452,50743.5054,37602.2458,33415.3622,35032.5555,4576.8321,48515.7073,44104.3675,54629.5345,-3803.8641,-3619.7305,21863.088
51518.7085,24198.1745,50745.4276,37606.8056,33420.6372,35034.7012,4576.6085,48519.7306,44105.3957,54630.6074,-3803.6406,-3617.093,21861.2999
51493.8533,24190.7537,50739.482,37592.0534,33394.888,35023.4807,4569.8583,48504.1738,44094.2198,54621.8455,-3819.9127,-3635.0638,21853.3427
51482.2751,24181.4107,50738.7668,37580.8328,33378.8842,35019.3232,4569.9477,48488.4381,44087.7378,54617.7775,-3829.4345,-3643.2892,21852.8956
51507.2644,24189.1891,50742.3878,37595.0933,33402.4429,35029.2474,4580.006,48502.0727,44098.556,54629.2663,-3815.8447,-3624.469,21862.0598
51529.3479,24195.3582,50740.9573,37608.5043,33430.9638,35039.261,4583.8952,48527.3302,44106.2003,54634.8095,-3798.2315,-3611.5497,21867.2007
51529.7502,24192.6759,50737.1575,37607.342,33430.5614,35038.6351,4581.5706,48527.0172,44112.5482,54639.5481,-3796.5328,-3608.5546,21867.9607
51512.8076,24185.5681,50735.3693,37593.3498,33406.9133,35031.7955,4579.7825,48511.9075,44098.8243,54632.3955,-3812.4025,-3620.2222,21864.8314
51501.6317,24184.1823,50731.9272,37584.4091,33385.4109,35027.504,4577.9943,48493.4002,44090.9564,54621.8902,-3822.3267,-3627.0618,21865.5467
51514.9981,24188.7867,50728.3062,37594.5121,33403.5158,35029.918,4577.5473,48509.4488,44099.3607,54625.3771,-3818.3033,-3617.6294,21868.0054
51522.2847,24190.6196,50730.0049,37597.4625,33416.5692,35028.6216,4576.6085,48527.8666,44109.1955,54633.2896,-3806.6804,-3611.1027,21869.3912
51515.5345,24185.6128,50731.9272,37589.2818,33403.3817,35022.9889,4574.0604,48526.9278,44107.6756,54632.3508,-3813.9671,-3614.3214,21868.1842
51504.8057,24177.4321,50728.7979,37581.8163,33388.2719,35016.0599,4569.6348,48510.0299,44092.2529,54626.4946,-3829.971,-3628.5818,21856.159
51501.9894,24181.4554,50732.0613,37582.2186,33382.8628,35019.502,4572.8534,48491.5674,44087.8272,54625.6006,-3836.2741,-3637.2095,21851.9121
51517.9932,24189.4126,50738.1856,37591.6064,33395.6033,35028.8898,4578.8884,48509.1805,44107.4967,54635.2118,-3821.4326,-3623.3515,21859.7353
51538.1098,24198.4427,50743.1924,37604.0787,33418.7597,35035.2824,4584.5211,48536.8073,44125.0205,54647.2371,-3800.6455,-3605.0677,21869.0783
51537.4392,24198.2639,50745.2935,37605.3751,33421.4419,35033.9413,4585.5045,48542.3058,44123.3665,54644.2866,-3803.0595,-3610.298,21867.7372
51517.5462,24191.6478,50742.1196,37598.893,33402.7559,35032.1978,4582.4647,48523.128,44113.4423,54639.7269,-3816.0682,-3622.8597,21860.8528
51499.3519,24177.8344,50737.5151,37590.6229,33384.1592,35025.3582,4575.8486,48507.2136,44101.9982,54634.0942,-3828.1381,-3633.4544,21853.4768
51507.6667,24181.5895,50734.6541,37595.6744,33399.4478,35030.5885,4574.6863,48521.921,44101.3724,54635.7036,-3821.2985,-3627.5089,21855.6672
51524.3411,24189.2338,50733.8047,37602.514,33424.3476,35037.7411,4576.6979,48544.2281,44110.0448,54641.1127,-3805.2499,-3615.126,21859.2882
51521.346,24182.6177,50733.5812,37600.2342,33424.2582,35034.2542,4578.3967,48546.3291,44112.727,54642.8114,-3806.7698,-3614.9025,21862.3728
51506.0574,24178.6391,50732.5977,37590.9805,33403.9629,35031.2591,4575.3121,48526.6596,44103.0264,54638.9669,-3822.729,-3623.7091,21859.02
51494.8815,24176.2251,50734.8329,37585.7502,33390.2836,35029.1133,4574.5075,48514.7238,44099.6289,54639.861,-3831.9379,-3627.643,21856.6507
51504.4481,24177.5662,50735.5034,37589.3265,33398.2408,35030.1415,4576.9662,48524.7374,44109.7766,54637.3129,-3823.9807,-3621.5186,21859.5117
51511.9135,24185.9704,50735.9058,37598.3566,33412.5906,35034.9247,4575.5357,48545.1221,44120.4607,54639.101,-3814.3694,-3612.0862,21861.5681
51512.2712,24191.6031,50739.035,37602.6034,33421.0396,35037.9646,4578.5755,48551.6042,44119.1196,54642.4538,-3815.0847,-3612.5779,21861.2552
51500.7824,24182.7965,50738.0515,37594.9144,33403.5158,35035.4612,4577.8602,48537.299,44104.591,54636.24,-3825.9923,-3625.1843,21854.2814
51493.8533,24181.2766,50738.1856,37592.5899,33390.9988,35036.9811,4579.1566,48527.196,44094.9351,54628.5063,-3830.1051,-3630.4593,21853.6109
51509.4995,24187.848,50736.8445,37596.792,33402.4876,35046.7712,4585.0128,48539.4895,44104.3675,54632.5296,-3817.5434,-3623.0832,21858.4836
51526.621,24195.1346,50736.174,37608.102,33428.1027,35052.3591,4589.8855,48567.0269,44123.143,54638.0281,-3804.6688,-3609.7616,21861.2552
51528.8562,24201.0802,50741.1808,37611.5441,33432.439,35052.4038,4594.3558,48574.0006,44123.8582,54644.0184,-3801.0031,-3603.0114,21866.3514
51511.1536,24200.4991,50742.0301,37605.3751,33411.7413,35047.8888,4591.4501,48557.5497,44110.8942,54637.2682,-3818.0351,-3616.3777,21864.4291
51503.4646,24192.363,50739.9738,37595.9426,33386.1262,35037.3387,4584.6552,48540.5624,44102.6241,54634.3178,-3834.1731,-3630.3699,21859.02
51508.069,24191.5584,50734.52,37597.8202,33396.3186,35033.5836,4577.9943,48542.7529,44106.2003,54636.4188,-3827.9146,-3627.3301,21859.3776
51515.5792,24188.5632,50730.4966,37608.8172,33417.3739,35040.1103,4580.0507,48552.3641,44124.0817,54639.2351,-3811.7319,-3614.5896,21863.6692
51505.3868,24178.1473,50724.104,37604.6151,33413.1718,35028.5769,4574.1946,48551.6489,44121.8466,54637.447,-3816.4258,-3619.3728,21859.5117
51487.0584,24167.7314,50718.4714,37585.6608,33385.8579,35017.7139,4563.2869,48528.8054,44100.4783,54632.7084,-3836.1847,-3637.1201,21851.8674
51475.7484,24161.7411,50716.1468,37575.2449,33370.2117,35010.2037,4556.8049,48511.0581,44089.2577,54630.3838,-3846.9136,-3646.4185,21846.2348
51478.52,24165.5409,50714.8951,37580.5646,33386.3944,35007.7003,4556.9837,48519.3729,44096.9914,54629.6686,-3839.5375,-3639.6235,21846.6371
51499.8883,24172.6488,50718.3373,37590.31,33411.6518,35018.3845,4562.7058,48542.7529,44114.8281,54633.1108,-3824.5618,-3625.4972,21853.3427
51501.7211,24172.47,50723.7017,37586.7784,33410.6684,35020.9773,4564.4045,48546.4633,44112.4141,54631.5014,-3820.4938,-3621.9656,21855.3543
51486.6114,24163.6187,50722.4053,37573.0991,33385.0533,35017.2222,4564.0916,48528.716,44098.0196,54625.9135,-3831.625,-3629.6099,21850.7051
51490.2771,24168.849,50729.7814,37578.3294,33379.0183,35025.3582,4573.077,48519.8647,44091.18,54629.1769,-3831.4015,-3624.2902,21853.4321
51504.2692,24179.6225,50736.174,37593.171,33399.716,35035.9082,4583.4929,48541.8141,44109.5531,54638.8775,-3817.9904,-3608.8675,21862.8645
51529.8843,24186.4622,50736.4869,37608.996,33426.5828,35045.6089,4591.7183,48567.7421,44131.1896,54649.1593,-3800.4667,-3596.5741,21868.0054
51532.1642,24190.0831,50736.6657,37610.8736,33424.9288,35043.9996,4593.73,48573.3747,44135.1235,54645.0466,-3802.4783,-3602.8773,21866.6643
51519.379,24185.9704,50739.2585,37601.62,33407.405,35037.9199,4591.9865,48560.0978,44123.3665,54638.9669,-3817.6328,-3617.7188,21860.6293
51509.7231,24182.3494,50743.7289,37595.3168,33392.4294,35036.2211,4588.0526,48548.3408,44112.5482,54636.1059,-3825.0983,-3624.022,21856.6954
51520.6754,24187.1774,50743.0583,37595.9873,33403.9181,35034.2989,4588.1867,48561.573,44114.8281,54641.2468,-3819.7786,-3615.7072,21859.2882
51533.6394,24197.8168,50744.8018,37602.5587,33422.2913,35038.6351,4591.3607,48580.4379,44126.6298,54648.8464,-3806.144,-3607.3029,21863.8927
51528.7668,24197.0122,50745.0253,37603.0505,33421.4419,35035.1483,4589.8855,48573.2406,44125.9593,54647.4606,-3810.8379,-3608.5099,21861.3893
51515.1322,24194.1065,50738.8115,37591.8746,33393.9046,35024.8665,4587.0245,48557.3262,44114.4258,54644.8678,-3828.8981,-3621.2951,21853.9238
51504.8504,24193.4359,50739.6162,37576.8095,33373.8774,35019.9938,4579.6037,48540.4283,44101.6853,54639.6375,-3842.8456,-3632.6498,21850.3475
51503.8669,24190.7537,50738.0962,37581.2799,33386.4838,35024.0618,4576.1168,48545.6586,44111.3859,54644.2866,-3833.7708,-3626.1678,21852.985
51518.5744,24198.0404,50740.1526,37603.3634,33417.2398,35031.7955,4582.0177,48569.262,44128.7756,54652.065,-3813.1624,-3608.4205,21862.0598
51521.5695,24196.8334,50743.5948,37605.5539,33418.4468,35031.1249,4584.074,48570.6925,44132.7542,54654.5237,-3813.073,-3606.4982,21866.9772
51519.9155,24191.5584,50741.6278,37597.0155,33398.1514,35028.2639,4581.5706,48556.6556,44118.4938,54648.3994,-3822.1478,-3619.5964,21865.6808
51514.1934,24187.2221,50741.7172,37593.9757,33383.4887,35026.6993,4579.7825,48538.2825,44110.0895,54646.0748,-3825.3218,-3625.8101,21865.3232
51526.9786,24194.777,50743.2371,37608.4149,33410.0872,35034.0307,4586.7562,48556.9686,44122.383,54654.3896,-3807.9768,-3609.0016,21873.0122
51546.827,24200.9908,50750.2556,37629.7385,33440.8432,35045.9218,4595.2052,48585.4894,44131.1896,54659.5752,-3787.9944,-3594.2942,21878.5107
51545.8435,24201.4825,50751.1944,37628.755,33440.128,35048.6487,4599.1391,48588.1716,44126.0934,54657.6083,-3786.2062,-3593.1319,21876.7673
51531.0019,24200.3649,50750.1215,37619.4566,33423.4089,35046.5029,4597.4404,48568.2786,44121.1313,54656.6695,-3803.2383,-3604.129,21873.7721
51512.7629,24198.845,50751.105,37615.478,33409.9531,35042.4349,4596.5463,48562.2436,44121.8019,54654.3449,-3816.2023,-3615.126,21869.2124
51520.3625,24198.6215,50750.4344,37619.9484,33416.7928,35041.4962,4592.4336,48583.2989,44139.8621,54658.9941,-3810.0332,-3610.1639,21872.0734
51526.0398,24204.9694,50747.5287,37620.306,33429.1756,35040.4233,4589.7514,48607.3941,44148.6686,54660.1117,-3805.9205,-3602.9667,21872.2522
51525.0117,24198.0404,50745.07,37611.4547,33421.2184,35035.8635,4588.7232,48603.1026,44142.3208,54656.7142,-3812.0449,-3610.1639,21867.6925
51504.1798,24185.8363,50742.5219,37597.7755,33396.7656,35029.5156,4583.18,48580.9743,44129.0885,54651.0816,-3826.1265,-3620.2222,21861.2999
51489.4277,24178.5049,50739.9738,37582.5763,33378.5266,35025.5817,4580.006,48562.2436,44120.0137,54647.55,-3837.1682,-3627.7324,21860.227
51495.3285,24182.3047,50738.4092,37589.2818,33394.2622,35030.0074,4581.1683,48573.1959,44131.3684,54654.6578,-3828.4063,-3621.2951,21865.0997
51512.45,24188.2056,50737.1575,37605.3303,33415.094,35031.8402,4585.5045,48581.9131,44150.1886,54657.0718,-3814.7271,-3609.9851,21872.1628
51510.4383,24181.813,50731.0331,37599.2507,33407.4497,35026.0288,4583.4035,48583.2095,44138.2527,54649.1146,-3817.4093,-3613.2932,21868.4077
51504.1351,24183.5117,50734.8329,37593.618,33397.3467,35028.6216,4584.0293,48576.8616,44130.7873,54646.6112,-3820.4044,-3614.5896,21868.1842
51500.0224,24184.4505,50741.0914,37595.3168,33392.8764,35034.3883,4584.5211,48566.8927,44130.9661,54646.2536,-3821.8796,-3617.7188,21869.0783
51511.1089,24189.7702,50745.07,37597.9096,33408.6567,35036.6682,4585.1469,48575.297,44136.3752,54649.9193,-3812.1343,-3612.0862,21874.1298
51525.861,24194.1512,50745.2488,37611.6335,33433.6907,35047.6652,4588.1867,48593.9384,44151.172,54656.4013,-3795.1916,-3596.6188,21877.8402
51531.0019,24198.1298,50743.7736,37620.6189,33429.1756,35055.086,4588.7679,48592.6419,44155.553,54651.8415,-3794.3423,-3595.3224,21874.3533
51529.3032,24199.605,50747.3946,37615.0757,33407.0027,35051.0627,4589.0808,48581.2426,44140.3538,54646.3877,-3806.9934,-3606.0065,21869.9723
51521.3907,24200.0967,50751.4626,37611.8571,33399.269,35054.9519,4591.6289,48576.6381,44129.8038,54640.2186,-3811.7319,-3609.1357,21869.57
51533.7735,24216.4582,50756.7823,37619.5908,33420.7714,35064.4737,4596.591,48590.8091,44136.8222,54645.6277,-3804.8923,-3595.5459,21875.158
51558.0475,24230.8527,50761.3868,37631.1243,33443.3913,35074.6661,4598.5132,48618.1676,44150.8591,54652.1991,-3788.0391,-3586.1135,21881.1035
51554.0689,24224.326,50758.034,37624.9105,33433.2436,35070.1511,4593.4618,48615.3066,44151.4403,54652.6015,-3789.1567,-3587.0969,21878.019
51530.1079,24213.776,50749.6744,37612.6617,33402.0853,35059.9587,4588.4997,48594.8771,44131.3237,54642.0515,-3805.2499,-3603.2349,21871.0899
51513.657,24201.4825,50747.931,37604.3022,33384.2933,35060.0481,4587.5162,48575.297,44118.3597,54635.7483,-3813.5648,-3612.9802,21869.2124
51523.1788,24194.33,50745.6958,37602.4693,33401.5936,35057.5,4585.5939,48578.6498,44122.9641,54639.3692,-3806.6357,-3607.0794,21872.1628
51527.6045,24194.4641,50740.3761,37607.8784,33424.0794,35052.8061,4581.0789,48599.3922,44133.1118,54645.4936,-3795.2811,-3599.748,21876.9461
51512.3159,24187.5798,50730.8543,37599.3848,33413.44,35044.3125,4575.8933,48585.6682,44118.0021,54638.9669,-3804.0876,-3608.0629,21872.5204
51490.6347,24176.9403,50726.1157,37579.0447,33388.719,35030.7226,4573.077,48566.6245,44099.6289,54630.2497,-3818.8398,-3617.1824,21866.5302
51485.2256,24175.7333,50733.4918,37575.6025,33385.1427,35028.5769,4577.2791,48555.6722,44091.3141,54631.0991,-3825.8135,-3624.3796,21869.6594
51492.2887,24181.5895,50737.0234,37577.3907,33396.8103,35026.5205,4581.8388,48560.5448,44098.4219,54632.6637,-3823.3101,-3618.1659,21872.5652
51504.4928,24194.4641,50739.6162,37590.5335,33410.4002,35028.6216,4585.4598,48559.1143,44108.3908,54636.8659,-3808.2898,-3606.0512,21876.9908
51503.554,24200.5885,50747.0369,37593.618,33409.1485,35030.1415,4592.0759,48546.3291,44101.0594,54635.0777,-3802.1207,-3609.4487,21876.0073
51488.2654,24199.3815,50749.585,37588.6112,33395.648,35030.4991,4595.4287,48521.7869,44084.9215,54629.6686,-3810.5696,-3617.3612,21870.5535
51473.8709,24201.0355,50747.7075,37579.3129,33387.3779,35028.0851,4597.9768,48497.8259,44070.0352,54623.276,-3821.522,-3621.6974,21866.3961
51486.2984,24209.5739,50745.4276,37590.4441,33407.5391,35031.1249,4603.3859,48503.9502,44075.0867,54624.4383,-3807.351,-3613.025,21870.4641
51502.2129,24215.8771,50742.1196,37602.7375,33432.9307,35030.365,4606.4705,48511.1475,44086.2626,54627.5675,-3790.6766,-3599.7033,21875.158
51492.6463,24211.7196,50734.6988,37605.2409,33427.9239,35027.5487,4604.9953,48503.1009,44074.2373,54622.3372,-3794.6105,-3608.2864,21872.6993
51470.4287,24203.3154,50735.3693,37593.0369,33399.5372,35022.4525,4600.3461,48474.8483,44057.2053,54617.5092,-3810.1226,-3621.5186,21867.1113
51449.4181,24203.0919,50735.4587,37581.5481,33385.3662,35019.0997,4596.8145,48449.2332,44048.3093,54611.2508,-3826.4841,-3628.2241,21864.6973
51461.3539,24211.8984,50738.8562,37582.9339,33394.8433,35019.5467,4597.4851,48465.1923,44056.1324,54614.827,-3820.0021,-3620.2669,21867.2901
51471.1887,24215.8324,50740.1973,37588.7454,33403.2923,35024.4194,4596.8145,48470.6014,44064.4026,54618.8951,-3807.4404,-3612.8908,21871.224
51463.4997,24217.4864,50743.3712,37590.757,33404.2758,35028.2192,4598.8262,48461.7054,44056.8477,54621.8902,-3804.177,-3614.3661,21873.4145
51455.9001,24208.6351,50741.8513,37588.6559,33388.4954,35023.3018,4596.2781,48445.8804,44039.771,54611.6978,-3819.0633,-3626.9724,21869.7488
51448.8816,24208.5904,50743.0583,37587.5831,33371.7316,35018.8762,4597.8874,48426.792,44034.7642,54606.1546,-3826.4841,-3631.5322,21864.2056
51458.1352,24212.8372,50744.6229,37597.8202,33377.8113,35020.0832,4598.6921,48428.3566,44038.7875,54606.3781,-3817.9457,-3622.4574,21865.6808
51472.9768,24216.19,50743.5054,37605.7327,33392.2058,35022.4078,4601.106,48450.1272,44048.0858,54611.519,-3805.2499,-3612.265,21868.7654
51469.0876,24220.7497,50746.9028,37599.0272,33386.4391,35027.4593,4602.8942,48452.8989,44041.8273,54615.1847,-3808.6027,-3610.5216,21869.3018
51455.9001,24213.9548,50746.4558,37592.7687,33368.3789,35027.7722,4600.0779,48430.413,44023.2307,54607.6745,-3813.2519,-3622.1445,21867.469
51451.8768,24208.0092,50747.0369,37586.1526,33358.0971,35023.5701,4597.3957,48407.6142,44014.5582,54600.1196,-3819.3315,-3629.3864,21867.1113
51455.9001,24208.8139,50747.8863,37584.7667,33372.3128,35019.055,4596.2334,48412.2634,44017.5533,54599.1808,-3816.6493,-3622.2339,21867.469
51473.0662,24208.7692,50744.5782,37599.4295,33394.1281,35022.8995,4596.0993,48425.4509,44027.0305,54602.2654,-3802.6571,-3611.5497,21869.6147
51477.4919,24201.6166,50741.0914,37601.1282,33387.0649,35016.3281,4592.3889,48416.7337,44027.4328,54603.0253,-3801.1819,-3615.9307,21869.8829
51461.6668,24194.1512,50734.6988,37590.757,33357.3371,35008.8626,4587.7397,48397.9136,44011.2948,54598.9126,-3811.866,-3626.9724,21865.3232
51443.7407,24190.3514,50730.0943,37581.861,33347.8153,35003.0065,4585.4151,48371.8961,43995.1569,54592.4306,-3824.3383,-3639.0871,21856.9189
51451.8768,24191.1113,50728.8426,37585.7055,33361.6734,35002.5147,4582.1071,48373.6843,43998.1967,54593.9058,-3819.1974,-3636.2708,21857.1424
51479.2353,24204.433,50734.6988,37605.6433,33387.3779,35014.1823,4586.7562,48404.3956,44021.0402,54601.1925,-3799.3044,-3619.2834,21863.9374
51481.3364,24206.8022,50738.4092,37607.9679,33394.5304,35018.295,4586.9797,48411.1458,44029.8468,54607.4957,-3797.4268,-3613.919,21867.9607
51472.2168,24198.3086,50742.9689,37595.585,33371.821,35011.9472,4587.9632,48388.5258,44015.5864,54603.5171,-3813.5201,-3625.0502,21865.7702
51470.6969,24195.6711,50740.5102,37586.689,33357.4265,35011.5001,4585.1022,48371.8067,44013.9771,54603.1594,-3821.075,-3631.1299,21864.9656
51488.7571,24203.9412,50740.1973,37596.2555,33380.0465,35018.6974,4588.4103,48385.7542,44023.3648,54603.6959,-3806.144,-3621.5633,21868.1395
51501.1847,24207.3387,50738.2751,37602.067,33394.9775,35022.1843,4590.556,48400.0593,44032.1714,54604.8135,-3792.9565,-3613.3826,21871.5817
51491.5287,24200.1861,50735.2352,37596.032,33385.9473,35014.54,4584.5658,48392.9962,44033.4231,54603.2935,-3796.8457,-3615.7966,21866.6643
51475.1673,24186.1939,50731.9272,37579.7153,33363.1933,35002.3359,4581.1683,48375.2936,44015.3629,54598.1079,-3819.2868,-3630.7722,21858.1706
51471.7698,24184.9422,50729.9155,37571.2663,33343.3449,34999.5643,4578.5755,48360.8544,44006.2433,54596.6774,-3828.6746,-3643.5127,21856.5613
51477.4472,24183.0647,50727.5909,37573.725,33350.4081,35004.9734,4574.2393,48375.2489,44014.5135,54602.6677,-3822.9078,-3637.1201,21855.5778
51491.3946,24189.8596,50729.6473,37587.0913,33376.2467,35012.3495,4576.0721,48393.3538,44025.0635,54613.3518,-3812.3578,-3623.9773,21862.5069
51492.7804,24193.123,50731.0331,37583.9174,33377.6772,35008.6391,4576.0274,48392.9515,44026.0023,54610.3567,-3819.1527,-3626.3466,21857.0083
51477.7601,24191.469,50729.0214,37572.965,33359.617,35004.3476,4573.7475,48382.9826,44020.1014,54604.9476,-3831.4015,-3638.3271,21850.3028
51459.9234,24180.6954,50724.2382,37562.5044,33340.7521,34994.0658,4565.9244,48376.8135,44008.702,54602.5336,-3843.0244,-3647.3125,21846.8606
51470.5181,24174.5263,50722.8076,37570.5957,33348.6199,34993.8869,4568.9642,48388.347,44013.1724,54603.8747,-3834.4413,-3640.3835,21849.5429
51483.0351,24178.5944,50725.6687,37578.553,33369.6753,35002.4253,4575.1333,48403.8591,44028.1481,54609.8202,-3814.3247,-3624.2008,21856.6954
51487.9525,24186.9539,50729.5579,37587.2701,33374.9503,35005.331,4581.66,48410.1176,44034.3618,54614.2906,-3804.7582,-3616.9142,21861.3893
51483.5268,24184.7187,50732.0166,37592.5452,33366.859,35006.8957,4584.0293,48391.6551,44028.6398,54612.3683,-3808.9156,-3623.3068,21860.9422
51480.04,24184.5399,50733.3577,37585.5267,33356.2642,35011.0084,4585.5045,48382.2674,44021.8449,54612.2342,-3816.8728,-3630.5487,21862.0151
51495.7309,24196.5652,50735.5034,37594.5568,33373.2963,35017.4904,4587.5162,48402.831,44034.0042,54612.7707,-3807.2169,-3620.8481,21865.9937
51510.7512,24210.2444,50736.7998,37607.6549,33390.7753,35026.4758,4592.8359,48429.6978,44042.2744,54620.0573,-3789.6931,-3607.6158,21872.2522
51514.4169,24213.9548,50741.4043,37621.2448,33398.3749,35032.4661,4600.2567,48437.9232,44047.1917,54621.622,-3783.8817,-3603.3243,21876.1861
51494.3451,24206.3999,50741.7619,37612.0359,33377.856,35031.3485,4599.1391,48424.4227,44043.7943,54615.7658,-3796.9798,-3610.7004,21870.0171
51478.7883,24205.8635,50738.4986,37599.3848,33367.1719,35027.8169,4596.1887,48412.4422,44035.7029,54611.519,-3808.9156,-3621.608,21865.502
51491.3052,24212.9266,50739.6609,37600.1894,33388.1378,35031.2144,4596.2781,48426.5238,44048.5328,54618.7162,-3799.3938,-3613.2932,21867.2454
51505.3421,24218.8275,50738.6327,37604.7939,33403.1582,35034.3883,4596.591,48453.9717,44055.0148,54621.6667,-3791.4813,-3600.6868,21868.0054
51508.1137,24215.1618,50735.3693,37601.9329,33399.716,35028.0851,4591.5395,48445.031,44054.1655,54619.0739,-3797.6503,-3606.6324,21866.4855
51488.7571,24208.0092,50731.8825,37587.5384,33373.8774,35017.3116,4581.7047,48416.8231,44040.5309,54610.2673,-3813.2966,-3624.6479,21856.7401
51476.1955,24201.8849,50727.9038,37577.9271,33361.0922,35014.4953,4574.0157,48408.7765,44031.9926,54601.3266,-3827.9146,-3635.332,21850.3028
51492.7804,24209.5292,50726.4286,37585.035,33375.2632,35018.8315,4575.8486,48424.6016,44040.3074,54607.2274,-3820.8961,-3628.9841,21854.3708
51510.2148,24215.2512,50726.518,37601.7541,33395.5586,35032.1531,4580.0507,48445.7016,44050.5892,54617.4198,-3805.3393,-3614.1425,21861.0317
51511.4665,24213.776,50728.5297,37603.7657,33397.3467,35036.847,4584.7446,48454.3741,44055.1043,54617.8669,-3803.73,-3612.7567,21863.0433
51509.7678,24216.6817,50737.9174,37605.9562,33389.4342,35038.7692,4587.8291,48453.1671,44046.0294,54614.1118,-3808.2004,-3620.2222,21863.535
51500.0671,24203.9859,50739.9738,37599.3401,33378.5266,35033.6283,4587.695,48435.241,44036.8652,54609.5073,-3817.9904,-3634.6614,21859.9588
51499.7095,24204.9694,50736.7551,37600.7259,33395.6927,35028.711,4585.6833,48440.7842,44050.4551,54618.2692,-3807.7086,-3625.0949,21861.9257
51512.6735,24211.362,50735.1905,37609.1748,33412.9035,35031.6167,4586.7562,48459.4703,44062.3462,54624.3489,-3791.7048,-3611.505,21865.0103
51518.8873,24214.7148,50737.9174,37609.4431,33415.4963,35034.2989,4587.8291,48465.1029,44059.3511,54620.102,-3796.3986,-3616.6012,21862.8198
51497.3849,24206.9811,50737.5151,37589.1924,33393.8599,35023.7936,4583.627,48450.0825,44047.8623,54612.726,-3812.5366,-3631.0852,21857.5895
51484.5103,24202.1978,50736.2634,37580.5646,33380.27,35015.2999,4584.6999,48429.1166,44042.7661,54612.5025,-3824.3383,-3638.7742,21854.952
51493.451,24204.8353,50732.3742,37589.5053,33390.5071,35018.4292,4587.248,48439.5325,44050.9021,54618.0904,-3816.3811,-3627.2854,21860.4952
51509.1866,24211.6749,50728.2168,37597.0602,33406.8239,35022.0948,4585.1469,48455.3128,44058.5911,54621.2196,-3803.0595,-3617.0036,21861.7022
51505.7445,24208.9033,50728.2615,37595.138,33401.9512,35012.126,4583.9399,48456.341,44058.5017,54626.4946,-3807.0828,-3617.7188,21863.4009
51486.8796,24202.8683,50721.7795,37583.1574,33384.2933,35003.9899,4582.8223,48438.6384,44045.2248,54622.2925,-3822.5055,-3628.0006,21859.3776
51479.0118,24200.4097,50722.7629,37579.8941,33371.9552,35003.9899,4585.5939,48430.3236,44046.1636,54625.4665,-3823.6678,-3631.1299,21861.3893
51499.933,24204.88,50731.0331,37589.9523,33390.8647,35010.2931,4591.0478,48442.3935,44055.6854,54633.6025,-3813.2966,-3616.7353,21868.9889
51510.2148,24204.433,50731.1672,37599.2507,33415.4963,35010.919,4587.7397,48457.9504,44064.2238,54636.1953,-3803.73,-3609.5828,21874.4874
51508.6949,24200.0967,50729.0214,37596.0767,33408.9696,35008.7732,4585.5045,48454.1506,44064.492,54633.0661,-3809.5862,-3616.4671,21868.6759
51490.2771,24192.4971,50730.5861,37583.3809,33380.1359,35005.4204,4582.0624,48437.2526,44048.8458,54623.3207,-3829.9263,-3633.2309,21860.2717
51482.901,24190.3514,50734.2517,37581.7269,33374.2797,35006.3592,4582.3753,48431.2624,44039.6369,54617.7328,-3834.933,-3642.574,21856.5166
51497.0273,24188.2056,50732.7765,37582.6657,33388.0484,35007.5215,4580.7213,48447.2215,44043.2578,54618.6715,-3827.0652,-3639.3553,21855.846
51509.0972,24191.3795,50730.9884,37590.757,33408.612,35010.6061,4581.4365,48461.2584,44054.2102,54623.9018,-3817.3646,-3630.8616,21856.5166
51509.8572,24200.5885,50728.3509,37595.3168,33409.7743,35006.4486,4582.0177,48450.7084,44051.0809,54620.7726,-3817.8116,-3630.7275,21853.8344
51485.0914,24197.2804,50729.6473,37586.1079,33386.2603,35003.7217,4581.1683,48432.1117,44042.6767,54615.9446,-3829.8368,-3637.9695,21851.3757
51477.2236,24192.6312,50731.6142,37581.6822,33375.8891,35006.538,4582.9117,48421.2935,44044.0625,54615.8105,-3836.0506,-3641.1881,21851.5992
51491.5287,24198.8003,50733.4918,37582.0845,33394.1281,35010.7402,4585.2363,48439.0408,44055.4619,54622.7396,-3826.0818,-3630.2805,21856.7848
51516.7415,24216.19,50737.6492,37598.5801,33424.7947,35023.5254,4592.4336,48459.0679,44067.1742,54630.0262,-3810.8379,-3617.3165,21865.0103
51512.7629,24216.5029,50736.2187,37606.8503,33428.058,35024.33,4596.0546,48461.5266,44070.6164,54624.7065,-3806.0099,-3615.0813,21864.0268
51495.105,24209.7974,50738.7221,37597.3731,33403.6499,35019.0997,4594.8923,48441.9465,44059.4405,54620.2362,-3821.1197,-3627.9559,21859.6905
51481.5152,24202.6001,50739.8397,37586.3761,33387.6014,35019.055,4593.1041,48430.6812,44053.2714,54617.4198,-3831.4909,-3635.0191,21860.0482
51493.1828,24203.1813,50739.482,37590.6676,33402.577,35024.7771,4594.3111,48455.6258,44065.7884,54622.6948,-3819.1527,-3621.5186,21863.8033
51505.208,24214.4465,50742.209,37602.2905,33413.7976,35024.7771,4592.7465,48471.272,44072.628,54629.7133,-3804.8476,-3612.4438,21867.8713
51505.5209,24212.7031,50741.7172,37606.9397,33414.3341,35019.9491,4589.662,48466.8911,44070.2587,54629.6686,-3803.7747,-3614.5002,21863.9821
51490.2771,24197.5933,50739.2138,37591.2935,33391.4906,35018.8315,4586.5774,48446.6404,44057.6524,54621.4879,-3818.4822,-3631.6663,21858.1706
51485.9855,24189.1891,50736.2634,37582.4422,33379.823,35018.1162,4584.7446,48433.4975,44050.1869,54613.7094,-3830.9097,-3640.8305,21854.6391
51502.4364,24194.8664,50737.6939,37592.8581,33401.1018,35028.6663,4588.9467,48450.8872,44059.664,54619.5209,-3817.8563,-3628.8947,21859.2435
51516.1157,24208.9927,50741.8513,37608.6831,33420.2349,35033.0025,4591.8077,48466.9358,44070.974,54628.4169,-3795.4152,-3614.2319,21867.916
51514.5957,24206.9811,50741.449,37613.1982,33426.2252,35031.7061,4592.1206,48464.5218,44073.2986,54624.1701,-3796.9351,-3614.3661,21869.57
51499.7542,24195.1346,50738.6327,37595.2274,33411.3836,35022.9889,4590.4219,48451.2448,44066.5036,54616.1681,-3810.9273,-3628.3135,21862.3281
51487.2819,24187.6245,50731.8825,37587.4043,33397.8832,35015.5681,4585.5045,48434.8387,44046.9235,54607.9427,-3830.5074,-3642.8422,21855.4437
51497.6084,24186.1045,50728.8873,37593.0369,33403.5158,35017.7139,4584.6105,48441.3654,44057.5629,54609.2391,-3820.1809,-3629.7441,21856.7848
51507.175,24188.0715,50730.7202,37601.0835,33418.4915,35019.0103,4583.0905,48457.4139,44071.6892,54615.2741,-3802.7018,-3619.0152,21857.3213
51513.8805,24190.7984,50731.2566,37595.8532,33413.6635,35018.3845,4581.3918,48464.4324,44069.6776,54619.4315,-3804.177,-3621.6527,21853.2532
51503.6881,24193.4359,50732.9106,37588.2983,33395.201,35016.8645,4581.6153,48444.7181,44055.9536,54616.8834,-3818.661,-3628.7606,21849.0958
51488.8912,24180.5166,50731.3907,37578.0165,33371.2846,35006.1804,4575.4462,48424.5121,44043.5708,54611.4743,-3835.2907,-3643.1998,21840.9151
51486.209,24177.2085,50728.6638,37572.7862,33378.4819,34996.7927,4572.764,48436.8503,44051.8856,54610.1779,-3835.1119,-3644.7644,21838.7246
51498.0108,24189.8149,50729.2002,37587.1807,33399.269,34999.8325,4573.1217,48454.5529,44061.5416,54621.4432,-3823.5337,-3636.9413,21840.6916
51494.0768,24187.5798,50724.5064,37587.9407,33394.3069,34996.8374,4568.249,48459.2021,44061.4969,54619.3421,-3828.8981,-3642.2163,21837.4282
51480.1294,24180.3378,50719.7231,37571.6239,33364.6685,34989.3272,4568.3831,48439.9796,44049.9634,54614.6929,-3845.7513,-3655.2697,21836.713
51479.6823,24182.0812,50725.0875,37576.4519,33366.2331,34997.2844,4574.0157,48431.7094,44059.4852,54619.655,-3846.8242,-3652.5428,21842.4797
51492.7804,24188.742,50730.0049,37582.0398,33388.3166,35002.2912,4579.0225,48446.9533,44076.5172,54629.7133,-3832.0273,-3635.1979,21849.8111
51514.4169,24201.7508,50729.2897,37588.1642,33411.8754,35009.3991,4581.8835,48473.5072,44089.1236,54636.3294,-3820.4491,-3623.0385,21854.4155
51509.7231,24193.8829,50729.692,37585.7502,33408.5226,35011.4554,4584.834,48477.307,44085.3685,54636.6423,-3822.6396,-3626.8383,21858.3941
51485.1362,24186.1045,50727.725,37571.4451,33385.9026,35006.6721,4583.2694,48466.0864,44075.1314,54629.8027,-3837.3023,-3637.6566,21856.1143
51480.3082,24183.8247,50730.9437,37570.3275,33376.1126,35005.1075,4581.7494,48456.1175,44072.8962,54629.311,-3841.9068,-3639.5341,21856.0249
51488.0866,24181.3213,50729.0214,37583.7833,33393.5022,35009.0861,4581.5706,48471.719,44076.0255,54630.6074,-3827.8252,-3628.9841,21857.813
51502.347,24187.4009,50724.1935,37591.8746,33412.7247,35011.8577,4576.2062,48484.5042,44081.7028,54630.6968,-3818.7504,-3620.6245,21856.6954
51502.8834,24185.7916,50719.9466,37584.3644,33406.6451,35003.3194,4570.8418,48484.8619,44080.0488,54630.5627,-3826.2159,-3629.7888,21848.4253
51483.6162,24173.677,50717.4432,37572.6968,33391.9823,34994.5575,4566.7291,48471.9425,44074.6844,54621.4879,-3839.8504,-3645.8373,21839.1269
51466.8524,24176.8509,50716.5492,37568.4947,33380.2253,34991.92,4567.802,48462.4207,44064.7155,54613.5306,-3846.7348,-3652.7663,21836.4894
51476.5531,24182.8412,50714.8504,37574.7979,33391.6247,35000.1901,4568.5172,48477.5752,44068.6047,54616.2128,-3835.3354,-3642.3057,21837.9647
51493.9874,24184.1823,50715.521,37584.2303,33409.1932,35004.1687,4568.3831,48497.8259,44078.8865,54619.5656,-3830.1498,-3636.0025,21836.8918
51502.0341,24184.3611,50720.2148,37589.7735,33412.6353,35006.5827,4574.0157,48505.6937,44083.4016,54625.4665,-3828.3616,-3637.9248,21842.2562
51490.4112,24184.0482,50720.4831,37585.482,33392.2952,35006.8957,4578.0391,48491.3439,44072.8068,54623.0972,-3839.4481,-3644.7644,21838.9481
51474.8544,24180.606,50720.036,37576.8542,33375.5761,35006.2251,4579.2907,48482.3138,44064.3132,54617.7775,-3849.2382,-3648.4748,21837.16
51485.8514,24189.7702,50724.104,37577.793,33392.1611,35010.9637,4579.2907,48493.3555,44079.423,54625.7794,-3834.933,-3637.746,21843.8208
51506.3256,24195.0899,50727.0992,37592.0981,33423.8112,35022.8101,4582.3753,48515.9755,44090.8223,54628.8639,-3820.0915,-3625.0502,21850.9287
51506.0574,24189.6808,50726.1604,37593.171,33424.8394,35022.3184,4582.5094,48519.5071,44092.2529,54628.1487,-3818.4822,-3625.7654,21853.5662
51494.6133,24188.1162,50725.5793,37584.6773,33407.8521,35015.8811,4580.5424,48503.1903,44086.2179,54624.2148,-3828.8534,-3634.125,21852.8956
51482.5881,24187.4009,50725.1769,37575.0661,33394.7539,35011.6789,4575.5357,48487.6782,44076.3384,54619.655,-3840.5657,-3640.9646,21847.3971
51487.5948,24187.8927,50720.7066,37584.4985,33402.4876,35012.1707,4573.6134,48489.1534,44080.8535,54621.2196,-3829.0769,-3632.5604,21847.5312
51503.5987,24198.5768,50722.7629,37594.6909,33420.4137,35016.6857,4575.2227,48505.336,44092.074,54625.6453,-3814.1459,-3619.507,21848.9617
51506.7279,24197.7274,50720.2595,37592.0981,33414.9152,35015.2105,4574.0157,48499.1223,44093.0128,54623.8124,-3817.4987,-3625.4972,21844.8043
51494.658,24194.3747,50720.3043,37585.6161,33394.0834,35007.0745,4571.0653,48491.6568,44081.7922,54615.9446,-3833.9943,-3641.0987,21839.2164
51480.3529,24183.4223,50716.5492,37580.9669,33379.063,35001.1736,4565.4327,48483.4313,44071.1975,54611.0719,-3848.0312,-3652.6769,21836.6683
51495.6415,24182.0812,50718.829,37583.828,33390.9988,35007.6556,4568.0702,48503.8608,44084.0274,54621.8902,-3840.2081,-3641.1434,21842.9714
51513.0311,24188.0715,50724.0593,37599.7871,33421.2631,35018.4739,4574.284,48526.0785,44098.3772,54634.4966,-3815.1741,-3624.4243,21850.7946
51507.7114,24188.9656,50723.3441,37604.481,33421.2631,35016.5516,4575.3121,48524.5585,44094.0857,54631.6355,-3815.0847,-3623.9326,21846.503
51487.729,24184.4058,50721.7348,37595.0038,33394.7092,35013.0647,4573.3899,48506.8113,44083.8486,54626.2264,-3829.5686,-3634.125,21840.9598
51475.212,24179.0414,50723.5229,37578.9553,33381.2982,35011.4554,4573.5687,48495.6801,44074.3268,54628.6851,-3838.554,-3642.1716,21840.6916
51497.6531,24186.3281,50730.5861,37590.31,33403.1582,35022.4525,4582.2859,48509.4935,44092.5211,54636.1953,-3827.7805,-3629.7888,21848.9617
51516.6968,24191.3348,50730.0049,37604.3022,33425.957,35028.6216,4583.4929,48531.2194,44103.8311,54639.9504,-3814.3694,-3616.9142,21853.0297
51517.725,24191.6031,50733.313,37606.582,33430.8296,35029.4262,4587.7397,48532.0687,44108.0779,54643.0349,-3805.6523,-3614.9025,21856.9189
51505.8339,24191.7372,50736.0399,37600.6365,33413.1718,35026.4311,4589.4831,48520.1329,44101.5512,54639.0563,-3814.6377,-3623.7985,21854.8179
51492.5122,24189.502,50733.1342,37589.3712,33396.8997,35020.8879,4585.5939,48515.1708,44097.1255,54632.5296,-3824.6065,-3629.0735,21851.1075
51505.0292,24188.0268,50730.139,37592.5004,33403.3817,35026.3417,4584.9234,48525.3632,44102.3558,54635.4353,-3821.2985,-3623.8432,21851.8227
51515.0428,24195.1793,50728.7532,37595.9873,33419.0279,35027.4593,4584.6552,48537.8802,44107.765,54639.9057,-3812.0449,-3618.9258,21853.6109
51511.7347,24193.3465,50728.7532,37598.3566,33415.9434,35024.7771,4580.1401,48536.852,44104.4122,54639.3245,-3813.6989,-3622.6362,21853.4321
51497.1167,24182.9753,50729.6473,37587.8513,33400.5654,35017.3116,4575.9827,48520.267,44089.7495,54632.619,-3832.7426,-3634.7508,21845.6537
51485.6279,24171.4418,50727.5462,37577.7036,33386.4838,35012.0813,4573.8816,48502.8774,44081.3452,54626.2711,-3844.0973,-3644.0492,21839.1716
51498.0108,24178.2367,50727.5462,37589.1924,33408.7461,35017.7139,4576.0721,48515.2155,44087.8719,54629.1322,-3828.8534,-3635.5555,21842.882
51511.7794,24182.0812,50725.9369,37597.3284,33428.5498,35022.4078,4578.799,48538.8637,44098.9137,54637.2682,-3820.0021,-3624.0667,21847.9782
51509.8125,24183.2882,50726.518,37594.6462,33421.4866,35021.5137,4577.9049,48547.2232,44101.5959,54639.0563,-3820.8514,-3627.2854,21849.0958
51502.7046,24183.9588,50730.3625,37587.7172,33406.7792,35025.3582,4580.6766,48541.8141,44098.2431,54641.5597,-3823.3548,-3630.9063,21853.6556
51492.6463,24181.813,50731.4354,37588.4771,33396.408,35025.0006,4584.5658,48527.3749,44089.973,54639.5481,-3830.3733,-3635.9131,21855.9355
51504.6269,24189.1891,50735.1011,37601.9329,33412.2777,35026.0735,4584.9234,48535.6003,44098.2878,54640.4421,-3820.2256,-3623.7538,21859.6905
51518.7532,24192.3183,50732.7318,37606.582,33419.9667,35028.0404,4584.0293,48558.4885,44109.7766,54640.1292,-3807.1275,-3611.7733,21859.6905
51520.9436,24190.5302,50731.5695,37599.0272,33417.7762,35027.6828,4582.3753,48556.2086,44104.5016,54637.7599,-3813.0283,-3614.7684,21856.8742
51513.9699,24187.3115,50732.4636,37593.4392,33409.5955,35028.5321,4582.1518,48537.8355,44094.8904,54635.6142,-3825.59,-3625.9443,21851.8674
51499.2625,24177.7897,50728.3062,37585.3926,33388.3613,35027.9957,4577.3685,48522.3234,44090.42,54631.0097,-3834.5754,-3633.5886,21848.5147
51505.0292,24178.3261,50725.311,37587.4937,33395.2457,35026.9228,4571.6465,48527.0619,44097.4832,54632.172,-3831.7144,-3630.0123,21846.9948
51519.7366,24180.4272,50725.4004,37601.4411,33419.2961,35032.4661,4573.8816,48546.3291,44108.0779,54637.0,-3816.3364,-3618.1659,21849.9452
51508.382,24177.3874,50723.3888,37602.6928,33414.5576,35027.191,4572.2276,48547.5361,44103.9652,54637.5364,-3820.4938,-3621.2504,21849.1852
51491.3946,24175.778,50723.6123,37593.618,33392.0717,35022.7207,4572.6746,48528.2689,44095.8738,54630.4286,-3834.7542,-3636.539,21844.9384
51483.9292,24174.571,50725.9816,37585.3926,33380.6723,35023.883,4572.8981,48518.3001,44090.9564,54627.5675,-3841.0127,-3644.1386,21842.7479
51495.9991,24180.6507,50727.1886,37590.4888,33395.1563,35028.1298,4570.7077,48536.0026,44100.076,54631.2779,-3830.9544,-3635.5555,21843.9549
51509.9466,24182.1706,50729.7367,37594.0651,33418.2233,35028.9345,4571.1994,48563.3612,44114.2023,54642.3197,-3822.1031,-3624.1114,21851.9121
51504.6716,24188.3397,50730.5861,37592.6346,33422.3807,35027.1016,4574.5075,48565.5963,44111.7436,54643.7949,-3824.0254,-3624.1114,21855.4437
51484.1527,24185.2999,50730.899,37580.7881,33394.888,35022.4525,4574.5969,48551.783,44098.2878,54639.1457,-3832.8767,-3635.1532,21852.3145
51483.3927,24182.3047,50730.7649,37584.7667,33377.9454,35022.3184,4574.4628,48537.4331,44091.9846,54630.205,-3837.8835,-3645.9267,21849.0958
51498.6813,24188.0268,50730.899,37590.6676,33390.7306,35024.8218,4571.5123,48550.8442,44096.902,54630.6074,-3833.5025,-3640.5623,21848.0676
51512.45,24190.1726,50728.8873,37598.4013,33410.6684,35027.191,4569.6348,48563.54,44108.8825,54639.5034,-3821.3432,-3629.1629,21850.7946
51507.3985,24187.6692,50725.9816,37595.8085,33408.5226,35021.7372,4565.7009,48562.4224,44107.2285,54635.6142,-3823.5784,-3632.7839,21845.6089
51488.5336,24177.7897,50721.9583,37577.7483,33390.9094,35014.9423,4559.8,48538.8637,44099.4501,54627.1652,-3842.3091,-3649.6818,21836.3106
51483.8845,24167.2844,50719.8125,37563.7114,33372.8492,35012.0366,4559.5318,48517.6295,44086.0391,54622.7843,-3855.2731,-3657.2367,21831.3038
51496.7591,24173.4982,50717.7114,37568.5841,33384.0251,35015.1658,4561.2752,48529.4759,44090.5541,54626.2711,-3844.3655,-3650.263,21830.9015
51506.5044,24180.1143,50718.5161,37578.4636,33403.2476,35021.1561,4560.7835,48556.6556,44095.248,54631.7697,-3833.4578,-3638.7295,21833.2261
51508.6949,24184.5846,50721.3324,37585.3926,33406.8239,35017.9821,4561.9458,48559.6955,44101.3724,54638.5199,-3833.4131,-3637.5225,21838.7246
51495.5521,24183.1988,50722.1371,37575.379,33396.1844,35012.3495,4562.1246,48549.5478,44096.6785,54632.3061,-3849.0593,-3650.8888,21835.3271
51484.5997,24179.6225,50726.2051,37566.5277,33379.6442,35013.4671,4566.2373,48541.5459,44095.8738,54627.7463,-3854.2449,-3655.5827,21834.9248
51496.312,24180.9636,50725.9816,37574.3508,33388.2719,35016.2387,4568.1596,48551.7383,44098.4666,54633.2449,-3844.9913,-3646.1055,21838.9481
51508.8737,24193.4806,50729.5579,37586.0631,33408.7014,35021.5584,4573.5687,48569.575,44116.7057,54647.0135,-3827.6464,-3630.1911,21848.5594
51509.1419,24195.3582,50729.5132,37587.9854,33411.6518,35021.469,4574.2393,48572.9724,44115.3198,54645.5383,-3825.59,-3627.7324,21848.3359
51494.7474,24187.5798,50728.6191,37579.8941,33388.7637,35009.712,4570.7971,48552.3194,44104.5016,54639.101,-3839.4928,-3636.0472,21846.056
51482.901,24181.2766,50723.5229,37580.9669,33377.8113,35006.8957,4568.8301,48538.7743,44096.2315,54634.1389,-3846.1089,-3645.4797,21839.9763
51496.8932,24188.9656,50725.9816,37595.2721,33399.5819,35014.0035,4574.7757,48553.7946,44105.3957,54635.0777,-3832.3402,-3636.3155,21842.4797
51515.0875,24192.7654,50729.6473,37608.3702,33422.2913,35020.2173,4576.1168,48573.7324,44112.4141,54636.6423,-3818.6163,-3626.6595,21846.8606
51515.5792,24194.0171,50733.8941,37609.8454,33418.0444,35024.1512,4574.4628,48574.8053,44113.8893,54636.24,-3823.3101,-3627.3301,21848.1123
51502.2576,24190.4408,50734.3411,37602.9611,33403.2476,35022.5866,4574.4628,48559.159,44112.5929,54637.7599,-3832.3849,-3637.3436,21845.8772
51483.0351,24185.3446,50731.0331,37589.8182,33386.0368,35017.3116,4572.0041,48547.2679,44103.8758,54633.6025,-3838.1964,-3647.4019,21841.8539
51501.4082,24185.3893,50731.6589,37592.0534,33395.9609,35020.4408,4574.1946,48565.4622,44113.8893,54638.9669,-3831.5356,-3637.1201,21844.089
51518.932,24190.9772,50731.9272,37597.9096,33414.1999,35020.2173,4576.8768,48585.1318,44124.3052,54651.2604,-3818.8845,-3624.469,21851.2416
51507.622,24188.1162,50731.0331,37592.9475,33409.8637,35015.3893,4574.1051,48581.9131,44123.6347,54653.6297,-3821.7455,-3628.9841,21851.8674
51493.9874,24182.26,50728.6191,37581.7716,33389.7471,35006.9851,4569.2772,48557.5944,44104.6357,54642.9008,-3840.8339,-3645.435,21843.4632
51491.0817,24181.9024,50729.6473,37580.5646,33380.0465,35013.6012,4571.7359,48548.4749,44104.5016,54642.0068,-3841.7727,-3645.3009,21847.9335
51498.726,24186.8645,50729.4238,37586.3314,33397.3467,35018.0715,4571.6465,48561.126,44117.2421,54641.9621,-3834.3966,-3637.1201,21852.0015
51504.2692,24188.9209,50729.2897,37593.3498,33417.7315,35019.4573,4572.1829,48577.3087,44124.4841,54647.4606,-3820.6279,-3629.1629,21856.2484
51489.2936,24188.1609,50726.3839,37586.2867,33410.5343,35009.3991,4566.595,48571.0502,44115.5881,54645.0466,-3829.7921,-3633.4097,21849.6323
51474.8991,24173.8111,50719.1867,37570.5063,33382.6393,34997.8656,4559.3083,48539.6683,44095.8291,54632.8425,-3849.4617,-3649.95,21836.5341
51465.0196,24168.7149,50713.0623,37569.5676,33362.7015,34996.6139,4556.0002,48519.8647,44088.2295,54627.791,-3857.2848,-3658.0861,21833.539
51490.1429,24174.1687,50716.5492,37585.7949,33383.8463,35009.2202,4563.2869,48542.0823,44102.5794,54630.8309,-3842.0409,-3648.5642,21837.3835
51511.2877,24186.2833,50717.5773,37596.5685,33409.2826,35017.848,4570.1712,48570.4243,44110.4472,54639.0116,-3822.1925,-3636.8519,21842.5244
51505.7892,24191.0666,50717.5326,37596.7026,33413.1271,35018.5186,4570.2606,48580.125,44110.2684,54634.4072,-3825.9923,-3640.9646,21839.3058
51485.8067,24186.4622,50721.1089,37591.7405,33393.1893,35016.9539,4568.8748,48568.9044,44105.7086,54631.2779,-3839.5375,-3648.5642,21835.1036
51480.3976,24177.5215,50722.6288,37590.6676,33379.3759,35014.3611,4567.802,48554.9569,44098.6902,54631.5014,-3845.1254,-3652.2746,21833.6731
51497.2508,24175.6439,50729.1108,37595.6297,33395.0669,35018.6974,4570.2159,48577.711,44107.6308,54638.5199,-3825.3218,-3638.3718,21844.089
51519.9155,24181.4107,50734.3411,37603.7657,33416.9269,35022.8548,4575.7592,48596.1288,44120.2819,54648.9358,-3810.0332,-3627.9112,21848.3359
51511.7794,24177.0297,50734.5647,37599.7871,33409.2826,35022.229,4574.9545,48591.7032,44126.4957,54649.8299,-3818.5716,-3631.8451,21847.6206
51493.6298,24169.8772,50730.5861,37589.5947,33387.3332,35017.7586,4575.938,48571.6313,44112.1459,54642.0068,-3835.3801,-3642.574,21846.1007
51489.5171,24175.2863,50733.4024,37589.7735,33375.6208,35022.229,4579.7825,48567.8315,44111.2518,54640.8445,-3836.5871,-3640.7411,21850.0793
51505.0292,24184.7634,50733.8047,37601.2623,33391.8482,35026.2523,4577.9049,48587.6799,44126.4957,54645.4042,-3823.0866,-3627.9559,21855.846
51522.1506,24195.9393,50728.7532,37612.2594,33409.4167,35027.5934,4576.5191,48604.3096,44132.2178,54647.4606,-3815.1294,-3622.7256,21854.4602
51512.8523,24191.6478,50726.2945,37609.9348,33403.6946,35023.2124,4570.4395,48595.19,44121.936,54643.169,-3825.0983,-3630.8616,21849.4087
51501.4976,24178.9073,50718.1585,37594.4674,33386.4838,35014.987,4563.5104,48579.8568,44107.9885,54633.5131,-3839.6269,-3646.1055,21842.1221
51489.9641,24173.0064,50715.8339,37584.0962,33373.2963,35015.9258,4561.1411,48571.0055,44094.8457,54627.4781,-3848.5676,-3654.0627,21840.2892
51498.7707,24182.0365,50719.8125,37594.9144,33377.0514,35021.7372,4559.5765,48579.0074,44105.3063,54629.758,-3840.2975,-3646.9549,21843.4185
51514.5957,24187.535,50717.935,37606.4926,33393.7705,35028.1745,4556.4473,48579.3203,44114.6493,54629.758,-3827.3782,-3631.7557,21843.642
51509.8572,24195.8946,50719.589,37601.62,33398.3749,35032.8684,4557.4307,48582.9413,44113.6658,54628.998,-3825.9923,-3630.8616,21844.3125
51505.6998,24192.9889,50723.3888,37595.1827,33386.3944,35029.7838,4560.8282,48567.1163,44104.5016,54628.3722,-3837.7494,-3636.7625,21843.642
51501.8553,24190.4855,50726.2051,37590.6229,33373.4304,35027.9063,4565.5221,48558.4438,44101.0147,54626.8076,-3844.2314,-3639.8917,21846.056
51509.0972,24187.2221,50727.9932,37592.5899,33384.0251,35028.711,4566.9526,48570.7372,44105.6639,54632.0379,-3830.1498,-3629.1629,21851.4651
51516.4733,24185.4787,50730.0049,37598.893,33401.2806,35032.2872,4568.3831,48586.1152,44120.9078,54638.4305,-3819.0186,-3621.2504,21855.6672
51513.9699,24184.0482,50728.3956,37598.5801,33403.4264,35025.537,4569.8583,48582.4049,44116.9292,54635.5695,-3820.8961,-3624.4243,21854.0579
51493.1828,24177.4321,50726.3839,37586.5996,33385.7238,35020.3961,4569.5901,48565.6857,44098.556,54628.3722,-3833.3684,-3636.4943,21848.7382
51475.4355,24171.6206,50723.7911,37577.0777,33376.9172,35017.0434,4566.595,48542.6635,44083.2227,54624.1254,-3843.1138,-3643.7809,21848.1123
51482.9457,24166.2115,50719.0526,37575.7813,33389.4789,35014.4058,4563.7339,48534.2145,44084.1615,54628.1934,-3837.9729,-3638.7742,21848.2465
51498.2343,24173.2299,50717.7562,37585.482,33405.1251,35013.5118,4564.0022,48541.0988,44083.938,54631.412,-3827.3335,-3630.3252,21846.7265
51494.3004,24178.3708,50722.9865,37585.6161,33403.0688,35006.0463,4568.5172,48539.2213,44080.3617,54630.0262,-3825.8135,-3630.6381,21844.089
51468.417,24175.1969,50722.3159,37576.9883,33383.8463,35001.1289,4566.1926,48517.406,44064.6261,54622.9631,-3838.7775,-3641.4117,21839.9763
51454.5143,24178.1473,50722.9418,37574.4402,33378.3478,35001.3971,4572.7193,48499.5246,44052.9138,54620.102,-3847.7629,-3650.0841,21841.0045
51466.1819,24191.1113,50725.2216,37580.0282,33398.0173,35005.5546,4580.9895,48511.0134,44059.9322,54626.8076,-3834.1731,-3637.7013,21849.0064
51485.4044,24206.0423,50733.76,37594.5121,33418.4915,35012.3495,4588.4997,48521.6081,44071.734,54638.207,-3813.3413,-3619.6858,21858.4836
51482.8563,24206.7575,50738.9456,37592.9028,33421.576,35013.8247,4592.0759,48513.2933,44058.0994,54634.4072,-3812.3578,-3622.6362,21857.5001
51463.9467,24206.8022,50736.2634,37581.8163,33403.784,35010.4272,4591.5395,48489.8686,44039.9498,54623.3654,-3826.5735,-3637.5672,21852.7168
51443.5619,24212.0326,50735.1458,37572.071,33379.9124,35001.5312,4588.0079,48468.6792,44029.5339,54617.8669,-3835.9165,-3647.9384,21847.0842
51451.6085,24216.0112,50729.8708,37571.5792,33396.5868,35001.3077,4585.8175,48468.858,44031.6349,54614.0224,-3834.1731,-3643.3339,21844.4914
51457.7776,24215.7429,50725.0875,37569.7911,33410.1766,35001.6654,4583.9399,48477.307,44031.5008,54614.2012,-3828.451,-3635.2426,21845.2066
51453.9778,24211.9879,50725.4899,37574.4402,33403.5158,34999.4749,4581.3024,48463.0913,44030.3832,54609.8202,-3829.7921,-3637.8354,21841.4962
51432.8331,24201.9743,50719.7678,37570.9534,33375.6655,34990.1766,4571.6465,48437.6103,44014.8711,54598.9573,-3841.1468,-3653.3922,21833.2261
51422.7748,24195.8946,50718.5161,37564.6502,33355.2361,34984.5439,4568.2043,48421.517,44007.2268,54595.0681,-3846.9136,-3658.4437,21831.7956
51431.2685,24195.8499,50717.622,37565.2313,33365.0261,34990.3107,4571.6465,48427.9096,44012.5912,54600.3431,-3834.6201,-3648.1619,21835.5507
51449.7757,24199.2474,50716.728,37579.5811,33384.1592,34997.4185,4574.6863,48431.6647,44018.1345,54600.1196,-3821.5667,-3635.1085,21837.3388
51455.6319,24200.9908,50723.8358,37586.2867,33384.3827,35003.0065,4580.8107,48430.9942,44019.0285,54604.0535,-3821.8796,-3634.7061,21838.9481
51445.1712,24191.6925,50727.4121,37586.1526,33369.1388,35003.9452,4582.1965,48416.1079,44007.495,54598.3315,-3829.8815,-3641.814,21838.4564
51434.3977,24189.3232,50730.2284,37583.4256,33356.6666,35001.5312,4582.1965,48406.6755,44004.634,54598.242,-3829.658,-3643.1998,21845.296
51448.1664,24203.0025,50731.2119,37589.0583,33369.4965,35005.0181,4584.7446,48414.1856,44017.4639,54604.9029,-3822.7737,-3632.158,21851.4204
51470.0711,24210.5126,50730.6755,37598.6695,33386.6179,35009.8461,4587.2927,48429.7425,44027.6116,54606.6016,-3809.6756,-3622.1892,21855.3543
51466.4054,24201.4378,50726.9651,37596.5685,33379.5547,35009.6673,4585.4598,48425.4062,44024.1694,54601.3266,-3815.8447,-3629.0735,21851.0628
51445.7077,24188.5632,50723.3888,37587.8066,33359.0358,35001.2183,4577.9049,48396.5725,44005.5728,54593.9505,-3834.5307,-3644.8091,21844.7149
51433.5036,24192.4524,50720.1254,37580.0282,33346.2954,34995.0045,4572.3617,48386.7377,43994.3969,54590.3742,-3848.3888,-3650.3077,21840.3786
51449.5075,24197.6827,50722.2712,37582.5763,33354.2526,34998.8937,4576.3403,48399.0759,44004.0529,54596.4092,-3831.3568,-3639.3553,21844.5361
51469.1323,24198.0851,50723.7017,37587.6278,33368.2001,35001.9783,4578.6649,48412.2187,44016.5699,54602.8912,-3816.2023,-3627.3301,21848.6488
51470.4734,24195.7158,50719.9019,37587.7619,33371.0611,34996.3903,4576.8768,48400.417,44013.1724,54601.9077,-3819.868,-3629.8335,21845.6984
51456.213,24188.6079,50718.1585,37572.9203,33346.3848,34987.4496,4573.7475,48380.1216,43993.3687,54590.3742,-3833.9049,-3643.021,21841.9433
51454.7825,24180.4272,50718.6055,37568.0476,33331.3197,34992.5905,4575.6698,48372.2538,43988.8537,54587.7367,-3840.6104,-3648.2513,21843.8208
51476.1955,24186.5069,50719.0078,37583.068,33357.7842,34999.2961,4579.7378,48388.347,44006.9139,54597.8844,-3827.557,-3636.4943,21852.1357
51496.8932,24201.8402,50725.4004,37591.5617,33382.9969,35007.0298,4587.0692,48407.2566,44020.1908,54607.6745,-3809.9438,-3624.2008,21861.7469
51499.7095,24202.6448,50727.2333,37586.5102,33381.1641,35007.6556,4590.0643,48408.9553,44019.6544,54607.7639,-3811.0614,-3623.9773,21862.641
51479.4588,24196.9675,50730.8543,37577.4801,33365.1602,35004.0346,4593.2382,48390.2693,44018.4474,54607.7192,-3820.6726,-3626.0784,21865.2785
