FC3,FCz,FC4,C5,C3,C1,Cz,C2,C4,C6,CP3,CPz,CP4
53588.5692,25887.6085,52148.67,39605.3195,34650.1619,36934.3758,5066.3799,49343.1687,44163.4208,55206.5223,-2027.6159,-2526.7303,23587.7037
53607.7917,25896.0575,52155.4649,39617.0318,34680.6496,36939.2037,5068.6151,49361.4972,44178.3518,55211.6632,-2014.2943,-2509.6536,23593.2916
53606.1376,25900.0361,52156.6719,39621.7257,34686.5505,36938.0862,5070.8503,49366.504,44177.3236,55213.5855,-2009.1087,-2507.6866,23591.727
53592.5925,25900.5278,52158.8624,39615.2884,34664.914,36932.4535,5073.2642,49347.6838,44158.7269,55210.2774,-2015.0095,-2520.4718,23590.0283
53580.7461,25904.6406,52158.1471,39606.303,34640.193,36931.0677,5070.9844,49321.0852,44140.3538,55204.8236,-2026.4983,-2530.6642,23591.9058
53580.2096,25908.4851,52161.4105,39606.303,34645.7362,36940.4107,5075.0971,49319.9676,44148.1769,55211.6185,-2017.8705,-2522.4835,23596.6444
53599.3874,25916.4423,52161.2763,39626.1066,34668.2668,36949.8432,5081.445,49328.2378,44157.7882,55215.9101,-2003.029,-2509.0724,23601.9641
53605.78,25920.3762,52160.2035,39629.6382,34675.1958,36946.1328,5079.7462,49330.4729,44166.4159,55217.7429,-2000.2574,-2504.468,23603.9311
53589.642,25915.4588,52160.5164,39622.2621,34661.1142,36941.7071,5074.7842,49309.9988,44151.6638,55211.2162,-2014.2049,-2514.8839,23598.4772
53569.3467,25905.4452,52159.3094,39613.1873,34639.5224,36935.6275,5067.9892,49284.4284,44136.7775,55200.7109,-2024.8443,-2530.1725,23594.2304
53577.7509,25907.144,52156.9401,39621.8598,34640.8188,36935.3145,5073.3089,49286.1718,44142.276,55200.2639,-2014.786,-2523.0199,23595.348
53589.7762,25911.7484,52154.6602,39626.8666,34655.571,36940.0978,5074.0242,49296.5877,44151.2614,55204.466,-1999.0057,-2512.8275,23598.5219
53593.8442,25910.7649,52149.6981,39627.7606,34655.9733,36939.0249,5068.8833,49295.6042,44148.6239,55205.3154,-1996.547,-2511.7099,23596.3315
53580.3884,25904.73,52148.2676,39625.2126,34636.3038,36931.8277,5070.7161,49274.9959,44140.0856,55197.2687,-2009.0193,-2522.4388,23589.8495
53568.4526,25896.9069,52145.3172,39616.8977,34620.1658,36922.6635,5067.3634,49253.4488,44127.211,55192.5749,-2021.2233,-2532.05,23587.8378
53577.5721,25896.5045,52145.1831,39620.6081,34622.7586,36924.4516,5064.7259,49249.202,44125.0652,55190.1162,-2015.5013,-2527.222,23590.5647
53594.8277,25902.0478,52150.9051,39628.0289,34640.8188,36929.2349,5067.9892,49267.6646,44134.4082,55192.9325,-2003.8784,-2513.6769,23594.3198
53601.0414,25902.316,52152.5592,39634.6003,34653.9617,36926.5527,5068.3469,49268.3351,44139.7727,55191.8596,-2002.7608,-2510.0559,23593.8728
53588.3904,25896.4598,52149.6981,39628.7888,34636.1697,36920.6518,5066.3799,49251.7948,44127.9709,55188.7304,-2013.5343,-2517.6555,23589.0448
53571.9395,25888.592,52150.5028,39612.3827,34609.2582,36918.1037,5068.2575,49229.5325,44118.4044,55184.707,-2025.1125,-2528.6078,23589.9836
53585.574,25897.8009,52153.1403,39612.6509,34614.712,36921.9929,5073.5325,49231.0077,44122.6512,55191.502,-2015.0989,-2520.6506,23597.5832
53607.2552,25908.9768,52156.4484,39622.888,34643.7693,36927.1338,5079.5227,49248.2632,44134.587,55201.3367,-1998.4245,-2505.4067,23602.7241
53614.0054,25911.0332,52155.1967,39631.4263,34651.1453,36925.4798,5076.7958,49249.0232,44140.175,55201.6944,-1997.9775,-2502.5457,23599.2372
53596.0346,25903.0312,52151.5757,39622.128,34633.0404,36917.5225,5070.6267,49228.3702,44123.2324,55192.9772,-2010.5839,-2517.2532,23594.901
53584.3223,25893.7329,52149.9664,39606.303,34609.3476,36908.9395,5063.8765,49205.035,44112.3247,55191.2785,-2023.5479,-2528.9208,23590.9224
53586.2893,25892.3471,52150.0111,39604.2019,34606.3972,36906.6149,5062.7589,49208.656,44120.0584,55195.2571,-2019.1222,-2522.9752,23590.2071
53613.916,25903.6124,52148.9829,39615.1543,34626.2008,36913.4545,5061.6413,49231.1418,44131.9048,55198.5651,-2006.65,-2510.5476,23592.5317
53628.1317,25911.1673,52153.3638,39621.8598,34639.3883,36918.1484,5064.9494,49238.3838,44136.0623,55201.1132,-1999.408,-2508.2678,23595.0798
53615.8383,25910.1838,52157.7448,39614.5731,34629.0618,36922.6635,5066.7822,49222.4693,44130.2955,55197.5369,-2004.5936,-2512.2017,23593.1575
53599.9686,25910.0944,52154.7943,39608.9852,34613.2815,36924.3175,5070.0009,49210.5335,44118.0021,55190.0268,-2018.407,-2523.914,23588.1507
53606.8082,25912.1954,52150.2346,39614.2155,34613.8626,36927.3573,5072.6384,49224.0787,44120.6843,55195.3018,-2013.3108,-2521.8129,23590.52
53636.2231,25912.866,52149.8322,39624.8102,34634.6498,36938.0862,5074.4265,49252.1971,44140.0409,55204.3766,-1995.0718,-2505.7197,23597.7173
53642.571,25905.0429,52145.5854,39623.2009,34641.4,36932.2747,5072.102,49266.1893,44147.3275,55204.7342,-1995.9658,-2501.9199,23596.7785
53620.3086,25900.3937,52143.3055,39615.5119,34623.1163,36925.4798,5067.6763,49247.0562,44139.6832,55203.1249,-2012.1932,-2516.0909,23592.9787
53599.9686,25889.2626,52143.2161,39608.9852,34603.6702,36916.092,5066.3352,49221.1282,44130.2955,55198.1181,-2024.3973,-2528.3843,23589.0895
53599.3874,25888.3685,52144.2443,39603.4867,34605.6819,36913.4992,5065.6199,49227.5655,44135.6599,55197.8052,-2022.4303,-2522.0364,23591.4141
53605.1542,25886.178,52144.4231,39607.9123,34625.2173,36910.9958,5061.9096,49246.5645,44146.7911,55204.4213,-2008.6169,-2513.3193,23591.8164
53616.8665,25890.6484,52147.2394,39613.4555,34633.8451,36914.7062,5064.9494,49252.5548,44152.8261,55207.8187,-1999.408,-2509.9665,23593.381
53609.8927,25895.2528,52150.8157,39611.3545,34618.0648,36918.4613,5066.9611,49230.6501,44147.6405,55200.0403,-2015.5013,-2519.533,23589.0448
53595.0959,25886.178,52148.67,39601.7432,34600.988,36914.9745,5065.9776,49210.757,44132.3519,55190.742,-2030.611,-2534.3299,23582.7863
53596.0793,25891.3189,52147.4183,39605.7218,34609.5264,36914.0804,5064.7259,49226.8056,44135.4811,55188.3727,-2028.0629,-2535.3134,23583.1439
53616.5982,25906.2052,52150.0558,39623.8267,34633.9792,36925.7033,5064.9494,49263.5518,44154.4801,55194.8547,-2009.8686,-2516.5379,23587.2567
53625.4495,25911.4355,52152.1121,39629.1018,34646.0044,36933.1241,5068.1233,49273.6995,44161.4538,55208.2658,-2001.5091,-2509.2959,23591.9058
53609.3563,25913.313,52153.2744,39617.7024,34628.2572,36928.3855,5069.7774,49260.8249,44151.3956,55204.6448,-2013.0426,-2520.4271,23589.9836
53592.2796,25906.6969,52150.9498,39610.2369,34609.7946,36923.0211,5066.9163,49244.5529,44143.6619,55200.085,-2025.0231,-2532.6759,23588.5978
53598.6274,25912.4637,52150.9051,39621.0551,34618.0648,36929.9054,5065.0835,49255.8181,44152.379,55200.4427,-2020.1504,-2526.9091,23590.4306
53620.0404,25922.7008,52151.1734,39632.4992,34644.9763,36940.679,5067.9445,49282.372,44166.6394,55210.5457,-2002.5373,-2512.3805,23593.4705
53632.2445,25925.3383,52152.7827,39634.1532,34651.1006,36944.7917,5066.4693,49297.1689,44174.0602,55212.5126,-1998.5139,-2510.6817,23593.7834
53631.5739,25922.3878,52156.9401,39628.2077,34635.9909,36944.1211,5063.7424,49285.5906,44167.5335,55207.5952,-2008.4828,-2519.8907,23591.7717
53625.1813,25913.8495,52158.8176,39621.7704,34616.8578,36948.368,5063.9212,49273.2078,44161.8562,55204.2872,-2018.3176,-2528.8314,23592.6211
53630.4563,25908.7086,52157.7001,39621.7257,34624.7703,36955.2076,5064.3682,49280.9415,44170.0369,55203.4825,-2013.2661,-2526.4174,23595.3033
53656.0714,25915.6376,52158.9518,39639.3836,34658.2085,36964.3271,5069.375,49311.0269,44179.5588,55206.9694,-1997.1281,-2509.3406,23596.1527
53655.8479,25912.7319,52156.3143,39639.7412,34670.949,36958.7839,5068.2575,49316.2125,44184.5208,55209.8751,-1988.5898,-2502.6798,23597.8961
53637.9218,25904.5511,52151.7992,39628.0289,34651.9947,36952.3913,5065.0835,49306.8248,44176.8318,55202.9014,-2000.1233,-2511.7993,23594.9904
53611.0103,25892.3918,52147.15,39614.1261,34626.7372,36940.7684,5062.5801,49288.9881,44168.517,55198.2075,-2015.8589,-2524.4057,23590.7435
53611.9044,25891.0954,52147.463,39613.5896,34637.9131,36941.9754,5059.1826,49288.4517,44175.3566,55202.5437,-2014.7413,-2523.5564,23593.6493
53634.4796,25899.4102,52147.2394,39622.9774,34657.672,36946.2222,5064.6812,49308.6576,44190.377,55209.2046,-1997.7093,-2509.3853,23597.2255
53638.503,25905.1323,52147.7759,39625.1231,34666.7022,36945.8199,5067.6316,49315.1397,44191.0923,55211.7974,-1992.479,-2503.6633,23596.555
53622.9014,25898.695,52143.082,39614.0367,34646.3174,36934.5993,5062.446,49305.4837,44172.6744,55199.7721,-2006.4265,-2519.4436,23589.6707
53613.022,25889.9778,52142.7691,39601.6985,34630.1794,36926.1056,5058.4227,49285.0542,44164.6278,55199.5933,-2024.889,-2530.6642,23585.5132
53613.8266,25891.3189,52143.1714,39601.6091,34640.0589,36925.3457,5059.585,49287.5129,44171.0651,55204.1531,-2022.3409,-2529.2784,23584.8427
53630.7245,25900.0808,52142.9032,39611.2204,34662.7682,36929.2349,5061.9096,49305.7072,44183.1797,55209.9645,-2006.1582,-2517.2979,23588.7319
53629.8305,25899.6338,52138.8352,39603.6655,34665.674,36924.8539,5059.2273,49305.8413,44177.2342,55211.0374,-2007.2758,-2519.2648,23588.1507
53622.8567,25895.8787,52140.7127,39601.8326,34650.4301,36925.3457,5059.6297,49288.4517,44175.4907,55210.188,-2011.0756,-2523.2434,23587.9272
53615.6148,25898.8738,52140.3104,39594.7248,34633.0404,36920.0706,5057.618,49269.0057,44169.7687,55201.9179,-2026.7218,-2530.396,23586.1838
53618.6099,25901.3325,52137.0471,39593.6072,34638.1813,36921.3223,5057.8415,49271.062,44173.1662,55202.052,-2025.2466,-2524.361,23586.3626
53634.3008,25904.2829,52140.8468,39608.9852,34664.7799,36932.9005,5062.6248,49296.4983,44186.6219,55210.0539,-2009.6004,-2512.7381,23592.7105
53640.2017,25904.73,52141.8303,39612.8744,34671.4407,36933.2582,5063.6977,49304.0979,44187.203,55213.9431,-2003.9231,-2510.9947,23593.6493
53630.6798,25899.3655,52144.4231,39601.8773,34658.2532,36928.4302,5062.0884,49282.6402,44171.9592,55210.7692,-2012.4167,-2521.9917,23590.2071
53611.2338,25889.8884,52144.7808,39597.1835,34646.8985,36922.0823,5056.7687,49258.7239,44160.828,55201.4261,-2026.2748,-2535.7604,23584.798
53614.0054,25886.1333,52144.7808,39598.2563,34653.8723,36924.8092,5058.9144,49259.5285,44159.4869,55199.638,-2019.2564,-2534.5981,23586.3626
53630.9481,25884.7475,52141.2939,39605.8112,34670.8596,36929.4137,5061.0155,49277.3652,44173.8814,55206.4329,-2002.3584,-2521.6341,23591.0118
53624.4214,25882.9147,52137.807,39609.164,34671.8431,36928.3408,5055.8299,49287.2,44183.0903,55208.981,-2003.8784,-2519.8013,23590.52
53614.6313,25876.1197,52133.6049,39602.7714,34652.397,36927.0891,5054.31,49271.8667,44171.1098,55202.3202,-2016.9765,-2526.7303,23588.1954
53594.47,25865.9273,52132.1297,39589.6733,34628.1677,36921.4565,5051.4489,49248.9338,44157.3411,55191.8596,-2029.1358,-2536.6098,23583.591
53601.2203,25871.3812,52134.9013,39593.7413,34638.1366,36932.9453,5057.1263,49258.3662,44167.8017,55192.8878,-2019.614,-2527.8479,23586.9437
53613.6478,25879.1149,52132.2191,39601.7432,34664.6458,36937.2368,5059.4509,49285.9483,44169.9475,55196.1958,-2007.6782,-2517.2979,23591.9505
53613.1561,25875.0021,52132.532,39606.0348,34672.603,36934.0181,5061.4625,49300.7004,44171.4227,55206.3882,-2006.5159,-2515.9568,23591.8164
53594.9618,25865.9273,52134.4095,39602.7714,34658.2979,36931.1571,5059.585,49279.5557,44161.0962,55200.085,-2014.3837,-2526.5962,23588.0613
53580.6566,25865.078,52134.7225,39593.6519,34638.0919,36929.056,5058.3333,49261.0037,44146.7017,55190.5185,-2027.1242,-2538.3532,23584.7533
53592.9501,25874.0187,52141.1598,39603.2184,34644.6633,36934.9569,5064.413,49277.5887,44157.3411,55194.1842,-2017.3341,-2532.7653,23586.6308
53612.1279,25880.5901,52140.7127,39613.5896,34667.2386,36938.712,5063.5636,49289.1222,44171.0204,55197.1346,-2005.89,-2524.0481,23584.9321
53616.4194,25880.0536,52136.7788,39614.3049,34675.6428,36938.3544,5058.9144,49288.1387,44171.0651,55194.4971,-2011.8803,-2526.1492,23583.0098
53612.4855,25875.7621,52136.0189,39608.2699,34665.2716,36937.952,5054.8017,49273.8336,44163.9572,55188.641,-2027.6606,-2536.9227,23575.4102
53593.0842,25864.4074,52137.0918,39592.7578,34639.1201,36927.9832,5052.1195,49250.0514,44153.9884,55181.2202,-2043.6645,-2549.4844,23569.1965
53597.7334,25869.2801,52137.6729,39596.2447,34643.0093,36930.1289,5055.6958,49250.9454,44158.1458,55184.1259,-2037.9871,-2544.2988,23574.5609
53617.4029,25882.0206,52137.1365,39604.9172,34662.9024,36935.8063,5056.9922,49281.2544,44165.5666,55194.3183,-2027.9735,-2534.017,23579.3442
53626.6565,25892.6153,52139.1481,39613.3661,34674.2123,36936.7003,5057.8862,49297.0347,44177.86,55199.2357,-2017.7364,-2528.429,23582.9204
53618.3864,25888.3685,52141.3833,39606.5265,34660.8013,36931.8277,5054.8464,49282.6402,44170.8416,55192.4407,-2027.8394,-2540.186,23578.003
53598.9851,25879.8748,52137.6729,39587.7063,34635.4097,36920.473,5048.1409,49258.0533,44152.5131,55183.5448,-2047.6878,-2559.5874,23568.4812
53597.1969,25886.4909,52135.393,39584.4877,34641.5341,36922.3058,5047.6491,49258.858,44157.0282,55185.9587,-2048.5818,-2554.4465,23569.1965
53620.8898,25886.0886,52134.5884,39596.6023,34662.5,36926.4632,5046.4869,49287.3341,44173.345,55196.7323,-2031.5498,-2538.4426,23574.2033
53629.8305,25886.9827,52136.4212,39596.9152,34662.4553,36926.4632,5044.4752,49294.9337,44176.4295,55200.2192,-2029.717,-2531.5136,23574.8738
53621.0686,25888.592,52141.9644,39594.3671,34654.4087,36929.369,5048.2303,49287.2894,44167.4888,55194.9888,-2035.3943,-2535.9392,23572.728
53608.5516,25882.0206,52139.8634,39589.0921,34641.8917,36922.574,5046.8445,49271.9114,44152.7814,55183.1424,-2045.2291,-2549.5291,23567.1401
53608.5963,25878.8913,52137.6282,39586.2311,34639.3436,36920.2942,5048.4985,49274.4595,44158.0117,55188.5068,-2042.7704,-2548.4115,23570.0011
53634.2561,25891.0507,52143.2608,39601.6985,34664.0199,36936.3874,5055.204,49299.1358,44181.481,55211.7974,-2020.1951,-2529.5466,23582.2946
53638.503,25893.5988,52143.5738,39603.6655,34672.2901,36937.5497,5054.5782,49305.5284,44184.5655,55212.9596,-2014.7413,-2525.7915,23584.5745
53627.1036,25894.627,52142.8138,39596.9599,34660.846,36932.7664,5052.1642,49300.7898,44180.8552,55209.741,-2023.5479,-2531.5136,23583.1887
53611.1891,25889.2179,52146.1219,39586.6334,34641.3553,36926.8656,5052.5218,49288.3623,44171.3333,55205.3154,-2038.7471,-2539.292,23583.0098
53612.0832,25885.3734,52142.9032,39586.4993,34644.8421,36926.0609,5049.8396,49292.6538,44183.7162,55205.7624,-2036.1543,-2537.8168,23582.0264
53628.847,25891.766,52139.9975,39595.7083,34665.4505,36928.4302,5049.9737,49309.8646,44200.1671,55207.9082,-2022.5644,-2528.2502,23582.6969
53633.6303,25894.0011,52142.635,39601.4303,34677.6098,36929.0113,5055.1146,49322.5157,44200.5247,55213.5855,-2015.993,-2522.1705,23587.3014
53623.2144,25884.4346,52136.8682,39593.339,34657.2697,36924.2281,5051.5383,49302.4439,44185.2808,55210.5457,-2029.5829,-2532.6312,23580.9982
53615.7489,25882.4229,52137.0918,39588.6898,34639.7907,36918.1484,5050.6443,49288.3176,44180.1399,55203.4378,-2038.7024,-2544.3882,23576.2149
53617.4029,25886.1333,52139.0587,39590.925,34642.0258,36921.7694,5049.7502,49299.0464,44188.9912,55209.4281,-2033.6062,-2539.8731,23579.0312
53635.6419,25892.8835,52140.7574,39597.6305,34669.6973,36929.4584,5054.3547,49323.8568,44207.9008,55217.1171,-2020.4186,-2523.3328,23584.4851
53629.3834,25892.213,52137.7176,39594.7248,34673.2289,36928.2514,5053.9076,49327.6566,44213.3546,55217.6982,-2019.0328,-2523.6905,23582.6969
53614.1396,25885.5075,52136.9129,39586.1417,34656.3309,36925.8374,5051.0466,49315.6761,44201.0164,55211.0821,-2029.3593,-2533.1229,23579.2547
53605.78,25882.6911,52138.2987,39580.5985,34645.7362,36928.0279,5053.8629,49304.0979,44188.1865,55207.8187,-2037.8083,-2540.6331,23577.7348
53616.5982,25888.9943,52141.9644,39587.1699,34659.0132,36933.9287,5057.3498,49319.7441,44190.4664,55212.9149,-2029.9405,-2527.2667,23582.0264
53632.5574,25895.2081,52145.1384,39601.6985,34683.3318,36937.505,5056.8134,49340.8442,44202.9834,55216.2677,-2019.5246,-2514.8392,23586.3626
53639.1735,25899.3208,52147.91,39611.9803,34693.3007,36946.3116,5061.999,49351.573,44205.0844,55213.9878,-2013.6237,-2509.3853,23588.4637
53639.6205,25898.6056,52152.4251,39610.0134,34686.1482,36947.0716,5067.0952,49345.6721,44198.6918,55213.0044,-2016.3953,-2517.8343,23588.8213
53623.6614,25896.7727,52152.1568,39603.442,34669.3844,36948.9044,5067.721,49333.7363,44192.1204,55213.7643,-2029.2699,-2524.4951,23588.6872
53621.7839,25896.9516,52153.4532,39607.1076,34670.5914,36952.9277,5067.274,49341.1571,44200.48,55213.809,-2025.2019,-2521.6788,23589.4918
53647.3095,25905.0429,52161.3657,39624.6314,34704.566,36958.3368,5073.1301,49368.7391,44220.9542,55220.1569,-2006.0241,-2506.3902,23596.555
53658.2172,25913.0448,52167.4454,39630.4876,34713.0597,36963.0307,5077.377,49374.4165,44227.6597,55222.6156,-2003.9231,-2498.88,23598.2537
53639.6205,25912.7766,52165.5232,39615.4672,34695.7147,36954.2688,5075.2312,49353.9423,44216.9309,55218.9052,-2017.5576,-2511.7993,23591.9505
53624.8684,25909.6473,52165.6126,39604.5595,34670.0549,36950.8266,5074.6948,49333.4681,44207.3196,55216.2677,-2027.6159,-2521.2318,23590.4753
53639.5311,25910.0944,52169.2336,39619.0435,34679.9791,36958.3815,5073.9795,49339.9501,44214.1145,55218.8605,-2018.407,-2511.8887,23594.5433
53660.5865,25908.9321,52168.2501,39624.2738,34698.8887,36956.4146,5073.0854,49357.608,44221.1777,55226.2813,-2007.1417,-2503.5739,23597.0467
53656.7867,25907.5016,52162.6621,39621.8598,34701.7497,36950.6031,5071.1185,49363.5535,44223.5023,55225.0743,-2010.3157,-2505.5856,23591.7717
53641.1405,25905.937,52160.2929,39613.0085,34687.0869,36944.2999,5068.4363,49343.7499,44217.7802,55221.3192,-2020.2398,-2513.051,23590.52
53627.2377,25900.6619,52159.9352,39605.4983,34669.5185,36942.0648,5065.0388,49322.8287,44209.7783,55213.9878,-2030.5216,-2521.7682,23588.4637
53629.1599,25891.8554,52155.9119,39604.7384,34667.0598,36942.4671,5062.446,49323.7674,44205.0397,55207.4164,-2023.5926,-2520.5612,23587.5249
53648.1142,25899.902,52154.4814,39615.9142,34692.4067,36952.1677,5066.067,49348.0861,44219.9707,55214.6584,-2002.9843,-2507.5972,23590.6541
53657.0549,25900.9749,52157.6107,39626.9113,34702.7332,36959.0968,5072.1467,49364.9393,44227.3021,55222.7497,-1993.2389,-2499.9082,23595.795
53645.432,25892.0789,52155.4202,39622.6197,34684.2259,36951.8101,5069.1962,49353.6741,44219.7025,55216.3571,-2006.8288,-2509.0724,23590.6541
53629.5176,25892.5706,52158.3259,39611.8909,34659.9072,36946.1328,5066.6034,49339.4136,44210.0912,55213.2726,-2024.2184,-2520.2036,23587.0332
53639.6205,25897.7562,52165.4338,39613.6343,34667.9091,36951.3631,5068.6598,49339.1901,44213.3099,55219.5758,-2019.9269,-2512.8722,23592.7552
53667.1132,25903.2547,52164.2268,39620.7869,34698.4416,36955.6099,5068.6151,49364.8499,44224.6646,55220.0228,-2004.7724,-2502.9033,23595.7056
53668.0073,25898.4268,52157.9236,39621.5022,34707.8294,36954.6711,5068.4363,49368.8732,44230.3419,55221.3639,-2001.4197,-2502.1434,23598.2984
53653.0316,25893.9117,52153.9003,39611.4886,34687.7128,36948.5021,5066.514,49358.4573,44226.3186,55217.877,-2011.7462,-2512.8275,23595.9738
53638.4583,25890.6037,52154.1238,39603.0843,34666.7022,36944.7917,5063.206,49341.6041,44216.3944,55213.0938,-2029.9405,-2528.742,23590.7435
53640.3805,25890.7378,52154.3473,39606.3924,34672.2007,36952.5254,5062.3119,49350.0978,44217.3332,55213.4514,-2025.6042,-2525.7468,23591.8611
53661.4805,25898.1586,52156.7166,39617.3894,34685.8799,36959.812,5063.2507,49377.1434,44227.1233,55216.4465,-2009.3322,-2513.3193,23595.3033
53669.706,25903.3889,52160.8293,39630.7111,34703.0461,36967.814,5068.3022,49389.1686,44233.0241,55218.6817,-2000.7491,-2505.0491,23598.4772
53655.0879,25906.3393,52161.321,39621.9939,34692.8537,36963.1648,5068.481,49374.2824,44224.0834,55215.5972,-2009.958,-2511.5758,23595.9291
53641.0064,25908.0827,52166.149,39613.4108,34675.777,36960.0803,5069.5539,49364.984,44217.4673,55212.9596,-2019.9716,-2521.5447,23595.2586
53644.0909,25915.5482,52169.5912,39616.3613,34688.2939,36964.0142,5076.7511,49373.1648,44235.1699,55221.8556,-2012.3273,-2510.8159,23602.0088
53657.7255,25918.9904,52169.01,39629.9064,34707.9188,36968.708,5077.824,49394.3095,44249.922,55224.8508,-1997.9775,-2493.8285,23603.5287
53668.2755,25923.1478,52169.6806,39632.7227,34712.6126,36970.8985,5074.9183,49406.4689,44252.336,55227.4436,-1995.5188,-2489.0453,23604.0652
53661.0782,25914.8777,52166.1043,39627.9842,34696.117,36969.2892,5072.8172,49395.7847,44241.7413,55226.5495,-2002.2243,-2496.1978,23604.6463
53643.6439,25901.6901,52162.1704,39611.7121,34668.4903,36959.0968,5065.9776,49369.5438,44230.2972,55221.7215,-2018.0047,-2511.6652,23597.762
53639.7099,25896.5492,52158.8624,39610.1922,34669.9208,36959.3203,5062.4013,49375.847,44225.961,55216.3571,-2022.5644,-2514.9733,23594.8563
53659.1113,25902.5842,52157.9236,39618.5517,34689.7244,36962.5837,5062.8483,49393.9072,44244.0212,55225.0296,-2006.6947,-2502.6351,23599.1478
53654.9538,25896.9069,52151.7098,39624.0056,34695.8935,36952.6148,5056.7687,49394.1307,44247.7763,55225.119,-2000.9726,-2498.7906,23601.2489
53639.8441,25888.8155,52145.8536,39612.7403,34678.5486,36946.2669,5052.79,49371.6896,44233.5606,55214.3455,-2013.4002,-2510.8159,23597.3597
53626.7906,25886.0439,52145.9877,39601.0727,34654.1405,36955.5205,5052.8795,49350.9024,44219.3002,55207.9529,-2022.922,-2520.7847,23597.4044
53636.2231,25888.5473,52148.4911,39610.818,34662.3659,36961.7343,5055.4276,49356.3563,44226.0951,55214.1219,-2019.5246,-2516.7614,23600.2654
53655.3115,25896.7727,52152.2015,39627.2242,34688.9198,36963.0754,5060.479,49383.6254,44246.3458,55222.7497,-2000.3915,-2500.1317,23604.4675
53655.2668,25894.6717,52148.0888,39626.6431,34695.0889,36958.5603,5059.6744,49389.7051,44252.6937,55222.8838,-1998.5586,-2497.6283,23601.383
53641.0958,25888.7261,52149.877,39607.957,34670.1443,36952.7489,5056.3216,49380.4067,44246.1669,55218.9946,-2014.5178,-2509.0277,23593.5152
53631.708,25887.2509,52157.0295,39606.1242,34652.4864,36953.8218,5061.0602,49371.6896,44238.1203,55221.2745,-2024.442,-2518.7731,23591.1012
53641.7663,25888.592,52156.8507,39609.6557,34666.4786,36958.4262,5064.1894,49375.847,44239.1485,55221.5874,-2020.5528,-2519.086,23591.4588
53655.8479,25895.3422,52155.9566,39618.2388,34681.499,36965.3553,5066.9163,49401.8644,44251.442,55224.8508,-2005.5771,-2504.2892,23597.4938
53657.2337,25894.8058,52148.1335,39615.2437,34680.0685,36962.0025,5062.4907,49408.704,44248.4468,55224.9402,-2004.2807,-2503.3951,23594.4539
53638.6818,25885.731,52147.9994,39606.303,34666.568,36955.0735,5062.2225,49389.3921,44235.7957,55218.19,-2015.9483,-2515.0627,23590.073
53619.8616,25880.0089,52153.4979,39604.4254,34655.9286,36953.4642,5062.4907,49374.5059,44230.7889,55215.016,-2024.5761,-2520.4271,23589.8048
53628.3106,25877.9079,52152.0227,39603.7549,34659.7731,36951.7207,5059.6744,49375.847,44232.89,55215.016,-2022.475,-2516.7614,23590.52
53647.4884,25890.5143,52157.2977,39611.578,34684.3153,36954.3135,5062.4013,49398.0646,44250.235,55227.6224,-2004.5489,-2504.5127,23595.348
53658.6195,25900.349,52162.6621,39616.0483,34695.3124,36955.0735,5065.6199,49413.6661,44258.9074,55231.8692,-2000.3021,-2500.5341,23596.8232
53653.2551,25898.3374,52165.5679,39608.8064,34679.7109,36949.0385,5066.8269,49401.5068,44255.2418,55231.6457,-2008.0358,-2506.5243,23595.5268
53633.9432,25888.0109,52167.4454,39602.5032,34654.4534,36949.8432,5064.5024,49386.3076,44244.7364,55225.3872,-2022.1174,-2516.3144,23595.1692
53640.5593,25892.3918,52168.8759,39612.0697,34661.293,36951.2737,5065.3964,49393.6837,44243.44,55230.841,-2018.2729,-2513.051,23595.3033
53657.9043,25897.9797,52164.495,39618.1941,34681.1414,36954.537,5063.1613,49405.3513,44251.8443,55226.8624,-2004.3254,-2504.6915,23598.4325
53655.3562,25895.7893,52161.4552,39611.578,34686.4164,36949.8432,5058.9591,49409.1064,44256.4934,55233.2997,-2007.2311,-2505.5856,23599.0584
53641.4534,25889.2626,52158.1918,39604.9172,34670.189,36940.7237,5055.2934,49393.2813,44251.9337,55230.5281,-2017.8258,-2514.8392,23597.002
53618.2076,25881.4842,52155.3755,39597.0047,34645.2892,36933.7499,5049.3926,49369.9908,44235.7063,55223.2862,-2030.4322,-2529.4125,23591.5929
53611.9044,25876.8797,52153.7662,39596.0212,34644.5292,36934.1075,5049.2585,49376.0705,44234.544,55223.152,-2029.1805,-2526.1492,23594.0069
53631.3504,25885.8651,52151.3522,39603.2184,34667.7303,36939.919,5053.997,49405.7536,44252.3807,55228.5165,-2016.0824,-2510.3688,23600.4442
53643.465,25890.6037,52151.0839,39613.7238,34683.913,36946.1328,5060.0767,49426.0043,44264.406,55237.8148,-2008.3487,-2502.5904,23604.7804
53632.9597,25883.0041,52149.7428,39610.371,34670.3678,36945.3728,5060.6132,49426.2725,44247.9104,55232.0927,-2017.7364,-2512.9616,23598.8796
53619.951,25879.0702,52151.9333,39596.8258,34651.4136,36942.2436,5058.7803,49407.5418,44237.8968,55225.5213,-2031.7733,-2523.8693,23592.7552
53630.0987,25881.7524,52156.9401,39600.4915,34656.018,36947.161,5062.5801,49404.5466,44240.9366,55225.3425,-2023.7267,-2514.6604,23596.6444
53646.192,25890.9613,52157.6107,39613.7238,34679.3532,36958.8286,5065.0388,49429.3571,44248.0892,55231.2881,-2006.7841,-2499.4165,23599.416
53653.9704,25899.902,52156.4931,39621.9492,34687.4893,36962.3154,5063.9212,49434.185,44250.8161,55227.6671,-2001.0173,-2498.2095,23597.1361
53642.1686,25898.9632,52157.2083,39613.8132,34672.9606,36952.5254,5061.6413,49414.292,44246.1222,55224.0014,-2010.9862,-2508.8042,23591.1906
53628.7576,25887.9662,52160.2035,39604.4254,34656.1968,36949.8879,5058.3333,49382.5525,44235.7957,55219.8887,-2021.6703,-2518.639,23587.6143
53633.4962,25884.0322,52158.5941,39602.8608,34652.6653,36944.6576,5058.4227,49380.2726,44231.7724,55214.8372,-2022.2068,-2517.7449,23587.0779
53654.1492,25890.2013,52155.4649,39616.2719,34671.4407,36943.6741,5057.7968,49399.2716,44241.6072,55217.877,-2010.4498,-2506.2561,23592.8893
53666.3532,25896.1916,52154.1238,39626.2854,34680.6943,36947.6527,5059.4509,49409.1064,44245.4517,55220.6933,-2003.6995,-2503.4398,23595.2139
53653.0763,25890.0225,52149.6087,39616.7189,34657.7615,36943.4059,5053.3712,49395.1589,44232.9347,55215.6866,-2017.96,-2516.9402,23589.626
53637.0724,25880.2772,52150.9051,39608.3146,34640.9976,36942.6459,5049.3032,49379.6468,44219.7919,55208.7575,-2032.7121,-2524.6739,23587.8825
53632.5127,25879.1149,52149.117,39611.0415,34645.6915,36947.5633,5047.4703,49380.2726,44222.3847,55203.9742,-2028.2418,-2523.2434,23589.8495
53647.9354,25884.524,52149.0276,39618.1494,34669.742,36948.5021,5045.5034,49397.26,44237.7627,55212.1997,-2014.2943,-2514.3027,23591.5035
53651.914,25885.3734,52145.0937,39623.8267,34671.1278,36951.7207,5042.9553,49403.5184,44238.7015,55214.3455,-2015.546,-2516.672,23586.5414
53641.6322,25883.0935,52145.2278,39618.507,34654.3193,36953.1512,5040.8542,49394.4436,44227.7938,55210.501,-2023.0114,-2521.3659,23585.245
53621.2921,25873.8846,52141.2045,39603.442,34628.2572,36946.0434,5036.4733,49371.5107,44212.9076,55202.9014,-2040.267,-2532.1394,23579.3889
53614.676,25866.4191,52138.6564,39597.1835,34626.1114,36940.9025,5032.45,49375.1317,44218.719,55204.0637,-2041.0269,-2533.1229,23579.1653
53634.0326,25868.386,52139.014,39613.0532,34656.8227,36951.676,5036.2498,49397.7517,44231.0125,55209.5175,-2020.1951,-2522.4388,23584.798
53643.6439,25871.6047,52138.2987,39616.1377,34666.121,36956.9957,5037.9485,49402.7585,44228.7773,55206.2988,-2016.0824,-2519.086,23586.1391
53631.5292,25866.3744,52141.5621,39608.9405,34647.6585,36951.7654,5038.4402,49390.6885,44223.9493,55203.3931,-2023.7267,-2525.4786,23582.9651
53612.9326,25866.2403,52144.1102,39600.0892,34628.6148,36945.9987,5042.1953,49369.4544,44216.7073,55201.0238,-2029.3146,-2530.8877,23583.1439
53615.3913,25874.1081,52146.703,39599.3739,34639.2095,36944.8811,5048.722,49381.3902,44210.27,55202.7225,-2024.6655,-2527.8479,23587.212
53633.8091,25883.8981,52151.2181,39606.6606,34664.1093,36953.1512,5056.2769,49401.0597,44216.8415,55204.6001,-2010.6286,-2512.0676,23597.002
53637.4748,25889.1732,52152.8274,39605.8112,34671.9325,36950.6925,5062.7142,49410.4028,44217.9143,55209.6069,-2007.4546,-2501.5622,23600.8912
53618.9228,25885.6416,52152.9168,39597.2729,34661.3824,36940.6343,5061.9543,49394.846,44208.8395,55207.7293,-2021.9386,-2510.4582,23596.8679
53598.5827,25879.6066,52151.531,39586.4546,34640.9082,36934.4205,5060.8814,49367.9792,44195.0262,55202.5884,-2035.5731,-2520.0248,23592.4423
53588.7033,25876.2091,52141.9644,39581.9396,34647.1667,36926.0162,5054.9805,49357.8762,44180.6316,55191.6361,-2031.7286,-2524.0481,23588.6425
53599.4321,25875.3151,52135.5718,39586.3205,34665.5399,36927.4467,5050.1078,49354.2552,44179.3352,55193.6477,-2020.1057,-2516.4485,23586.005
53595.2747,25876.8797,52130.7886,39585.1582,34670.0996,36924.6751,5048.8114,49346.8344,44171.9145,55191.7702,-2015.3224,-2517.1191,23584.9321
53578.8238,25869.1013,52125.0218,39580.2855,34652.4864,36917.6567,5045.3246,49317.0172,44151.3509,55181.5331,-2026.3195,-2528.6078,23579.8806
53554.371,25859.5794,52120.9985,39565.891,34627.3631,36908.3583,5041.3907,49279.4663,44137.2693,55174.5147,-2044.2456,-2544.0305,23571.9681
53555.1757,25857.4337,52119.0763,39572.0154,34628.1677,36910.9511,5045.6375,49269.7656,44131.1896,55172.7712,-2040.4458,-2541.3483,23571.7446
53572.4312,25861.904,52116.7964,39582.8784,34647.122,36908.9842,5047.3362,49288.4517,44139.6385,55177.5992,-2024.7549,-2528.8314,23572.2363
53570.3748,25863.9157,52118.0481,39585.2923,34648.329,36910.0571,5051.896,49288.7646,44137.8951,55180.5943,-2018.6752,-2526.9091,23575.2314
53543.9998,25857.4784,52114.4718,39570.0932,34628.436,36909.163,5050.1078,49262.6578,44122.7853,55171.296,-2029.9852,-2536.9674,23570.2693
53540.647,25856.0479,52122.2055,39569.9143,34616.5001,36908.0454,5054.6676,49239.4567,44120.9078,55178.3144,-2041.5634,-2541.4377,23573.9797
53545.0727,25864.5862,52129.8945,39574.8764,34624.7703,36911.8452,5058.3333,49247.548,44121.8466,55180.8178,-2033.2038,-2535.4922,23581.3558
53562.2835,25874.1081,52134.0072,39582.4313,34645.1551,36919.3107,5064.2788,49263.4177,44132.1731,55185.2435,-2018.8987,-2520.4271,23588.106
53561.7471,25875.4492,52132.9343,39584.7559,34650.0725,36919.3554,5067.8998,49260.1991,44142.9466,55183.9471,-2014.6519,-2513.4087,23592.0399
53553.611,25872.1411,52130.4309,39573.4459,34629.2406,36911.7111,5064.6365,49245.9387,44128.8203,55178.8062,-2027.6159,-2521.5447,23587.3014
53542.8375,25861.904,52127.0782,39567.2768,34600.4516,36905.4079,5060.8814,49217.3731,44111.2071,55168.0773,-2039.2388,-2532.3182,23581.7581
53537.1155,25858.9983,52126.4523,39570.8531,34601.748,36908.2242,5057.6627,49213.4392,44112.9059,55168.8373,-2024.7996,-2527.982,23584.4851
53554.7733,25862.0381,52120.4621,39584.9794,34618.6459,36909.61,5054.8911,49229.5325,44127.7921,55166.0657,-2007.9911,-2520.74,23588.2401
53556.6956,25858.8642,52117.1987,39591.9979,34625.262,36913.1863,5056.0981,49227.8337,44130.519,55165.7975,-2002.8055,-2519.8907,23590.52
53544.5362,25852.9186,52112.326,39590.1203,34613.5944,36909.0289,5057.1263,49210.4441,44115.2751,55159.7625,-2010.9862,-2522.4835,23588.5084
53527.1019,25843.7991,52111.7002,39574.5635,34591.0192,36899.2835,5058.3333,49183.8008,44097.0361,55152.0288,-2029.4487,-2535.4475,23581.0429
53539.1718,25842.458,52112.4154,39575.0552,34596.8306,36899.6412,5056.1875,49184.1584,44088.9001,55150.7324,-2024.9337,-2530.2172,23583.5463
53546.9055,25852.1587,52112.9072,39584.443,34621.641,36900.8034,5057.9756,49196.3625,44101.9535,55159.3155,-2007.6782,-2517.7449,23585.0662
53547.3078,25844.1567,52108.5262,39579.9279,34624.3232,36897.853,5053.4606,49196.7648,44105.351,55159.986,-2006.1582,-2522.8411,23581.5793
53541.5411,25836.5571,52108.8392,39573.5353,34613.6391,36894.1873,5053.0136,49177.6317,44096.1421,55153.4146,-2018.1835,-2530.7983,23580.6853
53527.0125,25832.6232,52109.1074,39561.823,34587.4429,36884.442,5051.6278,49161.3597,44089.66,55149.3466,-2033.6062,-2538.8449,23576.2596
53538.3672,25835.8419,52112.2366,39571.2107,34590.7956,36890.3875,5052.7453,49172.7591,44096.0526,55153.3252,-2028.3312,-2533.9276,23579.6124
53567.9162,25847.8671,52114.6059,39583.9065,34611.8063,36899.1941,5055.0252,49194.1273,44108.6143,55161.2377,-2012.1485,-2520.0695,23584.4851
53574.264,25848.7612,52112.8178,39581.8502,34612.745,36899.2835,5053.4159,49195.8261,44113.487,55160.7907,-2010.0474,-2516.672,23580.9982
53556.1591,25842.7709,52110.2697,39577.1563,34598.887,36889.3594,5050.2419,49177.2294,44106.8709,55156.8121,-2023.8161,-2528.1161,23576.4384
53541.3176,25833.6067,52109.6885,39565.5334,34574.3448,36880.1504,5047.7833,49152.8213,44091.6717,55153.1464,-2039.82,-2543.36,23572.0128
53547.3526,25827.2141,52107.5428,39558.6491,34582.4361,36879.4352,5045.1458,49154.4306,44095.4715,55151.7159,-2037.6742,-2548.635,23569.3306
53573.2806,25836.0654,52108.3027,39572.1495,34610.8228,36890.924,5046.8892,49187.4218,44110.2237,55158.3767,-2023.9949,-2529.9489,23575.9914
53578.2427,25837.943,52106.604,39576.0834,34617.3942,36898.2553,5046.2633,49194.7979,44110.8495,55163.3388,-2018.7646,-2517.5661,23580.6853
53565.2339,25836.736,52106.604,39574.0718,34606.0395,36894.8132,5045.5481,49181.0292,44101.1041,55158.0638,-2029.0464,-2523.6905,23577.9136
53549.3195,25834.1879,52105.9781,39564.5946,34587.1747,36897.0037,5043.9835,49164.4442,44088.2742,55146.5303,-2038.9259,-2533.6593,23576.5278
53554.6392,25833.2938,52101.1502,39562.6724,34590.885,36898.3001,5039.9154,49168.9146,44095.4715,55157.1697,-2031.9521,-2529.5019,23583.8145
53574.1746,25828.9576,52105.3076,39569.2438,34610.0628,36899.7753,5042.0165,49193.5462,44113.7999,55170.536,-2015.233,-2516.8508,23587.0779
53573.1465,25825.7836,52104.9947,39575.6811,34617.8412,36894.8579,5045.6375,49196.2731,44118.7173,55171.0278,-2013.2661,-2513.4981,23584.9321
53548.5148,25810.9868,52095.3387,39569.1991,34599.4234,36883.4138,5039.2896,49174.4578,44104.0546,55158.8684,-2026.8559,-2528.1608,23576.7514
53532.1981,25799.0062,52087.2027,39557.4421,34568.8015,36872.4614,5029.4101,49144.9088,44088.6766,55146.7538,-2045.1844,-2545.9081,23565.0837
53537.026,25803.3425,52087.6944,39560.7054,34571.4837,36880.5081,5030.4383,49146.1158,44097.5279,55149.6148,-2039.9094,-2539.9625,23565.5755
53558.5731,25815.5912,52087.6944,39573.8035,34599.334,36894.1426,5035.758,49173.2955,44109.7319,55155.6051,-2020.9551,-2524.8975,23572.3257
53562.3282,25821.9838,52085.4145,39577.4692,34608.4535,36894.5897,5033.8358,49189.4335,44118.4938,55158.9131,-2020.8657,-2521.8576,23574.2033
53558.1708,25826.0518,52088.8567,39577.9163,34601.6139,36897.6295,5036.5627,49179.5093,44114.8281,55162.6235,-2027.6159,-2525.3892,23577.2431
53548.0678,25823.5037,52090.466,39574.34,34585.5653,36897.6295,5037.725,49167.2605,44107.0944,55163.2047,-2034.7238,-2538.7555,23576.349
53544.715,25824.8001,52090.5107,39565.1758,34586.7723,36891.818,5031.3324,49180.2692,44109.866,55160.9248,-2040.8034,-2541.2142,23570.9399
53564.6081,25846.3025,52097.0374,39582.2078,34618.0201,36904.5585,5044.2517,49215.8085,44132.8883,55171.6089,-2019.8822,-2517.7896,23580.5511
53583.16,25861.6805,52106.6934,39598.1669,34636.0356,36914.7062,5055.8746,49235.6122,44142.6337,55177.6439,-2012.5955,-2509.6089,23588.6425
53582.9812,25861.7252,52110.1356,39596.2,34619.1823,36915.645,5057.6627,49231.3653,44140.3985,55177.5992,-2018.6305,-2514.2133,23586.4967
53567.4691,25856.8525,52113.4436,39582.5654,34603.2232,36912.2028,5052.2983,49216.9261,44133.2906,55172.5477,-2030.164,-2527.1326,23580.1041
53570.7772,25857.8807,52111.0743,39584.0853,34613.6391,36916.7179,5048.3197,49221.5753,44137.3587,55167.4962,-2024.5761,-2527.5797,23580.4617
53596.0346,25868.6095,52112.0578,39594.7248,34631.4311,36929.369,5047.0233,49251.9289,44149.6521,55165.7975,-2009.6898,-2516.3144,23580.3723
53604.1707,25872.6329,52115.0529,39598.0775,34645.8703,36936.5215,5048.4985,49272.2243,44157.7882,55172.1007,-2003.5654,-2513.4981,23582.3393
53592.5478,25870.9788,52116.6176,39597.2729,34639.3436,36936.8345,5049.6161,49253.4935,44162.5267,55175.2299,-2010.9415,-2520.8741,23583.0098
53573.3253,25860.6076,52114.8294,39594.5013,34620.0764,36935.4486,5049.5714,49238.9202,44145.1371,55166.1998,-2026.3642,-2532.0053,23579.5677
53573.2359,25860.7417,52115.6788,39594.6354,34622.5351,36936.7003,5049.482,49250.6325,44139.5938,55167.4962,-2024.442,-2530.5748,23579.0312
53597.6887,25869.5036,52117.6457,39602.7714,34649.6701,36943.54,5048.9455,49271.3302,44149.518,55174.2017,-2012.2826,-2514.0792,23585.245
53610.9209,25871.6047,52116.9752,39606.6606,34657.6273,36946.6692,5049.5267,49281.2544,44156.0,55176.0793,-2012.8638,-2510.1453,23587.0779
53601.5779,25873.5269,52121.6244,39606.5265,34649.8489,36946.2222,5051.1807,49271.0173,44157.6093,55175.0958,-2020.1951,-2517.7449,23587.3014
53583.8753,25870.3977,52125.4241,39592.4002,34633.1745,36940.4554,5053.1924,49252.4207,44150.0098,55171.8324,-2033.3827,-2525.3892,23583.1439
53594.6041,25874.6445,52125.2006,39593.2496,34635.4991,36936.2086,5054.0864,49259.7967,44156.1341,55172.3242,-2031.6392,-2521.2318,23582.6969
53621.7839,25882.6017,52130.6992,39609.0299,34661.1589,36941.0813,5061.239,49291.8938,44171.1992,55187.5234,-2009.4216,-2503.708,23592.2188
53628.4894,25892.7047,52135.393,39620.1611,34672.8265,36946.6692,5069.7327,49312.5021,44176.5636,55192.7537,-1995.8764,-2494.7673,23599.1925
53614.1843,25895.5657,52138.9246,39606.4818,34659.9519,36942.4671,5069.1962,49304.8131,44177.1001,55188.8198,-2008.751,-2502.3669,23596.4656
53601.9802,25890.6037,52137.4047,39594.5907,34652.0841,36931.9171,5068.5257,49286.5741,44169.277,55186.8975,-2024.7549,-2512.9616,23586.8543
53603.7683,25887.832,52131.0121,39591.3273,34647.8373,36930.263,5065.9776,49286.8423,44167.4441,55187.6128,-2024.5314,-2514.9733,23583.1439
53629.8752,25895.074,52129.2686,39602.9949,34669.295,36938.6226,5070.4479,49306.7354,44180.0505,55190.8761,-2006.6947,-2502.1434,23587.7037
53635.4184,25905.6687,52130.2074,39605.4536,34676.4475,36940.1872,5074.3371,49316.3913,44187.0689,55194.4077,-2001.5538,-2500.7129,23589.2236
53619.1016,25904.8641,52124.1724,39590.2097,34652.7547,36936.6109,5069.2856,49294.129,44176.6083,55190.9655,-2021.6256,-2516.1803,23583.2334
53594.6935,25892.8388,52124.9771,39581.582,34633.711,36934.3758,5067.3187,49271.1961,44164.4937,55188.9092,-2042.5916,-2528.3396,23581.1323
53597.8675,25896.5939,52129.1345,39585.4264,34644.3951,36932.4982,5066.7375,49280.7627,44168.1594,55190.2056,-2034.8579,-2523.154,23586.8543
53618.6099,25905.624,52134.0072,39600.268,34672.7371,36940.5448,5068.4363,49311.0716,44189.8853,55202.9014,-2011.1203,-2504.915,23593.5599
53627.2377,25907.2781,52135.7507,39603.8443,34678.4592,36939.6061,5068.168,49315.7655,44196.6355,55205.4942,-2006.1582,-2504.915,23593.8728
53619.951,25908.7086,52140.2657,39599.5975,34666.8363,36937.1027,5070.7161,49303.8297,44195.5626,55203.3931,-2014.2496,-2509.3853,23593.5152
53613.6478,25908.6639,52144.7808,39595.6188,34654.5428,36942.8247,5079.3886,49296.8112,44187.963,55203.9295,-2023.1456,-2519.086,23594.0963
53615.6148,25906.7863,52147.1053,39595.1271,34664.467,36944.9705,5085.7365,49305.6625,44183.135,55202.1414,-2023.235,-2513.9004,23592.9787
53641.2299,25910.7202,52149.877,39613.232,34694.3289,36953.1959,5089.8045,49325.645,44194.0874,55203.0355,-2008.3487,-2495.6167,23598.7008
53638.9053,25909.2003,52147.6418,39614.3496,34696.3853,36950.6031,5085.4236,49325.6003,44198.1554,55202.0073,-2004.1913,-2494.8567,23597.8067
53630.3669,25912.2401,52150.8604,39611.7121,34678.2357,36947.2504,5085.4683,49315.0055,44190.0194,55197.1346,-2009.7345,-2501.2046,23590.6541
53614.9889,25912.1507,52148.6253,39602.4138,34653.2464,36946.7139,5082.6967,49291.4915,44173.5238,55189.5797,-2023.5926,-2513.9898,23582.9651
53613.2902,25915.0565,52148.3123,39604.7384,34662.9024,36950.7372,5083.5013,49294.6655,44182.1069,55186.7187,-2018.1388,-2511.9781,23585.1556
53635.5972,25926.0088,52154.3473,39618.8647,34697.637,36960.2144,5089.9833,49328.8636,44196.4567,55197.6711,-1998.3351,-2499.193,23594.1857
53644.1356,25922.2984,52154.0791,39622.9774,34710.4222,36965.0424,5089.581,49329.7577,44202.8493,55192.7537,-1989.7074,-2494.2309,23594.8563
53628.8917,25912.0613,52153.632,39617.5683,34691.155,36962.986,5090.0728,49308.8365,44192.6569,55189.088,-2000.9726,-2498.2989,23591.727
53617.4029,25907.0545,52157.4765,39612.2485,34666.7022,36960.6167,5093.8725,49294.7549,44186.8454,55194.363,-2012.8638,-2505.9432,23594.6327
53618.9675,25910.3626,52156.3143,39612.1144,34675.777,36966.8305,5092.3526,49309.1047,44196.6802,55196.4641,-2011.2544,-2501.8305,23596.8679
53633.0491,25919.348,52153.4085,39621.5022,34700.0062,36970.0491,5093.9173,49328.8636,44205.6209,55203.6166,-1993.373,-2485.2008,23602.0088
53631.1269,25915.5035,52155.5096,39619.7587,34705.2813,36963.4777,5091.8609,49333.6916,44206.2467,55209.5175,-1993.8648,-2482.8762,23604.7804
53619.0122,25908.3956,52158.7282,39611.2204,34686.5505,36954.8053,5090.6539,49319.61,44199.4071,55203.9295,-2006.65,-2495.1696,23604.8251
53601.8908,25897.4433,52155.4649,39598.8375,34657.3144,36950.1561,5086.3177,49294.1737,44190.9134,55199.9062,-2020.9998,-2510.95,23600.1313
53608.2387,25898.2033,52155.4649,39606.0795,34667.9538,36952.5254,5086.0494,49285.233,44193.9533,55200.8897,-2016.8424,-2505.8985,23599.416
53629.3387,25899.9914,52154.0344,39617.0765,34692.7643,36955.3864,5088.1505,49309.8199,44202.581,55207.8635,-2000.0339,-2493.0239,23604.1993
53634.3455,25899.1867,52150.9051,39616.2719,34699.1569,36947.9209,5085.6918,49326.1367,44202.3128,55211.2162,-1996.1447,-2492.9792,23602.0088
53626.433,25894.5376,52147.463,39605.6771,34682.3484,36941.7518,5082.4732,49311.0269,44188.4547,55201.605,-2012.4167,-2505.675,23596.4209
53614.8101,25893.2412,52152.9168,39597.6305,34665.4952,36947.161,5084.2166,49292.2515,44179.9611,55193.9607,-2028.5994,-2517.7002,23593.0681
53625.5836,25897.5774,52154.7943,39599.5975,34673.7206,36952.9724,5085.6918,49291.6703,44191.3158,55193.2901,-2024.0843,-2512.7828,23591.5929
53641.2746,25908.5745,52153.3191,39616.5848,34698.9781,36956.8616,5088.4187,49312.7704,44203.8774,55200.8897,-2000.4362,-2500.0423,23597.5385
53651.6011,25909.2003,52153.3638,39623.8714,34704.8789,36957.4428,5089.8939,49325.5556,44215.3662,55205.7177,-1992.7472,-2492.6215,23599.0137
53646.5049,25907.5016,52156.046,39613.0085,34689.9927,36958.3815,5090.2963,49315.542,44210.7171,55202.499,-2005.0853,-2501.5622,23597.0914
53627.4612,25899.0973,52156.4037,39602.5032,34670.0996,36953.8218,5085.1554,49306.646,44201.2846,55194.2289,-2022.3856,-2513.051,23593.694
53633.9432,25900.7066,52159.7564,39605.9006,34680.739,36958.4709,5086.0047,49318.403,44201.7317,55201.605,-2016.5294,-2509.4301,23598.7902
53656.2949,25910.1838,52164.8526,39613.3661,34700.8556,36960.3038,5088.6422,49342.9452,44218.272,55217.6088,-2004.1019,-2497.4048,23604.0205
53657.7702,25907.8145,52163.5562,39618.8647,34707.4717,36958.5156,5085.8259,49341.6041,44215.2768,55215.8654,-2003.2972,-2498.7459,23599.1478
53638.5924,25901.4666,52157.0295,39616.1377,34688.3833,36947.3398,5082.9649,49325.9132,44203.6986,55206.567,-2017.4235,-2509.2512,23591.28
53626.1201,25902.1819,52152.8274,39603.2631,34665.8528,36946.1775,5080.2827,49307.9871,44199.8094,55196.6876,-2028.3759,-2520.5612,23590.1624
53634.6138,25907.6804,52155.6884,39605.0513,34675.8664,36955.0735,5085.4236,49311.5634,44202.4916,55196.4641,-2021.3127,-2511.7099,23592.0846
53656.2949,25912.2849,52158.46,39609.2087,34695.5359,36959.0521,5090.2516,49336.2397,44216.1709,55205.6283,-2010.6733,-2505.2279,23596.108
53664.2969,25920.8232,52159.3988,39620.3846,34705.5942,36964.1483,5092.5314,49350.4107,44224.3069,55208.2658,-2002.5373,-2497.3601,23598.8349
53654.1939,25913.626,52158.3259,39615.6013,34695.8488,36963.8801,5090.4751,49335.0327,44214.7851,55204.9577,-2008.7957,-2503.261,23597.6726
53632.6468,25896.5939,52155.6884,39594.4118,34670.7255,36947.5633,5081.0426,49320.2806,44201.0611,55199.1016,-2028.957,-2519.533,23588.6872
53637.4748,25900.349,52155.5096,39601.0727,34676.4028,36947.2057,5080.238,49330.0259,44208.3478,55200.1297,-2024.889,-2512.604,23589.4918
53649.6788,25914.073,52154.839,39622.7092,34700.6321,36958.7839,5085.2895,49361.7207,44226.1845,55209.5622,-2003.7889,-2499.4612,23599.6842
53651.7799,25910.3179,52152.9168,39624.0503,34699.6933,36968.708,5085.513,49366.3251,44229.8055,55211.6632,-2002.3584,-2497.986,23600.4442
53637.0277,25905.5793,52151.8886,39614.8413,34677.4757,36962.0919,5085.8706,49351.8859,44222.5635,55209.741,-2014.1602,-2508.0889,23593.8728
53621.8286,25896.8174,52150.3687,39603.5314,34662.5894,36950.1114,5080.1486,49334.1386,44216.305,55203.0355,-2033.2038,-2523.914,23588.3743
53627.9529,25899.5444,52154.392,39606.4818,34669.295,36952.5254,5078.8969,49340.3971,44223.0552,55203.9742,-2027.7947,-2519.8907,23593.381
53646.9072,25909.5132,52154.9284,39619.2223,34693.7031,36956.7722,5077.9134,49368.3368,44235.0358,55207.6846,-2009.9133,-2504.5574,23592.5317
53648.4718,25910.4967,52157.1636,39622.6197,34707.3823,36955.6099,5079.3439,49381.2561,44239.2826,55210.4115,-2008.5722,-2499.64,23592.8446
53627.9976,25898.6503,52150.9945,39608.3593,34687.3999,36946.0881,5074.65,49360.2902,44228.6432,55201.2473,-2023.3244,-2512.3805,23586.3626
53607.7917,25890.6037,52149.564,39598.0775,34660.1754,36938.8014,5070.135,49340.8442,44209.8677,55191.8596,-2039.5517,-2527.7138,23581.2217
53617.4923,25893.2859,52154.392,39606.5265,34665.1375,36948.0997,5075.0077,49351.126,44215.4109,55203.1696,-2033.9638,-2520.4718,23586.2285
53643.018,25902.9418,52159.667,39627.9395,34694.5524,36964.1036,5081.4897,49371.3319,44236.8239,55212.5126,-2010.4498,-2500.3105,23596.555
53648.6953,25906.5628,52158.6388,39627.5818,34704.5213,36965.9364,5082.5179,49382.1949,44235.0358,55211.5291,-2003.5654,-2500.4447,23595.3033
53632.6468,25902.6736,52153.1403,39610.3263,34686.6399,36960.3485,5077.4664,49375.4894,44219.5237,55200.845,-2022.6091,-2512.6934,23586.8096
53616.0618,25895.4763,52151.3075,39603.442,34666.9257,36951.9442,5072.549,49352.8694,44211.5664,55191.7702,-2032.6674,-2524.5398,23580.9088
53620.0851,25897.3092,52156.8507,39611.6227,34672.9606,36960.4379,5079.3886,49359.1726,44217.3779,55197.0452,-2022.0727,-2513.9898,23586.0497
53641.4087,25904.8641,52161.7681,39615.7801,34694.0607,36968.6633,5084.8424,49386.1288,44233.9182,55210.0986,-2010.9415,-2498.0754,23591.8164
53650.9305,25905.8475,52162.2151,39621.2786,34702.6885,36971.9714,5085.1554,49394.8013,44247.1504,55212.5573,-2004.3254,-2492.398,23595.2139
53651.6458,25904.73,52162.4833,39622.128,34695.7147,36967.2775,5086.1835,49380.6303,44242.993,55204.6001,-2008.7957,-2499.7741,23594.4986
53625.3601,25896.7727,52166.7749,39613.6791,34674.3912,36960.125,5085.1107,49358.5914,44235.751,55199.1016,-2022.5197,-2510.4582,23593.2916
53631.8868,25893.5094,52167.0878,39612.3827,34670.1443,36960.0803,5080.4615,49361.3631,44231.8171,55205.8518,-2025.1125,-2505.1385,23597.002
53654.1045,25901.8242,52168.2501,39623.335,34701.5262,36968.9763,5085.0213,49384.1171,44247.7763,55212.2891,-2006.337,-2489.2688,23603.4393
53660.2288,25902.8971,52170.6194,39628.8782,34709.9751,36970.7197,5086.273,49401.1045,44256.1805,55216.223,-1993.686,-2482.1162,23606.1662
53652.9869,25901.8242,52171.7817,39627.4477,34694.0607,36967.5905,5087.4352,49389.258,44250.4138,55213.0044,-2001.375,-2491.951,23606.9709
53633.1832,25895.6552,52167.5795,39614.2602,34665.8975,36962.5837,5082.5626,49361.4972,44232.1748,55204.4213,-2020.3292,-2510.5029,23598.5667
53639.397,25895.2528,52166.5514,39626.1513,34677.1181,36970.0044,5084.0378,49371.466,44231.5936,55204.2872,-2014.9201,-2508.6701,23596.108
53659.7818,25901.0196,52166.909,39640.1882,34701.9732,36972.8655,5083.7249,49399.2269,44250.3691,55211.1268,-1994.7588,-2493.2921,23598.7902
53673.9975,25904.73,52166.4619,39638.0872,34710.5116,36972.9996,5081.2215,49403.2949,44251.9784,55210.2774,-1990.9143,-2491.191,23599.9972
53660.5418,25898.7397,52159.0859,39627.4924,34687.1316,36964.5506,5077.377,49389.2133,44236.0193,55194.9888,-2007.7229,-2507.7313,23591.2353
53639.2629,25892.5259,52159.2647,39616.3613,34661.3824,36960.7508,5076.2147,49364.7605,44227.5703,55193.4242,-2025.649,-2519.4436,23585.8709
53641.9451,25891.9895,52162.6621,39618.507,34669.8314,36960.4826,5078.3157,49366.7722,44229.0902,55202.7225,-2021.0892,-2513.1404,23591.5929
53664.6098,25902.8971,52164.048,39635.3602,34698.0393,36969.1104,5081.4897,49392.8343,44243.8424,55208.981,-1999.5868,-2492.398,23600.1313
53676.2774,25903.7912,52159.4435,39635.6285,34699.5592,36975.7712,5078.4498,49412.2356,44247.061,55208.087,-1996.6364,-2488.9112,23599.8631
53657.4572,25894.1799,52156.2696,39622.3068,34673.9441,36969.1551,5074.5159,49395.293,44237.3604,55201.3367,-2012.5508,-2503.1269,23593.3363
53636.7595,25888.3685,52156.7166,39610.8627,34652.2629,36962.7625,5071.0738,49374.5059,44224.8881,55198.431,-2024.7549,-2520.0248,23587.8378
53635.1055,25889.6202,52157.0295,39611.8909,34655.4369,36958.2921,5065.8882,49376.7411,44226.855,55198.5204,-2029.1805,-2517.9237,23587.2567
53656.6526,25901.6901,52160.9634,39629.6829,34676.1793,36968.0375,5076.9299,49408.9723,44247.9998,55208.3999,-2013.0426,-2500.2211,23594.4092
53665.9509,25905.6687,52159.4882,39636.2543,34690.6185,36971.6138,5081.0426,49420.5058,44255.0182,55212.0656,-2003.5654,-2492.6215,23599.5948
53655.3562,25901.9583,52157.5212,39633.8403,34685.2094,36973.983,5079.8804,49409.0617,44246.4352,55206.6565,-2012.7743,-2499.9529,23597.4491
53635.0161,25896.4598,52157.8789,39619.9822,34663.0365,36969.5127,5078.6734,49391.9849,44237.0921,55203.1696,-2026.096,-2514.9733,23593.2022
53636.089,25892.6153,52158.3706,39616.9424,34672.2901,36971.3008,5075.5441,49402.1773,44237.4945,55207.6399,-2022.4303,-2513.9451,23595.2139
53645.1638,25891.0954,52153.5873,39625.8831,34690.842,36970.7197,5071.8784,49419.7011,44247.9104,55209.8304,-2012.372,-2503.0822,23597.6279
53649.2765,25891.3189,52151.7545,39633.2592,34695.0889,36970.0491,5068.6151,49419.567,44251.4867,55210.4563,-2008.7957,-2497.1366,23596.2421
53633.4068,25890.8272,52155.599,39620.2058,34674.9723,36962.8072,5064.6365,49398.8693,44244.9152,55206.2988,-2020.3292,-2504.155,23589.9836
53615.883,25877.6844,52154.392,39608.2252,34649.8042,36953.2853,5062.6248,49372.2707,44239.5061,55195.5253,-2035.3049,-2514.6604,23583.9039
53634.2114,25881.8418,52155.2414,39618.4623,34659.1473,36962.0472,5066.514,49385.3688,44247.4186,55195.9723,-2030.3428,-2507.5078,23587.2567
53646.8625,25892.3471,52151.5757,39627.8054,34685.2094,36964.9082,5067.3187,49407.7653,44251.9337,55200.4427,-2019.1222,-2499.1482,23588.2849
53656.5185,25890.0672,52150.771,39627.7606,34691.8255,36964.9082,5069.3303,49406.2454,44246.3011,55195.2124,-2016.0824,-2502.5904,23585.7815
53665.0121,25892.3918,52157.4765,39629.0123,34689.5903,36972.8655,5075.3206,49402.4903,44246.5693,55200.7556,-2016.6636,-2504.5574,23588.2849
53649.4553,25888.6814,52155.9566,39626.2407,34669.4291,36968.7974,5078.584,49387.3805,44232.8453,55198.6545,-2026.9454,-2511.7099,23585.1556
53638.8159,25890.559,52158.1918,39624.2291,34669.742,36964.4612,5078.3604,49389.258,44229.0008,55202.1414,-2026.0513,-2507.2843,23585.3791
53657.7255,25900.2149,52166.7749,39637.1037,34697.8605,36971.3008,5084.5295,49415.499,44250.5926,55213.2279,-2008.1699,-2490.4311,23595.2139
53659.9159,25902.8077,52167.2219,39639.8306,34705.773,36972.9549,5080.1486,49415.186,44254.1242,55215.016,-2002.3137,-2488.6429,23595.2139
53653.1657,25902.6736,52166.909,39634.7344,34698.3075,36973.7148,5080.7297,49407.8994,44249.4303,55215.1054,-2009.6898,-2495.3485,23595.6162
53639.4417,25897.8903,52166.8643,39625.8384,34677.5651,36970.7197,5078.6734,49396.947,44238.3885,55208.087,-2023.5032,-2504.3339,23595.0351
53638.9947,25891.4083,52163.0645,39620.6528,34672.2007,36967.7693,5075.5441,49406.0218,44240.6237,55207.4164,-2024.0843,-2506.5243,23593.3363
53655.1774,25895.7893,52157.9683,39627.6712,34689.4115,36969.0657,5076.7511,49427.8818,44250.1456,55211.5738,-2014.2049,-2497.1813,23593.9175
53663.224,25898.7844,52157.6107,39636.299,34698.3522,36972.1055,5080.7297,49445.8526,44263.5119,55221.4086,-2007.857,-2486.8101,23599.9972
53651.6011,25895.521,52159.5329,39629.5488,34680.0238,36967.0093,5079.6121,49435.8838,44256.5382,55217.6088,-2016.44,-2496.2425,23599.2372
53633.8091,25889.5308,52161.321,39613.8132,34655.0792,36959.9015,5079.3439,49407.3182,44245.0941,55209.6069,-2028.4653,-2508.6254,23594.6774
53641.7663,25892.1683,52162.528,39618.82,34659.7284,36961.019,5080.5062,49408.704,44248.0892,55212.2891,-2022.2515,-2505.0044,23597.3597
53662.5981,25900.5725,52163.5115,39626.6878,34679.5768,36966.5623,5081.8026,49430.8323,44257.164,55217.5641,-2006.7841,-2493.8732,23599.5948
53667.6496,25895.9234,52166.5066,39628.4312,34681.5437,36963.746,5079.031,49434.0956,44255.7782,55221.2745,-2004.5489,-2495.1249,23595.5268
53660.0053,25890.4248,52166.3278,39628.9229,34673.2736,36963.7907,5075.3653,49424.3503,44249.5644,55218.0111,-2008.4381,-2505.2726,23595.6609
53640.0676,25883.6299,52165.9702,39615.5566,34649.9383,36957.5322,5070.2691,49395.5165,44239.1932,55210.7692,-2028.5994,-2514.6157,23590.4306
53642.4369,25883.0041,52167.8925,39617.6577,34659.639,36954.2688,5073.4431,49391.9849,44246.9716,55207.5058,-2028.2418,-2507.5078,23591.1012
53656.2949,25884.5687,52167.8925,39624.8102,34682.5719,36961.4661,5072.1467,49414.4261,44259.2204,55209.4281,-2016.0824,-2492.6662,23592.7552
53651.0199,25884.077,52162.528,39622.9327,34686.6399,36956.3699,5068.6598,49420.5952,44258.2369,55203.7507,-2011.0309,-2492.3533,23589.313
53639.3076,25884.3452,52160.5164,39614.1708,34670.189,36953.5983,5066.7822,49411.0286,44251.9784,55205.2706,-2018.6305,-2501.2046,23589.9389
53634.5243,25881.1712,52163.3327,39613.1426,34651.95,36954.1794,5068.3022,49404.3678,44245.0941,55205.5389,-2031.1922,-2509.8324,23587.7484
53628.4894,25883.8087,52166.909,39622.3068,34654.8557,36962.7178,5075.7229,49415.9013,44249.1174,55205.2259,-2029.717,-2508.1336,23589.4918
53643.5544,25894.8505,52168.7865,39633.885,34679.4426,36971.5244,5078.9416,49441.2482,44264.9871,55212.0656,-2011.6568,-2499.3718,23594.4986
53648.8742,25896.6386,52168.2948,39632.678,34684.673,36967.814,5078.1369,49454.3016,44274.8219,55217.6535,-2007.1417,-2499.1035,23596.3315
53639.4864,25890.8719,52167.8925,39631.471,34667.3727,36962.4496,5078.1369,49443.9304,44269.8151,55213.9431,-2020.9551,-2508.2678,23593.7387
53621.4262,25886.938,52167.7583,39621.4128,34648.5972,36957.0404,5076.7064,49418.3153,44261.992,55208.534,-2033.6956,-2516.3144,23591.9505
53625.2707,25876.5668,52172.8098,39619.267,34653.7381,36963.433,5077.6452,49413.3979,44261.2767,55214.3008,-2028.1971,-2515.1074,23596.9126
53640.6487,25878.7125,52171.8264,39628.4312,34680.0238,36973.983,5077.6005,49432.7992,44271.6926,55218.5923,-2007.8123,-2500.5341,23599.9972
53649.0083,25882.0206,52171.737,39635.3602,34693.0772,36972.2843,5079.6121,49438.8342,44273.749,55219.7993,-2004.9959,-2495.6167,23601.0253
53640.0676,25882.7806,52173.7039,39632.7227,34672.2901,36965.8023,5077.824,49426.4066,44270.4856,55217.43,-2017.0659,-2503.9315,23595.9291
53623.6614,25874.6445,52167.8478,39617.5236,34649.8042,36962.5837,5073.1748,49407.8994,44256.1805,55204.2425,-2030.7451,-2520.5612,23588.5531
53632.6915,25881.5736,52167.1325,39622.9774,34668.7138,36966.6964,5076.7064,49416.2589,44262.6625,55202.6331,-2023.7714,-2513.7216,23589.9389
53653.3892,25894.5823,52164.8526,39634.0638,34686.5952,36970.6303,5078.4945,49442.0081,44272.1397,55210.4115,-2008.9746,-2502.4116,23593.8281
53659.603,25899.1867,52162.6621,39633.9744,34689.2774,36973.1784,5075.6335,49454.9274,44274.5984,55212.1103,-2006.4265,-2497.8071,23596.0186
53649.2318,25902.8077,52166.5961,39626.7772,34671.9772,36977.4252,5074.1583,49436.2861,44260.8744,55200.4874,-2017.4682,-2508.8042,23592.934
53639.7547,25899.6338,52166.9537,39618.2835,34646.1385,36975.8606,5070.4032,49413.0403,44252.2913,55192.396,-2033.8297,-2522.3941,23586.9437
53646.5496,25891.453,52164.6738,39621.7257,34651.4583,36973.3125,5066.8716,49414.0238,44253.2301,55189.6244,-2030.924,-2518.5496,23584.8427
53653.9704,25893.867,52159.9799,39627.8948,34670.8596,36971.0773,5063.653,49423.2327,44255.0629,55192.5302,-2015.7248,-2509.1618,23585.245
53660.3183,25901.8242,52158.7282,39627.7159,34689.188,36978.0958,5062.4013,49436.2861,44258.1922,55200.5768,-2012.9085,-2503.7527,23588.866
53651.5117,25893.9564,52153.945,39621.0551,34675.9558,36979.5263,5063.0718,49425.4231,44240.0426,55191.4126,-2020.5528,-2513.4087,23583.9486
53637.0724,25885.4181,52150.4581,39608.3593,34653.4699,36971.2114,5063.4295,49406.8265,44229.4031,55179.3873,-2034.5002,-2525.121,23579.0312
53634.4349,25883.9428,52151.4863,39605.1854,34656.778,36966.7858,5062.9377,49411.2074,44233.8288,55176.6157,-2027.7053,-2519.0413,23580.8641
53644.0462,25882.6017,52148.2676,39608.8064,34671.8878,36967.5905,5064.5918,49420.774,44241.786,55184.9306,-2015.993,-2507.4631,23585.8262
53655.6244,25885.4628,52153.4979,39618.7305,34685.7011,36971.9267,5072.102,49426.5407,44241.026,55193.2007,-2010.271,-2502.9927,23591.727
53642.1239,25883.0488,52154.4814,39611.9803,34671.1278,36971.3902,5073.8007,49412.5038,44227.8385,55187.7469,-2020.4186,-2510.0559,23589.313
53622.0968,25879.2043,52153.8109,39597.9434,34650.8324,36962.2707,5075.4994,49382.6866,44217.0203,55183.9471,-2036.0649,-2522.5729,23583.591
53614.6313,25887.6979,52157.0742,39600.8044,34659.6837,36965.847,5083.3672,49376.7858,44216.0815,55190.2056,-2031.0581,-2515.9121,23584.6192
53625.5836,25890.7378,52156.359,39609.8793,34675.2405,36963.5671,5085.7365,49390.8226,44216.7073,55192.8431,-2014.8307,-2500.3552,23588.3296
53627.9082,25893.6882,52156.5825,39611.8462,34682.3484,36958.6498,5085.6024,49384.5642,44212.1029,55191.6361,-2016.1718,-2502.2775,23587.0779
53604.6624,25893.3753,52153.8556,39600.8044,34671.1278,36947.9209,5080.3721,49352.1094,44193.2827,55184.1259,-2029.3593,-2518.3707,23580.6853
53580.3884,25883.0488,52149.9664,39582.2525,34643.1434,36938.4438,5075.41,49315.989,44170.2157,55174.2911,-2042.8151,-2534.6875,23574.1138
53582.266,25889.1732,52148.2229,39584.9794,34647.3455,36937.505,5076.6617,49306.9589,44173.8814,55177.778,-2034.6791,-2529.7701,23577.556
53591.7431,25894.627,52142.7244,39597.8987,34668.088,36935.7616,5078.0475,49321.9346,44181.3022,55180.7731,-2018.7646,-2517.2085,23583.1439
53595.8111,25898.0691,52144.0655,39603.3525,34680.4261,36936.7898,5078.9416,49321.6664,44174.999,55183.9024,-2012.8191,-2512.2464,23585.3791
53580.299,25897.8009,52142.5456,39595.7977,34661.3824,36929.816,5076.17,49305.6625,44158.3693,55176.124,-2027.6159,-2521.5894,23578.0925
53557.5897,25893.6435,52141.4727,39578.0504,34630.8947,36921.4118,5075.3206,49287.2,44144.0642,55167.228,-2044.9162,-2536.118,23573.0857
53555.3545,25892.7494,52141.428,39588.8686,34635.4544,36923.6916,5077.6899,49279.3769,44145.5394,55169.1949,-2040.8034,-2532.5418,23578.1372
53577.4827,25905.624,52146.4795,39607.4653,34663.1259,36932.23,5083.3672,49298.8229,44164.0913,55177.018,-2017.8705,-2515.7332,23585.8709
53596.1241,25917.8281,52151.4416,39617.0318,34664.8246,36935.5828,5087.4352,49314.8267,44166.863,55179.7003,-2007.1864,-2509.4301,23587.3908
53586.0211,25918.8563,52152.8274,39611.4886,34651.0559,36933.7946,5089.8492,49295.7383,44149.2945,55169.1502,-2019.2564,-2516.672,23584.7086
53560.853,25907.2781,52147.2842,39599.5528,34632.3252,36928.5643,5084.9319,49263.6859,44139.9068,55159.7178,-2032.8015,-2531.6477,23579.0759
53565.1445,25904.0594,52149.0723,39601.0727,34638.9413,36932.2747,5085.6471,49261.1825,44147.9981,55165.1716,-2024.3078,-2526.8197,23580.8641
53581.0143,25914.8777,52154.5261,39620.5187,34657.6273,36940.6343,5092.7103,49282.1485,44157.0282,55167.4515,-2008.304,-2510.2794,23587.9719
53590.849,25920.108,52155.9566,39627.3136,34660.7566,36947.7868,5093.0232,49283.4896,44158.0117,55169.1949,-1995.6082,-2505.8091,23589.4024
53584.2776,25915.0565,52151.3075,39627.2689,34655.7498,36943.8082,5092.3079,49262.7025,44148.3557,55163.2941,-2007.0523,-2516.4932,23586.8543
53561.1212,25903.8359,52149.7428,39613.6791,34634.0686,36936.4321,5087.9717,49235.791,44134.3635,55156.678,-2024.0843,-2532.4523,23582.1605
53568.4973,25901.6901,52153.945,39612.6062,34625.1279,36936.6556,5086.6753,49233.5558,44134.6765,55159.8966,-2024.6208,-2528.2949,23583.591
53584.9929,25902.3607,52150.771,39621.9939,34640.0589,36938.3991,5086.3177,49251.2584,44147.0593,55162.0424,-2007.0076,-2512.604,23584.798
53594.0677,25906.7416,52146.7477,39623.5138,34645.2892,36937.1027,5082.9649,49254.4323,44149.6074,55161.1483,-2000.7491,-2505.8091,23589.1789
53582.6683,25899.7679,52146.4348,39614.9755,34629.3747,36929.9948,5079.9698,49236.685,44135.8835,55153.0123,-2013.9813,-2516.0909,23583.3675
53567.8267,25893.7329,52148.1782,39606.8394,34602.4632,36920.8753,5078.8075,49212.4557,44123.2771,55149.7042,-2030.164,-2532.81,23578.6289
53571.6265,25893.9117,52150.771,39608.0911,34609.1241,36919.9812,5078.584,49211.9193,44128.6862,55152.4311,-2029.1358,-2529.6807,23579.4783
53594.47,25899.0973,52150.1452,39619.4011,34632.8616,36931.023,5078.271,49224.7045,44145.8076,55151.7159,-2013.5343,-2518.1472,23580.1488
53601.712,25899.0526,52156.6272,39622.3068,34635.9462,36932.0512,5077.1087,49234.1369,44149.8756,55149.8383,-2008.4828,-2515.8674,23578.9418
53595.7217,25895.2081,52159.5329,39612.6062,34624.0103,36926.7315,5075.9912,49227.2526,44139.0574,55148.3184,-2019.6587,-2524.9422,23575.6338
53582.4001,25885.9098,52157.2977,39603.2184,34608.9453,36921.6353,5075.0971,49216.032,44127.2557,55143.2222,-2028.51,-2535.0451,23574.695
53587.1834,25881.2606,52151.8886,39601.7432,34606.6654,36921.7694,5076.2147,49214.2886,44127.0769,55140.2718,-2025.7831,-2531.2006,23577.6901
53599.2533,25886.6251,52150.9945,39605.1407,34623.6527,36925.7927,5075.3653,49231.5888,44135.4364,55156.8568,-2017.2,-2521.1424,23583.0098
53608.6857,25895.7446,52153.6767,39613.9473,34636.8849,36925.7033,5075.4547,49243.1223,44146.2547,55169.5079,-2007.544,-2512.3358,23589.4918
53597.1522,25888.6367,52152.1568,39602.8608,34617.6177,36916.7179,5070.4032,49223.3634,44143.2595,55163.0706,-2020.7763,-2517.432,23586.9884
53591.4749,25882.11,52152.1121,39593.4731,34597.4118,36912.1134,5068.8833,49204.9456,44135.9282,55160.1201,-2032.9803,-2525.7915,23586.9437
53596.5711,25884.971,52149.2064,39594.0989,34605.3243,36908.3583,5066.2011,49200.3858,44139.5491,55163.9199,-2029.0464,-2522.0811,23584.8427
53612.5749,25889.9331,52145.4066,39599.6422,34626.8266,36914.5274,5064.9494,49224.2128,44154.8824,55166.9151,-2016.0377,-2512.8722,23586.8543
53617.7158,25893.3306,52146.6583,39605.0066,34640.7741,36921.9929,5065.8435,49241.7812,44166.3265,55166.2445,-2013.8025,-2508.8489,23589.313
53603.1425,25892.0789,52143.2161,39600.268,34627.9442,36921.3223,5065.8435,49242.0495,44157.4305,55159.5837,-2022.5644,-2520.2483,23583.0545
53583.6518,25881.9312,52143.9761,39589.1368,34606.1289,36915.3768,5065.0835,49225.9115,44141.0244,55154.8898,-2037.2272,-2535.3134,23577.2878
53587.7198,25882.11,52145.049,39592.3108,34607.023,36915.8238,5068.2575,49232.4829,44143.796,55158.7343,-2031.9968,-2531.8265,23579.7912
53604.0366,25885.9098,52146.4795,39599.061,34627.4525,36921.5459,5068.3022,49255.0582,44157.7882,55167.0492,-2017.1106,-2518.0131,23579.8359
53616.3747,25883.1382,52149.0276,39613.5449,34643.0093,36926.4632,5072.2361,49258.1427,44166.9524,55169.8208,-2009.4663,-2510.8606,23583.2781
53604.7965,25877.7738,52144.5572,39608.0464,34633.2639,36920.0706,5071.5208,49243.0329,44162.9291,55160.7013,-2019.5246,-2517.5661,23579.9253
53586.3787,25873.0352,52147.5524,39591.9979,34610.2417,36914.7956,5069.1962,49223.8551,44144.3324,55153.1017,-2037.093,-2533.9723,23575.4997
53598.5827,25882.3782,52151.7992,39595.7977,34619.8529,36921.9035,5069.1515,49228.6384,44148.6686,55154.4428,-2027.7053,-2524.4504,23582.5628
53621.7839,25891.4083,52152.8721,39608.6276,34649.2678,36926.1056,5071.3867,49254.477,44161.8562,55164.2776,-2012.372,-2510.7265,23589.2236
53624.3767,25898.9632,52148.7147,39609.2981,34652.397,36928.3408,5070.1797,49270.3021,44165.1195,55165.5293,-2013.1767,-2511.4864,23592.0846
53620.9792,25904.2829,52149.4746,39610.3263,34640.8188,36928.8325,5074.203,49265.5635,44168.7852,55168.1221,-2017.5576,-2518.9519,23592.8446
53602.159,25905.4005,52153.2744,39609.3428,34629.4194,36931.023,5074.8289,49256.3546,44167.5782,55171.6536,-2023.1456,-2524.7633,23590.0283
53607.8811,25901.3325,52153.7215,39609.2087,34631.8781,36932.3194,5073.8901,49252.8677,44162.2585,55167.7644,-2021.2233,-2524.2269,23586.5861
53614.8548,25897.9797,52147.3736,39618.2835,34648.2396,36936.8792,5072.7278,49274.3701,44162.3032,55161.4165,-2016.3059,-2511.7993,23585.2897
53617.8499,25902.5395,52146.6136,39625.302,34662.4553,36940.9025,5072.5937,49283.3108,44169.9028,55168.6585,-2010.718,-2503.6633,23584.3509
53609.1775,25899.3208,52146.3454,39615.1096,34652.1288,36936.2533,5070.895,49267.2175,44159.2634,55161.9083,-2022.3409,-2516.0909,23576.2596
53601.8461,25902.6736,52147.15,39609.2534,34632.9957,36939.5614,5073.3536,49258.5003,44153.139,55152.7441,-2029.8064,-2522.4388,23574.0691
53614.229,25905.4899,52146.5689,39609.1193,34642.2493,36950.022,5069.4644,49264.58,44167.4441,55157.2144,-2027.3924,-2516.7614,23573.935
53639.397,25913.6707,52148.2229,39617.9706,34664.8246,36956.3252,5069.1962,49288.2729,44184.9232,55166.9598,-2015.3224,-2507.5078,23580.8194
53646.7731,25915.9952,52149.9217,39622.4409,34670.949,36953.8665,5068.2127,49299.0017,44190.0194,55167.1833,-2007.9464,-2504.6915,23583.9486
53629.2493,25904.8641,52147.463,39610.5051,34658.2532,36949.6644,5065.9776,49286.0824,44181.2575,55161.0142,-2022.028,-2514.9286,23580.6406
53610.608,25893.6435,52148.4911,39599.5975,34634.2027,36944.0317,5065.7094,49266.0999,44171.7356,55160.7013,-2037.4507,-2525.3892,23578.3607
53611.5468,25890.3801,52147.8206,39595.1718,34631.5652,36937.6391,5063.5189,49273.6995,44174.8649,55163.9199,-2039.1941,-2523.914,23579.4336
53634.9267,25906.0264,52153.0062,39609.2087,34657.4038,36943.7188,5069.1962,49306.2884,44196.0096,55175.5875,-2016.753,-2504.7809,23588.419
53641.8557,25913.313,52154.3026,39617.1659,34671.9325,36946.5798,5071.2973,49310.9822,44199.8094,55180.9967,-2011.7015,-2501.7858,23594.0069
53627.64,25901.2431,52147.5971,39604.2019,34655.7498,36937.6838,5067.274,49286.3953,44187.5607,55176.2134,-2023.7714,-2513.6769,23588.0613
53603.9919,25884.7028,52140.4892,39584.7559,34631.4758,36926.8656,5064.3682,49264.7141,44178.0388,55172.1901,-2042.4128,-2523.2434,23581.7134
53603.2766,25882.7806,52137.9411,39586.6781,34633.2192,36922.2164,5067.0952,49267.3963,44178.62,55172.5924,-2035.7519,-2522.6176,23580.3723
53620.1298,25885.3287,52137.3153,39595.5294,34654.9451,36923.6022,5066.9611,49290.8657,44186.1749,55179.6556,-2024.9337,-2514.0792,23580.3723
53628.4447,25883.2723,52134.0519,39599.8657,34664.1093,36922.8423,5067.1846,49296.3642,44185.8619,55182.8295,-2025.4701,-2514.8839,23576.6172
53613.022,25878.8466,52133.292,39585.5606,34646.1833,36917.612,5066.6928,49275.2194,44169.6346,55177.6439,-2040.3564,-2527.4903,23571.2081
53597.1522,25877.1926,52133.1578,39572.5518,34629.1065,36910.5041,5063.3848,49249.5149,44157.5646,55174.7382,-2054.7509,-2540.4096,23566.5143
53602.4272,25876.2091,52136.5106,39579.5703,34636.8402,36911.9346,5065.3964,49253.27,44167.0418,55176.7051,-2044.3797,-2532.9441,23566.7378
53625.1366,25885.9545,52145.4513,39596.2894,34668.4903,36920.7859,5071.1185,49283.7131,44186.1749,55185.7799,-2025.7831,-2512.2017,23574.7844
53628.7576,25888.7708,52145.6301,39598.3905,34671.9772,36922.0823,5072.996,49301.2816,44193.9086,55197.6711,-2019.9269,-2502.501,23578.8524
53614.8995,25886.0439,52144.289,39586.3205,34652.8441,36916.7626,5071.342,49292.3409,44185.3702,55190.6526,-2029.8064,-2510.2347,23577.9583
53601.7567,25883.8534,52147.8653,39580.6879,34638.0025,36919.9365,5074.0242,49274.5042,44182.6433,55189.7138,-2037.7636,-2518.9519,23580.8194
53607.0317,25887.0721,52152.5592,39586.6781,34651.1006,36924.7198,5075.0077,49285.4118,44196.2779,55195.6147,-2031.371,-2512.2017,23584.9321
53625.3601,25890.2907,52148.4017,39597.2729,34674.3464,36931.0677,5075.7676,49313.7985,44205.755,55200.4427,-2015.546,-2502.5457,23590.8777
53617.9841,25883.5405,52143.6185,39592.6237,34683.7789,36926.7315,5075.0971,49319.9229,44209.2419,55196.1511,-2016.5294,-2501.7411,23591.28
53606.4953,25884.7028,52148.7594,39590.8356,34665.7634,36927.4467,5076.7958,49312.9939,44209.9124,55198.9228,-2023.0114,-2506.569,23590.52
53593.7995,25881.1265,52149.4299,39586.9464,34646.4962,36923.2893,5077.2429,49294.576,44199.3624,55194.0054,-2032.7568,-2515.1074,23584.6639
53580.3884,25879.6513,52147.0606,39582.9231,34643.0987,36921.1882,5072.102,49283.1767,44189.5276,55186.4952,-2036.646,-2514.6157,23579.97
53596.9287,25886.0439,52143.3502,39591.4614,34658.2979,36922.574,5068.0339,49302.8462,44192.2098,55183.813,-2030.3875,-2508.4019,23578.6736
53617.1347,25900.2149,52146.7477,39606.3477,34673.05,36929.816,5074.6948,49322.1581,44206.515,55189.088,-2017.5576,-2503.3057,23582.2052
53608.4622,25898.248,52151.1286,39599.2845,34658.5661,36930.6207,5073.4431,49312.9492,44201.9999,55186.4505,-2026.5877,-2514.9733,23580.4617
53588.5692,25885.9545,52148.4911,39586.9911,34639.0307,36924.8986,5070.7608,49285.5459,44183.3138,55173.1735,-2047.7325,-2528.1608,23572.4151
53592.5925,25890.6037,52149.3852,39589.4945,34643.5905,36927.9385,5073.8007,49288.5411,44189.1253,55166.2892,-2046.9725,-2522.3941,23570.2693
53621.8286,25899.5444,52153.4532,39603.5314,34669.6973,36941.9754,5078.271,49313.888,44208.5266,55176.3475,-2025.336,-2505.3173,23575.0079
53626.6118,25905.8923,52154.1238,39609.0299,34684.2706,36944.3446,5080.1039,49328.059,44221.0436,55184.3941,-2014.5178,-2499.2824,23578.5842
53614.4078,25899.902,52152.5592,39606.8394,34672.4689,36939.8296,5081.3109,49317.1513,44208.5266,55178.5827,-2020.5528,-2512.4699,23576.6619
53598.851,25889.3073,52150.9051,39593.2496,34647.882,36935.8957,5075.6782,49287.2447,44193.6404,55173.3077,-2032.6674,-2525.568,23571.074
53597.9569,25887.2956,52149.7428,39592.4896,34649.3572,36940.7684,5075.9465,49290.8657,44188.1865,55171.9218,-2027.7053,-2522.7964,23574.7397
53615.3913,25893.6882,52152.6933,39607.1076,34673.6312,36945.1493,5082.2049,49317.6877,44198.9154,55177.331,-2015.546,-2505.8091,23581.2217
53608.5069,25889.3073,52144.9149,39605.8112,34671.7089,36935.2251,5074.3371,49319.2524,44199.3177,55180.8625,-2011.6568,-2503.6633,23580.8641
53605.1989,25893.1965,52149.6534,39603.442,34663.2153,36934.7334,5073.8007,49308.0765,44199.1389,55181.4437,-2020.5528,-2511.5311,23582.1158
53594.5147,25885.0157,52146.0772,39585.8735,34643.3222,36929.9054,5068.6598,49294.1737,44197.5743,55174.3358,-2037.6295,-2526.4621,23576.1255
53594.8724,25881.9312,52144.6019,39588.3322,34640.9082,36931.7383,5070.135,49292.4303,44197.1272,55171.0725,-2037.6295,-2523.6905,23576.5725
53617.537,25890.0672,52147.7312,39599.9998,34660.4884,36941.4389,5075.0971,49315.8102,44219.0319,55188.5962,-2022.0727,-2507.4631,23583.9486
53625.6284,25892.1236,52143.9761,39601.8326,34666.121,36935.3145,5072.8619,49329.5789,44225.6033,55191.6361,-2020.2845,-2502.4563,23584.2168
53620.398,25894.6717,52144.8255,39596.3788,34655.4816,36929.056,5072.1467,49318.5818,44212.684,55189.4009,-2029.1358,-2510.637,23581.9817
53605.2436,25888.145,52143.5291,39587.1252,34637.5108,36927.2679,5072.4149,49299.404,44198.066,55182.1142,-2042.1445,-2521.0977,23574.248
53607.6576,25888.3238,52145.4066,39582.2078,34643.0093,36931.8277,5071.6549,49306.646,44201.4635,55181.9354,-2040.8034,-2520.1142,23572.2363
53624.5108,25891.1848,52143.5291,39591.3273,34666.1657,36934.8675,5070.0009,49313.9327,44210.4042,55179.0744,-2028.0629,-2509.9218,23575.7679
53627.0589,25887.9215,52140.3104,39594.7248,34667.0151,36938.5779,5070.9397,49328.1931,44212.4605,55184.4388,-2023.9055,-2507.1502,23579.9253
53620.6216,25886.2674,52141.7409,39592.4449,34652.7994,36936.4321,5071.2079,49318.0454,44205.9785,55187.881,-2031.9968,-2517.432,23576.5725
53598.9404,25879.249,52142.4562,39576.7987,34633.3086,36925.9268,5067.0952,49297.5712,44198.3789,55183.2765,-2047.3301,-2533.6593,23569.5094
53600.9967,25878.2655,52140.8468,39578.855,34638.1813,36925.8821,5063.7424,49299.3146,44202.134,55185.914,-2044.8267,-2529.8148,23568.3024
53624.779,25884.3452,52142.0091,39589.7627,34660.8907,36932.5429,5063.9659,49319.7441,44217.6014,55189.1774,-2031.1475,-2517.7449,23571.9681
53630.814,25882.6911,52144.0655,39596.3788,34669.9208,36933.7052,5062.7142,49334.8092,44231.8618,55193.5136,-2024.2631,-2511.844,23572.281
53626.2989,25879.696,52145.5407,39590.1203,34653.5146,36931.9171,5062.446,49328.1484,44225.2904,55190.5185,-2033.1144,-2519.8013,23569.9564
53606.6294,25874.7339,52148.8041,39576.9775,34632.1911,36924.5857,5063.6977,49310.5352,44214.8298,55192.8878,-2046.9278,-2530.0831,23568.5259
53609.5351,25881.8865,52148.9829,39580.7773,34634.8286,36930.7995,5065.7094,49320.9511,44217.959,55196.7323,-2043.575,-2525.7915,23572.5045
53626.1201,25885.3287,52145.0043,39598.0775,34660.9801,36935.0463,5065.1729,49336.955,44225.5139,55197.0899,-2029.6276,-2513.5875,23576.349
53628.8023,25881.0371,52140.3551,39600.5362,34672.7371,36929.1455,5064.0553,49344.8675,44228.5985,55199.7274,-2020.4633,-2509.8324,23576.5278
53616.5088,25870.1295,52137.4047,39593.339,34665.2269,36926.1503,5060.5237,49323.6333,44226.6315,55195.8382,-2030.4322,-2516.3144,23573.9797
53594.6935,25867.7155,52137.8517,39582.9231,34643.0987,36921.2329,5059.9873,49302.0415,44211.79,55188.4174,-2044.4691,-2526.1045,23567.6318
53597.0628,25869.9059,52138.5223,39589.4498,34652.9335,36926.9103,5060.7026,49320.057,44217.1097,55191.4573,-2042.9939,-2522.707,23571.1187
53612.4855,25871.3812,52134.946,39601.8773,34671.8878,36933.4817,5057.9756,49342.0511,44233.9182,55199.0122,-2024.4867,-2508.1336,23579.1206
53621.6497,25873.6163,52133.6049,39607.7782,34678.1909,36937.058,5057.9756,49353.6741,44239.7296,55201.1579,-2016.3953,-2507.5972,23579.0759
53603.1425,25860.1606,52129.0898,39597.7199,34657.8509,36924.8092,5051.4042,49337.402,44230.7889,55188.641,-2029.717,-2526.9091,23571.521
53582.7577,25853.6339,52129.5816,39584.1748,34632.057,36918.9084,5049.6608,49320.9958,44217.2438,55178.985,-2038.2106,-2535.9839,23570.0011
53582.7577,25858.8195,52128.8663,39583.7277,34633.0851,36925.7927,5053.0583,49325.6003,44218.9425,55188.4174,-2039.06,-2531.1559,23571.6105
53598.9404,25861.904,52128.8663,39595.4847,34653.5146,36932.9005,5053.0583,49343.884,44238.2991,55194.9888,-2029.8511,-2519.4436,23574.9632
53598.4039,25859.0877,52125.7371,39591.1485,34652.6206,36929.9501,5050.2867,49351.6624,44236.8239,55188.7304,-2031.4604,-2525.6127,23568.5259
53581.6401,25857.5231,52122.876,39583.5042,34639.3436,36920.8306,5048.7667,49335.6138,44220.8201,55179.2979,-2045.5867,-2536.3415,23561.9098
53567.2456,25852.0693,52127.3017,39574.5188,34619.54,36918.059,5048.9008,49316.1678,44207.4537,55176.7498,-2057.2096,-2546.1763,23556.9924
53570.3301,25843.218,52123.9936,39569.6908,34619.987,36918.6401,5045.1458,49320.057,44206.7385,55176.571,-2055.7791,-2539.4261,23556.5454
53589.3291,25844.3356,52120.8197,39583.9512,34634.6945,36926.5974,5047.3362,49348.5332,44220.5518,55186.8975,-2040.5352,-2525.9256,23563.1168
53592.0113,25845.8108,52117.601,39590.7909,34645.7809,36924.7645,5048.275,49358.815,44232.3089,55188.0598,-2035.7072,-2522.6623,23563.1168
53589.3291,25832.3103,52114.4718,39590.925,34641.9364,36918.6401,5047.6044,49336.2397,44227.1233,55177.6886,-2043.1727,-2528.9208,23560.3452
53576.4992,25821.3133,52109.8673,39577.9163,34622.0881,36909.6994,5040.9436,49306.6907,44211.5217,55166.0657,-2059.3107,-2544.6117,23554.6678
53573.817,25815.9935,52108.3027,39574.7423,34621.5963,36911.8005,5038.619,49306.8248,44216.3944,55169.5079,-2057.7013,-2546.221,23556.2772
53591.6984,25819.5251,52104.4135,39583.2807,34640.6847,36913.7228,5035.4451,49327.3437,44230.4313,55175.6769,-2044.6926,-2534.2852,23556.8583
53590.402,25817.737,52097.8421,39583.0572,34643.3669,36912.2475,5029.9466,49338.5196,44230.2078,55171.0725,-2038.5236,-2531.6924,23554.2655
53581.2825,25804.6836,52087.5603,39579.7044,34630.1347,36910.0124,5023.6881,49322.1581,44214.8745,55164.1881,-2048.403,-2546.5786,23547.6941
53562.82,25792.6136,52085.7275,39569.6908,34611.1804,36904.7374,5019.3518,49293.3691,44198.6024,55159.8966,-2062.1717,-2558.5145,23543.0002
53559.3778,25790.6914,52085.0122,39564.9523,34609.2582,36901.921,5018.9048,49291.2233,44206.6491,55159.2708,-2062.7528,-2559.3638,23543.0449
53566.4856,25800.2579,52081.6147,39566.8745,34627.5866,36903.3068,5014.7027,49313.2174,44221.133,55159.7625,-2051.264,-2550.289,23546.8
53573.9958,25800.3026,52085.638,39570.0037,34636.6167,36909.9677,5017.0273,49320.8617,44220.2389,55161.9977,-2045.7655,-2546.1316,23548.4987
53568.2738,25794.4912,52091.0919,39561.6889,34621.3281,36905.095,5016.9826,49320.1911,44210.5383,55168.7479,-2054.7062,-2551.2725,23552.9691
53557.7238,25793.0607,52091.3601,39554.894,34600.541,36901.0717,5018.5025,49296.5877,44199.6306,55162.4447,-2065.6139,-2557.5757,23552.2538
53560.9424,25788.2774,52088.1861,39549.0825,34596.2048,36900.6246,5015.5073,49293.8608,44201.9999,55160.746,-2070.0842,-2556.9052,23548.4093
53586.7363,25793.8206,52085.5933,39557.308,34621.9987,36904.2456,5015.7756,49329.1765,44217.2885,55166.3786,-2054.2592,-2541.6166,23549.214
53595.9005,25801.599,52083.537,39567.5451,34636.8849,36908.2689,5018.5025,49338.2961,44219.7472,55165.7975,-2043.4856,-2537.325,23552.7903
53570.4195,25798.4251,52080.2736,39556.548,34615.0249,36896.199,5009.83,49319.7888,44207.5431,55158.0638,-2058.7295,-2551.2725,23543.6708
53547.3078,25795.9664,52080.5866,39542.5558,34591.9132,36894.6791,5003.3927,49301.7286,44191.4499,55149.2125,-2075.6274,-2566.0694,23536.8758
53547.0396,25790.6914,52076.6079,39537.7278,34596.0706,36895.9755,5001.8281,49298.1523,44188.0077,55145.4127,-2079.8743,-2567.7681,23532.7631
53563.2223,25786.221,52070.3495,39542.2876,34614.8908,36892.5333,5000.0399,49316.9725,44201.4188,55149.0784,-2066.5526,-2556.5028,23532.7184
53570.3748,25788.0092,52075.7139,39554.9387,34630.6264,36895.0367,5005.0467,49331.9035,44211.6112,55153.7722,-2057.7461,-2548.9032,23537.5911
53550.7947,25783.6729,52073.7916,39547.7861,34609.8393,36890.4322,5004.9573,49321.9346,44202.6258,55150.196,-2066.5973,-2558.0227,23538.1722
53535.8191,25774.5087,52069.5895,39540.8124,34588.9181,36884.8443,4999.6823,49302.4439,44193.1486,55143.0881,-2079.6508,-2574.116,23531.9138
53541.4517,25771.2454,52063.2416,39544.0757,34590.6168,36887.1689,4998.3412,49306.5119,44192.6122,55141.1211,-2076.5662,-2570.8526,23530.6174
53559.0649,25786.8469,52068.2037,39559.1408,34618.7353,36894.8579,5006.0302,49328.4613,44204.3245,55148.4078,-2061.9929,-2551.2278,23540.1392
53568.6761,25791.809,52074.8645,39567.2321,34632.4146,36899.507,5011.6628,49338.5643,44213.4887,55156.6333,-2053.7674,-2544.7458,23542.3744
53548.6937,25784.8799,52071.8694,39554.8493,34613.1921,36894.8579,5009.2936,49322.3816,44206.4255,55146.2173,-2066.3291,-2551.1831,23535.4453
53521.7822,25775.3134,52073.6575,39539.6054,34588.2922,36889.1358,5006.8349,49309.5517,44191.9863,55146.262,-2087.608,-2569.288,23531.2432
53530.6782,25782.0189,52077.9043,39543.3158,34592.9861,36890.5663,5006.9243,49323.1863,44194.2215,55151.9841,-2086.3563,-2565.8458,23532.9866
53545.1621,25791.4513,52080.4524,39557.5315,34620.3446,36899.9988,5009.4277,49341.1571,44208.5266,55153.3252,-2067.2679,-2553.3289,23537.0547
53558.0814,25792.2113,52079.3796,39563.8794,34630.8947,36901.2952,5011.6628,49353.7188,44217.7802,55153.4146,-2059.266,-2549.3056,23538.6193
53551.1523,25792.9713,52076.1609,39558.515,34614.3544,36897.5848,5011.5734,49347.9967,44212.1029,55148.9443,-2068.9666,-2558.2463,23536.2947
53528.6665,25792.1219,52077.7255,39551.8988,34597.7694,36892.578,5013.0039,49320.9511,44205.0844,55143.1328,-2081.7071,-2563.0295,23533.3443
53535.9532,25795.6535,52086.9344,39560.7501,34606.1736,36901.1164,5017.2508,49332.574,44213.1311,55150.9559,-2073.8393,-2556.6369,23538.0828
53559.0202,25802.5825,52088.9908,39570.0932,34626.022,36906.5255,5018.0554,49354.9258,44225.9163,55162.5341,-2055.198,-2541.9742,23546.9341
53571.8948,25811.8361,52090.3766,39570.9872,34636.3932,36908.5371,5024.7163,49368.5603,44236.1087,55171.5642,-2047.1513,-2534.2852,23553.0585
53563.3117,25813.4454,52096.5904,39572.5518,34624.2338,36910.0571,5026.862,49366.5487,44235.2593,55168.8373,-2054.8403,-2539.2026,23553.0585
53556.025,25813.7584,52102.8489,39565.3099,34603.2679,36909.5653,5027.1302,49351.7965,44227.4362,55168.7479,-2070.6207,-2552.6136,23551.5833
53558.4837,25810.7185,52100.6584,39563.9241,34612.2533,36911.5323,5026.415,49351.573,44233.2029,55169.5079,-2069.7266,-2552.6136,23550.1528
53579.4944,25821.358,52099.9432,39578.5421,34637.1531,36919.4448,5029.0972,49379.4233,44244.7364,55176.8839,-2051.0852,-2534.3299,23556.3219
53594.47,25830.8351,52100.2114,39590.2097,34647.122,36922.0376,5034.3722,49392.2979,44249.7879,55183.053,-2042.3681,-2523.0646,23560.7028
53583.3389,25830.1646,52101.329,39591.5955,34637.8684,36917.3884,5035.6239,49385.9053,44250.5032,55182.3378,-2054.0804,-2531.0218,23555.1596
53564.4293,25822.3414,52096.2775,39577.7375,34617.0366,36912.9628,5029.723,49370.7955,44236.4216,55171.743,-2071.3806,-2546.2657,23547.9623
53564.7422,25824.9342,52094.5787,39575.8599,34621.3281,36915.8685,5028.9631,49372.8966,44237.6733,55168.4797,-2066.5973,-2543.0918,23549.4375
53591.4749,25834.0538,52101.9548,39593.8307,34643.0987,36925.6586,5033.2993,49401.5962,44245.5411,55181.5778,-2046.2573,-2533.0782,23554.9361
53599.7003,25839.7311,52104.19,39597.7646,34648.2396,36924.8092,5033.8358,49408.5699,44257.164,55184.26,-2037.5401,-2530.0831,23555.2937
53587.4516,25842.5027,52105.2182,39589.2262,34631.744,36920.7859,5033.1205,49396.5,44251.1737,55177.9121,-2050.0571,-2537.5485,23552.1197
53567.782,25835.4843,52100.9713,39574.5635,34612.3874,36906.5702,5031.4665,49371.5554,44232.5324,55166.021,-2072.4982,-2554.5359,23546.8
53564.3846,25834.6796,52102.9383,39572.4177,34616.0084,36909.5653,5035.1322,49378.3504,44234.4993,55169.1949,-2064.8986,-2545.5058,23552.3432
53586.1999,25840.6252,52107.3192,39586.097,34633.5322,36920.2942,5038.932,49402.8926,44249.922,55182.3825,-2038.3,-2525.2998,23563.6979
53605.6906,25849.8341,52109.1074,39603.129,34648.329,36928.3855,5043.7152,49414.5155,44263.6013,55190.5185,-2024.0396,-2514.0792,23571.7893
53593.9336,25850.8623,52108.5709,39598.7928,34642.2493,36925.6586,5044.0729,49411.6098,44256.9852,55187.1657,-2031.371,-2521.8576,23568.9729
53576.4098,25846.839,52110.8955,39593.4731,34627.229,36923.5575,5045.7269,49399.4951,44242.5013,55182.6507,-2042.6363,-2528.9208,23566.7378
53586.9151,25849.1635,52113.4436,39598.8375,34636.6167,36929.8607,5052.9689,49405.3513,44246.7928,55187.1657,-2039.4176,-2518.5496,23573.6221
53613.8266,25863.6028,52119.9256,39616.1824,34664.5117,36941.573,5058.5568,49436.152,44272.1397,55199.3698,-2023.235,-2501.6516,23578.1372
53625.5836,25870.7106,52123.5913,39621.7704,34670.6361,36946.3116,5059.4062,49459.4425,44280.8568,55203.0355,-2017.2894,-2498.5224,23581.2664
53617.6264,25873.214,52126.5417,39612.2485,34651.3689,36946.5798,5059.4956,49446.1656,44274.5984,55206.2988,-2029.6723,-2512.2911,23576.1702
53595.677,25872.0964,52122.0714,39600.9386,34636.125,36939.6508,5057.8862,49426.6301,44262.439,55198.2522,-2045.3632,-2527.4903,23566.9613
53592.5031,25864.0051,52114.3824,39598.1222,34634.7392,36933.0347,5051.7172,49423.9479,44258.4157,55187.0763,-2053.0522,-2532.05,23559.5405
53604.7518,25865.3462,52113.9354,39607.8676,34649.7595,36938.3097,5050.1525,49449.4289,44271.782,55191.7702,-2041.474,-2520.6059,23559.0041
53616.9112,25867.2684,52119.1657,39618.6411,34656.9568,36940.6343,5050.2867,49455.7321,44276.1183,55201.6497,-2033.025,-2519.3542,23562.4909
53612.0385,25860.4288,52118.7186,39611.131,34643.3222,36936.9686,5044.5199,49431.3687,44263.5119,55195.0783,-2044.8267,-2529.9489,23560.971
53597.7334,25855.3326,52114.8294,39602.3244,34621.3281,36930.6207,5043.8493,49412.0568,44249.5644,55188.641,-2059.4448,-2542.0189,23557.7077
53598.4039,25853.4551,52117.5116,39604.4701,34623.4292,36936.7003,5046.2633,49411.4757,44256.9405,55190.1162,-2055.8685,-2538.1297,23560.7028
53624.332,25869.4142,52121.8926,39624.4973,34656.3309,36951.3184,5051.4489,49439.2812,44274.1066,55202.0967,-2032.5333,-2522.9305,23569.5094
53627.193,25875.1363,52116.6176,39623.2903,34663.6623,36947.6527,5046.7551,49454.3016,44271.1562,55197.5369,-2031.371,-2519.846,23566.9613
53617.1347,25869.7271,52116.9752,39612.6062,34646.7197,36941.4389,5039.4684,49443.6622,44265.0765,55190.5185,-2044.4691,-2529.4125,23560.3005
53607.3446,25872.454,52116.7517,39610.9074,34634.3815,36946.0434,5038.619,49430.0723,44251.5761,55180.0579,-2053.4098,-2541.4377,23558.4676
53612.3961,25879.1596,52120.5962,39610.2816,34630.7158,36950.022,5042.5977,49433.6486,44261.4108,55183.2765,-2046.1679,-2535.0451,23560.6134
53632.915,25881.9759,52120.3279,39617.7024,34650.9218,36956.1464,5043.7152,49450.5912,44269.9045,55190.742,-2031.4157,-2523.1987,23563.2509
53634.2561,25879.8301,52114.2483,39618.9541,34660.3096,36954.9394,5040.3625,49458.9508,44265.613,55186.674,-2029.9852,-2525.3892,23561.0157
53622.3203,25873.8399,52113.1754,39609.924,34639.0754,36951.1396,5036.1156,49444.0198,44252.4701,55173.8441,-2044.335,-2535.9392,23556.143
53605.6012,25866.2403,52116.394,39599.9551,34614.1756,36947.7868,5040.2731,49421.1316,44242.6801,55169.0161,-2051.8452,-2546.2657,23552.9244
53610.6974,25867.7155,52118.7186,39600.1339,34622.7586,36948.055,5042.1506,49426.1384,44243.3506,55170.089,-2047.0619,-2542.5106,23557.5289
53633.5856,25873.2587,52126.0053,39614.1261,34648.2843,36953.643,5048.7667,49441.874,44254.9288,55188.4621,-2025.6042,-2521.5,23569.0176
53635.2843,25879.3384,52127.9722,39612.8297,34652.9782,36954.9841,5052.1195,49448.8031,44260.5168,55198.7439,-2021.1339,-2512.3805,23573.4433
53614.7207,25870.0848,52127.5699,39608.3593,34642.8752,36949.5749,5054.2206,49439.3706,44248.6703,55193.4242,-2030.0299,-2516.0462,23571.5657
53595.7664,25867.1343,52129.9392,39597.1388,34625.2173,36943.3165,5054.5782,49416.7507,44230.7442,55183.0083,-2045.8549,-2529.9489,23568.2577
53598.538,25863.6028,52131.2803,39593.8307,34627.3184,36940.1425,5054.8017,49416.7507,44235.1252,55183.2318,-2045.0056,-2527.6691,23571.2081
53613.022,25874.1528,52134.4543,39610.0134,34655.2134,36942.1095,5058.825,49433.4698,44250.1456,55194.1395,-2025.9172,-2509.2065,23579.4336
53611.815,25872.7223,52135.7954,39608.1358,34666.2551,36942.2883,5062.6695,49419.6117,44247.9998,55197.8499,-2021.8939,-2505.8538,23577.7795
53591.4749,25864.8098,52133.3814,39589.718,34651.1006,36928.1173,5060.5237,49388.5428,44230.029,55190.3844,-2038.9259,-2521.6788,23570.6717
53580.1202,25864.5862,52132.3979,39585.4712,34633.711,36922.887,5062.2672,49359.0832,44208.5266,55179.1191,-2048.1795,-2537.9062,23565.7096
53577.5721,25868.8778,52133.4261,39595.2612,34641.4447,36930.3524,5067.5422,49358.8597,44209.7783,55181.7119,-2041.0269,-2533.6593,23569.1965
53587.7645,25877.7738,52136.5553,39608.2699,34660.086,36936.2086,5071.8784,49374.9529,44217.4226,55183.9024,-2026.5877,-2518.4602,23572.2363
53588.7033,25885.9098,52135.393,39609.164,34671.8431,36929.9501,5069.4644,49375.8023,44213.3099,55182.5613,-2023.4585,-2516.0909,23572.7727
53583.6518,25889.7096,52133.9625,39605.7665,34667.8197,36928.0279,5072.0125,49355.4622,44194.3556,55179.2979,-2029.2699,-2523.2434,23570.7611
53570.4643,25884.971,52132.2638,39602.3691,34647.1667,36927.4914,5073.4431,49320.817,44171.8698,55170.4913,-2042.1892,-2532.2735,23568.4812
53570.5537,25893.3306,52137.4941,39604.2019,34653.5146,36929.6372,5078.3157,49313.7091,44177.0107,55171.5642,-2039.6411,-2525.3892,23575.3208
53587.5857,25905.624,52140.7574,39612.8297,34673.6759,36934.9122,5080.238,49330.3388,44190.9134,55178.5827,-2025.2913,-2513.7663,23579.3442
53584.0094,25905.7134,52139.3716,39610.3263,34673.7206,36926.5974,5077.5558,49323.4992,44187.6501,55173.3077,-2020.9104,-2513.7216,23577.4666
53570.4643,25901.9136,52139.1481,39598.7034,34648.6866,36921.3223,5071.0738,49301.0134,44178.8882,55171.296,-2035.6625,-2527.8032,23573.8903
53551.5994,25894.6717,52141.5621,39595.0377,34625.5749,36923.1105,5072.4596,49286.5294,44162.7502,55168.7032,-2045.5867,-2537.6379,23577.6007
53553.8793,25886.5803,52142.2774,39601.6538,34632.1464,36925.4351,5070.6714,49286.1718,44160.2021,55162.4894,-2042.5022,-2536.3415,23574.5162
53563.4011,25885.731,52137.8517,39603.8443,34649.6254,36926.5974,5066.2905,49299.5828,44166.2371,55163.3388,-2030.7004,-2526.2833,23572.0128
53569.5255,25893.4647,52135.7059,39608.8958,34650.6536,36928.4749,5066.2011,49292.7879,44165.1195,55161.0142,-2021.4468,-2520.3377,23568.7047
53559.4225,25887.2956,52136.2424,39606.4371,34633.711,36929.9054,5064.7706,49277.8122,44154.4354,55152.1629,-2031.6839,-2527.9373,23564.0556
53543.5528,25879.4278,52135.7954,39590.2991,34609.2135,36922.7529,5058.0651,49261.1825,44146.5229,55142.2834,-2046.3914,-2545.9528,23557.5736
53551.8229,25884.077,52141.6515,39601.6091,34614.7567,36922.3505,5062.2225,49254.4323,44149.2945,55145.2786,-2041.6975,-2541.1248,23558.6911
53573.6829,25888.6367,52142.5903,39613.4555,34642.3388,36927.3126,5065.2623,49269.7656,44164.8513,55152.7441,-2025.1572,-2526.5068,23566.2907
53573.2806,25884.5687,52141.2045,39616.2719,34650.0725,36928.6537,5066.0223,49274.1019,44168.964,55152.6099,-2017.5576,-2515.4203,23570.627
53556.6956,25880.5007,52136.6894,39605.1854,34624.4574,36923.3787,5061.4625,49254.2088,44158.0117,55147.9161,-2032.3098,-2524.5845,23567.6765
53543.1951,25874.1081,52136.1083,39598.7481,34606.263,36921.3223,5062.0884,49237.0427,44147.9981,55143.0881,-2044.9162,-2538.9791,23564.8155
53554.2816,25876.7456,52140.0869,39601.1621,34608.3641,36925.301,5062.7142,49233.4664,44147.6852,55147.469,-2039.4623,-2534.3299,23570.1799
53578.7344,25884.7922,52144.3337,39617.0765,34639.433,36932.99,5066.6481,49256.8016,44161.1856,55155.6498,-2018.0941,-2518.8178,23576.0808
53583.7412,25889.7543,52144.6913,39621.7257,34645.7809,36937.1027,5070.0903,49268.7821,44167.8464,55159.6731,-2010.7627,-2516.672,23579.1653
53576.8121,25888.1897,52143.4397,39615.8695,34629.5536,36933.2582,5070.8503,49258.2768,44157.3858,55151.09,-2020.5081,-2523.154,23579.6124
53571.8948,25884.8369,52145.943,39601.0727,34608.9453,36922.8423,5068.5257,49232.4829,44149.2945,55154.264,-2035.8413,-2532.1841,23576.5725
53573.5488,25880.5007,52144.3784,39599.508,34613.058,36921.9929,5066.8269,49230.6054,44154.7036,55156.2309,-2033.1144,-2528.6525,23574.9632
53587.4069,25880.9477,52143.4397,39609.3428,34642.5623,36926.1056,5066.9163,49255.3264,44165.9689,55162.847,-2015.546,-2513.8557,23577.8242
53597.644,25882.3782,52139.5057,39614.5731,34652.5311,36926.7315,5069.6433,49262.2107,44167.5335,55162.0424,-2009.2875,-2507.5972,23580.3276
53585.6634,25874.6445,52136.0636,39602.1008,34637.019,36921.6353,5067.3187,49249.7385,44162.035,55155.918,-2024.7996,-2521.5894,23573.6221
53567.782,25866.7767,52134.2754,39587.1252,34612.0298,36913.5439,5062.8036,49233.7346,44151.7532,55153.4146,-2041.8316,-2534.9557,23568.3024
53570.0172,25863.2451,52130.7886,39579.9726,34605.9054,36911.7111,5059.0038,49240.5742,44159.5763,55156.4991,-2036.6013,-2534.9557,23568.4812
53593.7995,25873.6163,52130.565,39594.546,34628.8383,36921.1882,5061.4178,49265.2953,44175.7143,55159.539,-2020.6422,-2522.26,23572.7727
53608.5516,25880.6795,52129.3133,39605.4983,34644.7527,36931.9618,5066.4693,49282.5955,44185.9961,55164.9481,-2013.0426,-2510.637,23577.0196
53604.7518,25886.1333,52131.325,39594.9483,34628.7489,36928.8325,5069.1068,49274.1913,44178.4859,55162.5788,-2025.9172,-2516.8955,23573.8456
53584.1435,25883.2723,52130.878,39581.0455,34607.1124,36917.9696,5065.4411,49258.6792,44164.8513,55155.6051,-2038.613,-2535.9839,23566.2907
53581.8636,25881.663,52133.7837,39586.9464,34614.4885,36918.2825,5064.413,49263.373,44165.5666,55157.0803,-2035.0814,-2540.0966,23565.039
53600.505,25884.6134,52135.1248,39597.2729,34633.3086,36918.9978,5065.9329,49283.2661,44179.4693,55165.8869,-2021.4021,-2521.9023,23569.7329
53605.333,25886.938,52139.3269,39605.8559,34648.0608,36921.4565,5071.7443,49288.854,44188.5442,55170.7149,-2012.2379,-2511.397,23574.4715
53594.7829,25887.832,52142.0985,39608.8958,34639.0754,36922.2611,5076.0359,49280.0027,44183.6268,55167.6303,-2013.3555,-2513.3193,23577.6901
53582.8024,25879.1596,52146.6583,39598.5246,34618.5565,36921.2329,5077.1087,49259.3497,44174.6861,55167.0492,-2023.4138,-2524.361,23576.6619
53583.2047,25877.5502,52147.6865,39593.2496,34618.9588,36921.7694,5074.203,49262.166,44182.8221,55170.7149,-2023.3691,-2526.015,23578.0478
53601.0861,25887.1615,52147.4183,39602.682,34641.2212,36925.3457,5075.7676,49291.5362,44195.0709,55172.4136,-2014.9648,-2517.2532,23580.2382
53609.1328,25899.8126,52147.6865,39614.5284,34657.5826,36931.7383,5081.9367,49314.7373,44199.0048,55177.1075,-2006.3818,-2511.4417,23583.2334
53604.5283,25894.2693,52145.0043,39612.4721,34649.7148,36931.2018,5081.4897,49304.0979,44192.5675,55176.2134,-2011.6568,-2513.051,23581.2664
53589.0162,25887.2956,52147.7759,39606.1689,34631.8334,36926.1056,5078.3604,49286.9318,44185.4596,55177.5098,-2026.2748,-2521.947,23579.1206
53581.6848,25887.9215,52146.3454,39608.0911,34632.951,36925.0774,5075.1418,49290.508,44180.2293,55178.0015,-2027.75,-2524.0034,23577.4219
53592.1454,25895.2528,52144.0208,39614.9307,34659.4602,36931.3806,5075.1418,49307.2271,44196.6802,55183.3659,-2016.9765,-2510.637,23578.6289
53596.5711,25894.5376,52139.1481,39618.1941,34664.8246,36928.2961,5071.0738,49307.9871,44204.5033,55179.9685,-2013.1767,-2511.4417,23575.5891
53588.4351,25894.5376,52137.2706,39615.5119,34643.3669,36930.8442,5066.2458,49293.5479,44191.3158,55171.6089,-2024.4867,-2521.3659,23569.867
53575.4263,25888.145,52136.2424,39605.4536,34620.747,36928.9219,5059.2273,49276.4711,44177.2342,55160.2095,-2040.9822,-2535.4475,23562.4015
53594.5147,25892.0789,52137.7176,39611.2204,34627.0502,36935.7616,5062.7589,49288.2282,44185.4596,55163.0259,-2034.9473,-2529.8148,23565.8437
53628.5788,25906.5628,52145.049,39624.0056,34652.4864,36951.5866,5070.895,49317.8219,44201.7317,55171.8771,-2016.44,-2514.0792,23575.7679
53633.1832,25910.1391,52150.0111,39623.0221,34664.6011,36951.4972,5074.8736,49332.8869,44211.9241,55174.4699,-2011.2544,-2508.4019,23579.2547
53618.3417,25909.3791,52147.8653,39619.8481,34661.4718,36947.0268,5072.0125,49324.4827,44210.7171,55173.263,-2019.8822,-2513.9004,23577.4666
53594.023,25898.0691,52147.1947,39608.4487,34634.2027,36940.7684,5065.5752,49312.1445,44201.4635,55165.9316,-2034.9473,-2526.2386,23572.1916
53595.9899,25900.349,52152.9168,39614.8413,34637.9578,36943.8976,5070.895,49324.4827,44205.0397,55174.1123,-2027.3924,-2517.2979,23579.1206
53621.5603,25910.1838,52153.3638,39627.7159,34664.0199,36956.951,5075.7229,49349.7849,44220.4177,55178.8956,-2009.9133,-2502.3669,23586.9884
53632.2892,25915.9952,52155.2414,39633.1698,34682.0354,36958.5156,5077.824,49367.5321,44228.1961,55181.4437,-1999.2739,-2493.6497,23593.1575
53615.883,25905.937,52153.2297,39624.8996,34671.5748,36948.815,5074.963,49346.6109,44219.8813,55185.3329,-2013.4002,-2502.9033,23589.313
53594.2465,25894.1799,52148.7147,39613.6791,34643.5457,36935.7616,5072.5937,49319.7441,44210.3148,55177.1969,-2030.611,-2516.5379,23581.0429
53600.6391,25899.0526,52144.1549,39610.0134,34645.5574,36931.2465,5068.6598,49316.1231,44204.1904,55174.2911,-2035.0367,-2521.5447,23579.21
53614.229,25905.624,52143.6185,39614.3496,34669.0267,36938.4438,5073.8007,49335.6138,44218.272,55182.7848,-2015.8142,-2506.9714,23582.4734
53618.8334,25900.9302,52144.1102,39621.0551,34679.845,36937.1921,5076.3935,49347.4603,44231.1019,55187.2104,-2005.2195,-2500.8023,23583.2334
53608.0152,25888.2344,52140.3998,39608.0911,34659.192,36926.2844,5071.2973,49332.3952,44217.6908,55183.1871,-2021.1339,-2517.879,23575.4102
53597.1522,25875.2257,52138.9246,39598.2116,34637.779,36917.8802,5067.2293,49312.368,44211.3429,55176.6604,-2030.8793,-2529.0102,23568.8388
53590.4467,25872.9905,52135.7954,39591.4614,34638.1813,36918.059,5066.4246,49315.2738,44216.9309,55171.3407,-2031.2369,-2529.5019,23567.8107
53613.0667,25881.35,52135.0801,39600.0445,34663.0365,36926.6421,5070.3585,49341.917,44235.1699,55179.1638,-2018.1388,-2519.8907,23573.041
53622.6332,25887.5638,52136.2424,39606.8841,34677.7439,36926.1056,5070.8503,49348.5332,44228.4644,55185.6458,-2013.132,-2515.7779,23569.9117
53603.7683,25884.4793,52132.0403,39598.9269,34666.8363,36921.9929,5069.7774,49329.2212,44216.5285,55180.1473,-2023.1456,-2525.0316,23565.1284
53587.8986,25874.9574,52125.8712,39584.89,34639.5671,36920.5624,5064.8153,49303.5167,44206.6938,55173.6653,-2036.4225,-2534.7769,23560.0322
53587.8539,25869.9507,52127.9275,39578.9444,34643.6352,36922.574,5061.5072,49302.8462,44203.9669,55170.9831,-2037.7636,-2532.2735,23560.4346
53603.9472,25876.7456,52131.4144,39590.8803,34662.0977,36920.7412,5061.8201,49329.9812,44217.8249,55182.2484,-2025.5148,-2520.1142,23569.3753
53613.916,25884.971,52137.7176,39597.6305,34667.2386,36925.4351,5066.2905,49348.9802,44226.8997,55186.1376,-2020.8657,-2511.397,23574.0244
53606.0929,25885.0604,52140.981,39589.8968,34664.6905,36923.4234,5069.4197,49338.2514,44221.7141,55182.2484,-2027.2136,-2519.2648,23571.2975
53593.6207,25876.3433,52139.8187,39578.855,34650.0278,36917.2096,5067.9892,49320.0123,44209.8677,55177.6439,-2039.3282,-2530.0384,23569.6435
53591.1173,25877.4161,52138.6117,39581.7608,34645.3786,36921.0541,5071.342,49319.8782,44207.9008,55185.7352,-2041.2058,-2529.1443,23575.0526
53600.4156,25880.8136,52137.2706,39596.0659,34669.0714,36923.5128,5074.1136,49336.0162,44220.1495,55189.2668,-2023.682,-2516.3144,23577.556
53610.5633,25883.6746,52139.2822,39610.9968,34685.0306,36930.9336,5078.271,49349.606,44230.3866,55189.6691,-2015.3224,-2505.2726,23579.5677
53593.9336,25883.8534,52140.4445,39602.5479,34670.5019,36931.6936,5078.271,49338.0278,44220.373,55185.6458,-2023.235,-2515.1521,23576.4831
53575.024,25872.9458,52140.0869,39587.5275,34642.1599,36923.9151,5071.6102,49309.8199,44211.6112,55178.8509,-2037.9424,-2525.0316,23571.7446
53580.1649,25872.0517,52139.1034,39591.6402,34641.6682,36928.6984,5069.8668,49314.1562,44216.9309,55175.4981,-2036.646,-2524.6292,23570.4035
53601.0414,25879.8301,52136.6894,39609.0299,34670.0549,36939.0696,5073.6666,49334.228,44222.5188,55176.6604,-2018.6752,-2517.7896,23571.6552
53608.7751,25884.077,52139.2375,39611.3545,34679.9791,36940.679,5077.4664,49337.2679,44230.4313,55183.5895,-2012.7743,-2510.4135,23575.9467
53602.7402,25878.7572,52143.3055,39604.5595,34667.5068,36937.3709,5075.2312,49332.0376,44220.7754,55179.745,-2022.0727,-2517.0296,23569.5988
53580.2096,25871.0682,52140.8468,39594.5907,34640.9529,36931.0677,5072.996,49316.7937,44206.4255,55171.5642,-2038.2553,-2531.603,23566.3801
53577.7509,25866.4638,52140.3104,39592.2661,34650.2513,36929.816,5069.8221,49315.2738,44206.2914,55174.0676,-2039.5964,-2528.1608,23567.1401
53596.6158,25871.4706,52140.0422,39600.1339,34669.8314,36935.1804,5070.3138,49326.6732,44220.8201,55183.9471,-2026.1407,-2515.2862,23573.7115
53609.401,25871.9176,52140.0422,39600.3127,34672.0666,36938.1756,5073.9795,49344.0628,44221.2224,55185.914,-2020.5528,-2510.9947,23576.6619
53604.3942,25871.3812,52140.3998,39601.6091,34658.0744,36935.7169,5072.5937,49336.5973,44212.4158,55179.8791,-2028.8676,-2518.9072,23574.7397
53578.3321,25865.1227,52136.153,39589.1368,34641.4447,36931.3806,5067.4081,49313.7985,44200.3906,55167.5409,-2043.7092,-2531.0665,23567.8107
53582.0872,25862.9769,52133.5155,39584.7112,34646.5409,36932.9005,5069.7327,49312.9492,44209.6889,55176.2134,-2042.6363,-2529.9042,23568.8388
53600.1921,25866.8214,52134.8119,39593.786,34671.7536,36937.1474,5074.5606,49327.0755,44222.2059,55186.3164,-2027.4818,-2518.326,23574.3821
53611.3679,25872.2752,52134.7225,39605.0513,34682.8848,36942.7353,5075.41,49332.8869,44225.5139,55182.2484,-2022.0727,-2509.5642,23575.1867
53598.1804,25872.1858,52134.0519,39599.5975,34667.1492,36942.4224,5071.0738,49324.3039,44222.5188,55177.1522,-2032.8015,-2520.6506,23570.9399
53584.3223,25866.9108,52138.8352,39588.8686,34645.9597,36931.7383,5069.0621,49313.4856,44214.9639,55176.9733,-2046.4808,-2534.2405,23568.4812
53583.6518,25864.1392,52140.2657,39587.4828,34652.3523,36928.9219,5068.3022,49316.6149,44217.3332,55173.8888,-2043.4856,-2527.8479,23568.1683
53606.4059,25875.6727,52141.6962,39598.4799,34677.431,36940.0531,5071.2973,49346.298,44236.1981,55181.5331,-2028.8229,-2512.0676,23575.4102
53619.2805,25881.5736,52142.5009,39605.7665,34686.8187,36945.7752,5074.9183,49357.295,44242.2777,55189.8479,-2019.8822,-2507.1055,23576.1255
53611.5021,25874.5551,52137.4941,39596.3788,34672.2901,36937.8626,5070.8055,49343.5711,44236.6898,55186.1823,-2030.924,-2514.6604,23572.1022
53601.1308,25867.0896,52137.8964,39590.7015,34652.3076,36932.8111,5069.4644,49321.4428,44227.8832,55181.2649,-2048.4477,-2524.361,23568.66
53599.5662,25871.5153,52140.9363,39589.0921,34653.6934,36936.1639,5072.1914,49323.0522,44230.4313,55184.707,-2044.8714,-2522.3494,23570.4482
53614.0501,25880.4113,52139.9081,39602.3244,34672.6477,36938.3991,5073.5772,49355.7751,44242.9483,55190.6526,-2027.9288,-2508.1784,23576.9302
53619.7275,25883.5852,52138.1646,39606.5265,34679.3532,36937.7285,5074.2477,49366.6381,44246.3458,55197.8052,-2025.3807,-2502.4116,23580.0147
53606.7635,25877.9079,52137.4047,39595.3506,34661.4718,36931.9618,5072.996,49352.6459,44238.0309,55193.5136,-2028.6888,-2512.6487,23576.2149
53590.4467,25871.8729,52137.0471,39584.3089,34640.5506,36925.0327,5069.375,49330.92,44228.7773,55182.7848,-2044.0668,-2528.9655,23570.7164
53598.9404,25869.8612,52138.0305,39588.2428,34644.6633,36928.162,5066.4246,49339.8607,44226.855,55177.7333,-2044.2009,-2528.9655,23569.3753
53612.3514,25869.146,52131.9956,39591.5061,34662.3659,36931.6936,5062.9377,49372.5836,44232.9347,55177.1522,-2036.9589,-2519.7566,23567.766
53618.6546,25873.2587,52129.9839,39596.1553,34672.4242,36934.7781,5064.8153,49382.2396,44239.819,55181.8907,-2030.924,-2516.5379,23566.559
53610.1609,25869.4142,52134.0519,39597.1388,34662.4553,36928.4749,5065.307,49371.5554,44238.0756,55184.0812,-2035.8413,-2522.6623,23564.8602
53593.3077,25861.0994,52136.6894,39585.8288,34642.1152,36929.9054,5062.7142,49349.4719,44227.1233,55183.0083,-2050.9511,-2538.8002,23561.3286
53602.5167,25868.9225,52138.9246,39597.3623,34650.5642,36938.5779,5067.1399,49353.7188,44230.029,55180.6837,-2047.7772,-2535.9392,23564.145
53623.4379,25884.0322,52142.8585,39605.6324,34673.7206,36944.434,5069.5091,49377.1434,44252.5595,55185.5564,-2030.0746,-2521.7235,23570.5376
53627.8188,25890.1566,52144.5125,39612.785,34685.6117,36945.9093,5072.3255,49398.7352,44273.7937,55195.5253,-2019.3905,-2512.604,23575.142
53622.9908,25886.8933,52145.3172,39612.5615,34669.6526,36946.1775,5075.4547,49391.4485,44271.2903,55195.7488,-2026.4536,-2516.3144,23575.0079
53604.3495,25876.4327,52144.289,39594.1436,34645.1551,36934.5993,5071.789,49368.1133,44256.4487,55183.1424,-2042.9939,-2528.6078,23569.0624
53612.709,25879.5619,52144.2443,39601.2962,34656.4204,36941.8859,5074.6948,49375.087,44256.9852,55181.7566,-2038.2553,-2524.4504,23569.4647
53639.1735,25887.0721,52143.5291,39617.3894,34686.2823,36951.0502,5076.1253,49403.0714,44268.2058,55188.8645,-2021.9833,-2511.6652,23573.6668
53646.4155,25893.9564,52146.4348,39623.6479,34696.2959,36956.057,5079.3439,49415.4543,44276.2524,55195.123,-2013.2661,-2505.7197,23577.2431
53632.4233,25892.8388,52147.0159,39621.8598,34683.0189,36955.3864,5081.4897,49401.3727,44267.6246,55194.8994,-2020.5528,-2510.4582,23572.9516
53602.5614,25877.8632,52142.188,39605.9453,34653.7828,36943.6741,5075.1418,49379.1103,44254.2583,55184.9306,-2042.1445,-2527.2667,23566.1566
53605.2436,25870.0848,52138.0305,39601.6538,34652.2629,36939.7849,5070.3585,49378.8421,44252.8278,55184.3941,-2042.8151,-2530.0384,23566.559
53625.4048,25872.5435,52139.1928,39610.6839,34673.0053,36944.7917,5067.274,49398.6458,44261.5002,55187.2551,-2028.7335,-2519.6224,23569.4647
53631.8421,25878.1314,52139.6846,39613.9026,34683.2424,36947.4739,5062.1331,49408.1229,44269.6363,55189.7585,-2026.8112,-2517.432,23568.1236
53613.3796,25876.1197,52134.4095,39604.9619,34662.9918,36938.1756,5056.8134,49394.2648,44261.5002,55181.0414,-2040.2223,-2529.5019,23561.9098
53599.5662,25866.5979,52131.1462,39591.1038,34643.3222,36931.9618,5053.7288,49377.0987,44248.8045,55170.0443,-2058.4166,-2545.1481,23555.2043
53601.5779,25867.8496,52134.3648,39594.1436,34648.5525,36935.6275,5060.3002,49379.4233,44252.6042,55168.5244,-2056.6732,-2539.0238,23555.3384
53623.2144,25878.2655,52143.6632,39610.4157,34678.9062,36946.2222,5068.168,49407.8994,44265.3447,55186.4952,-2034.5449,-2521.2765,23564.0556
53626.7459,25887.8767,52145.0937,39619.1776,34688.0704,36953.6877,5069.7327,49421.9363,44274.3748,55190.8314,-2025.8725,-2516.225,23567.4977
53617.7158,25886.5803,52139.8634,39607.8676,34667.1045,36944.9258,5068.8386,49406.7818,44267.6693,55183.7236,-2039.7305,-2521.9917,23562.2674
53606.8976,25877.9973,52141.6515,39605.4983,34649.8489,36943.6741,5069.6433,49390.7332,44262.439,55184.9306,-2048.9395,-2527.982,23564.6367
53603.6789,25877.3267,52142.9926,39604.9172,34655.2134,36946.9374,5068.3022,49396.1424,44265.5236,55186.227,-2046.8831,-2529.0549,23567.2742
53622.6332,25889.7543,52147.6865,39614.7519,34683.5554,36954.7158,5070.3138,49425.6467,44285.1037,55195.0336,-2028.7782,-2509.0724,23574.4715
53627.8635,25886.7145,52146.0772,39620.2952,34692.3172,36958.4709,5071.5208,49438.1189,44282.645,55198.6098,-2021.4915,-2502.9927,23576.2596
53629.9199,25879.696,52151.4416,39623.6926,34686.1482,36962.7625,5074.8736,49426.5407,44272.989,55194.0054,-2026.2301,-2509.6983,23574.7844
53605.1989,25868.2072,52145.5407,39604.0678,34658.0744,36946.9374,5066.8269,49392.7002,44257.611,55184.26,-2047.7772,-2524.6739,23565.3967
53596.9734,25864.8545,52141.0704,39595.7083,34654.3193,36945.5069,5062.0437,49386.0841,44258.8627,55189.6244,-2046.2126,-2524.4951,23564.9943
53618.4758,25878.8913,52140.3104,39607.2417,34676.984,36950.3796,5066.3799,49415.6331,44269.7257,55194.7653,-2030.2534,-2510.4135,23573.2198
53622.0968,25877.5055,52138.3882,39610.5498,34678.3698,36947.608,5063.6083,49428.9994,44270.9327,55195.0783,-2027.2583,-2509.8324,23569.0624
53606.3612,25867.4026,52136.7788,39601.1621,34660.4437,36943.9423,5059.6744,49412.8168,44258.0581,55187.6128,-2039.9094,-2521.1424,23560.4346
53597.3758,25859.0877,52134.3648,39589.1815,34641.3553,36937.952,5057.9309,49391.1356,44240.2214,55181.2649,-2055.7344,-2533.3017,23557.8865
53601.6673,25861.9487,52134.499,39589.3604,34642.6517,36938.8908,5059.2721,49387.5146,44246.8822,55181.4884,-2053.7674,-2533.4358,23561.3286
53616.1512,25867.6708,52136.7341,39595.9318,34658.3426,36943.6741,5061.5966,49414.1579,44264.6295,55182.1589,-2042.7257,-2522.4835,23565.0837
53627.6847,25872.767,52139.5504,39606.7053,34673.2289,36948.0103,5060.3449,49433.1568,44274.2854,55185.8246,-2034.992,-2513.4534,23566.7825
53617.4923,25873.5269,52137.1365,39605.7665,34663.1259,36943.7635,5058.5568,49420.1034,44258.7733,55184.4388,-2042.3681,-2524.2716,23562.8039
53600.1921,25865.6144,52132.2638,39597.0494,34638.8519,36938.9355,5053.4606,49405.5748,44243.2612,55175.0511,-2054.6615,-2538.5767,23554.6231
53597.2863,25860.5182,52128.6875,39593.2049,34643.1434,36938.6673,5051.5383,49407.6759,44247.6422,55181.2649,-2057.8802,-2539.5602,23554.489
53611.2338,25870.0848,52129.3133,39603.6655,34659.4155,36943.987,5054.4441,49429.2676,44265.9706,55192.4407,-2046.9278,-2528.2949,23562.4462
53620.5322,25871.4706,52132.7108,39612.1144,34661.8742,36948.2785,5056.0981,49435.1685,44269.2339,55191.6361,-2038.5683,-2522.4388,23562.2227
53611.6362,25868.2072,52133.6049,39607.5547,34654.3193,36943.2271,5054.1759,49422.1151,44264.5848,55192.3066,-2039.9541,-2524.9869,23561.7757
53595.1853,25861.3676,52126.4076,39591.1932,34633.0404,36935.2698,5048.9455,49404.0549,44252.9172,55182.7848,-2056.0026,-2539.739,23554.1761
53585.6187,25859.803,52125.9159,39580.062,34625.1279,36929.2796,5046.4422,49399.9422,44258.1922,55181.4884,-2061.367,-2540.1413,23551.7174
53604.7965,25869.2354,52132.1297,39595.0377,34651.0559,36934.1075,5051.2701,49431.4581,44269.0551,55186.4952,-2045.6314,-2526.0597,23558.4676
53611.3679,25871.2023,52132.979,39602.7267,34655.8392,36935.851,5054.0864,49448.0431,44271.4244,55190.8314,-2040.9822,-2523.1987,23559.1382
53602.3378,25868.2072,52132.5767,39598.1669,34640.193,36934.5099,5052.6559,49428.463,44259.4886,55188.8198,-2050.1912,-2534.1511,23553.3267
53585.887,25857.1655,52133.6049,39587.304,34622.4457,36929.9948,5051.1807,49403.3396,44250.0114,55181.1755,-2063.5575,-2545.774,23550.2422
53590.1338,25857.6572,52137.36,39591.5955,34624.4127,36931.9618,5051.2254,49402.8926,44256.8064,55185.3776,-2057.8802,-2545.5058,23554.1314
53615.436,25867.8496,52145.0937,39611.8909,34657.0015,36945.3281,5058.7803,49432.5757,44278.0405,55193.7819,-2040.7587,-2525.3445,23566.7378
53625.8966,25877.9973,52146.5689,39623.2903,34669.8314,36952.4807,5060.1214,49450.5018,44282.7791,55194.6312,-2033.4721,-2515.465,23571.074
53614.5419,25871.9176,52144.3337,39612.2932,34648.1055,36943.54,5057.8862,49438.1636,44274.8219,55190.0268,-2040.8034,-2525.6127,23567.3636
53597.9569,25859.5347,52142.3221,39593.1602,34627.4078,36933.2582,5055.2487,49415.6331,44262.7072,55187.3446,-2055.8685,-2538.1297,23561.8651
53599.4321,25859.5794,52144.5572,39595.5741,34638.0025,36940.9025,5058.9144,49420.774,44268.921,55185.2882,-2051.9793,-2532.497,23565.8437
53611.9044,25869.5036,52144.7361,39606.3477,34665.6293,36949.0832,5064.1447,49447.1043,44288.2776,55193.2007,-2032.8909,-2513.9898,23569.6882
53617.537,25876.4327,52143.1267,39610.8627,34676.9392,36950.3796,5064.86,49464.7622,44290.3787,55191.9937,-2022.8773,-2504.915,23570.9846
53612.0385,25879.0255,52145.6301,39602.1008,34658.9684,36946.4457,5063.4742,49454.4804,44279.6499,55194.9888,-2030.164,-2511.0841,23570.0905
53598.4933,25872.0517,52146.1666,39597.7646,34640.4612,36945.9987,5064.1447,49429.8041,44279.3816,55191.6361,-2044.1562,-2526.9091,23567.8554
53598.538,25874.6892,52145.9877,39602.8161,34647.1667,36951.4525,5068.7939,49435.0344,44282.9132,55192.7984,-2041.921,-2524.0481,23572.0128
53613.022,25886.4909,52147.2394,39612.5615,34671.8878,36958.158,5071.9231,49460.6048,44293.9997,55200.5768,-2028.0182,-2509.3853,23576.4831
53628.2659,25894.8952,52154.1685,39622.2174,34681.8119,36962.7625,5077.4664,49476.5192,44306.4719,55209.741,-2016.7977,-2499.1035,23579.5677
53624.2872,25894.0905,52160.2035,39623.0668,34667.7303,36963.8801,5080.4615,49466.9974,44299.6323,55208.1317,-2022.8773,-2502.9033,23578.0925
53608.6857,25891.6318,52156.8954,39609.8793,34643.1434,36954.4029,5077.5558,49449.3395,44288.7247,55200.8897,-2039.82,-2522.7517,23572.5045
53615.0783,25888.5026,52153.945,39613.3214,34646.9879,36959.5885,5081.7132,49460.5601,44291.0492,55200.1745,-2039.9541,-2524.7186,23573.4433
53633.4068,25886.3121,52150.5922,39618.507,34664.3776,36960.0803,5077.5558,49476.251,44295.7431,55200.2192,-2026.4983,-2511.6205,23573.4433
53632.3339,25883.4511,52148.4464,39616.853,34663.8411,36954.3582,5067.5869,49469.7243,44296.8607,55200.8897,-2032.8462,-2513.364,23569.1518
53613.8713,25879.4725,52145.5407,39604.9619,34644.3951,36949.1279,5065.0388,49444.1986,44278.7558,55196.0617,-2047.6878,-2529.2784,23561.5969
53595.4088,25866.5085,52146.5689,39588.1087,34615.8296,36935.9404,5062.2672,49415.6778,44271.7373,55187.2998,-2057.1649,-2543.2259,23556.7689
53597.5546,25867.8943,52148.5806,39587.5275,34618.5118,36928.9219,5059.7191,49417.6447,44275.403,55181.8907,-2056.6285,-2542.913,23557.0818
53614.0949,25870.0848,52147.1053,39604.2466,34647.6138,36936.6109,5063.8765,49447.9984,44286.1319,55190.6079,-2038.3,-2526.2386,23561.5522
53612.709,25871.2918,52139.1034,39609.5663,34658.5214,36941.2154,5062.2672,49459.1743,44291.0492,55193.0666,-2030.4769,-2519.1754,23562.9827
53599.1192,25864.5862,52132.8896,39598.0775,34647.0326,36936.9686,5058.4674,49449.876,44282.4215,55187.0763,-2037.853,-2527.4903,23557.5736
53585.2611,25861.5911,52133.1578,39592.0873,34635.0074,36930.6654,5057.2157,49435.0344,44269.7257,55181.3096,-2052.5604,-2539.0238,23557.8865
53592.0113,25870.2636,52136.0636,39596.9152,34638.0919,36940.4107,5062.9377,49447.0149,44271.782,55185.6011,-2051.9793,-2531.3795,23559.7193
53615.7042,25885.731,52142.2774,39616.3613,34663.7964,36951.3631,5070.4479,49476.4745,44291.1834,55205.1365,-2027.7947,-2512.7381,23570.4482
53621.0686,25882.3782,52140.221,39617.7471,34665.5846,36948.5021,5067.8551,49481.2578,44296.2348,55204.8236,-2022.6538,-2509.4301,23569.3306
53619.4593,25882.1547,52142.5903,39615.9142,34651.2794,36949.3961,5068.1233,49462.08,44290.3787,55198.5204,-2031.7286,-2515.1074,23565.2179
53602.9637,25872.8117,52143.2161,39606.2136,34632.7275,36944.9258,5065.0835,49437.3143,44274.0172,55190.8761,-2049.2971,-2529.2784,23557.6183
53603.5001,25870.7106,52146.2113,39600.6256,34634.9627,36938.7567,5064.1447,49438.3425,44272.1844,55196.6876,-2047.956,-2528.742,23559.9428
53625.6731,25881.35,52146.703,39612.3827,34658.879,36945.9987,5067.3187,49452.2452,44285.8189,55206.5223,-2028.9123,-2512.5593,23566.8719
53634.9714,25883.8534,52147.5524,39619.7587,34667.6856,36949.0385,5068.3469,49461.633,44292.3009,55208.7575,-2019.5246,-2506.1667,23568.4365
53624.3767,25878.489,52145.1384,39613.8132,34655.4369,36940.9919,5063.2507,49447.462,44281.0357,55198.5651,-2029.4935,-2518.9966,23564.0556
53596.9734,25868.386,52142.2327,39599.6422,34625.3961,36933.0794,5056.8134,49428.5524,44264.5401,55188.3727,-2045.7208,-2537.5038,23555.7854
53607.2999,25874.0634,52146.4348,39600.268,34625.5749,36937.8626,5057.0369,49432.978,44269.5469,55192.2172,-2049.4312,-2533.1676,23556.8583
53636.4913,25888.8602,52146.1219,39619.4905,34656.1074,36949.4855,5057.9309,49462.2141,44277.4147,55196.6429,-2037.8977,-2521.1424,23561.4181
53647.9801,25893.1965,52143.1714,39625.4361,34671.3066,36957.7557,5060.0767,49467.7573,44284.2096,55203.6166,-2031.2816,-2514.3921,23564.7261
53634.122,25887.6979,52141.2045,39614.3496,34651.95,36954.6264,5059.7191,49448.0878,44277.3253,55200.3086,-2040.9822,-2523.154,23561.6863
53618.8781,25876.8797,52146.8818,39603.5314,34623.2504,36947.8315,5056.9028,49429.9382,44271.6926,55192.1725,-2058.1931,-2536.0286,23555.4278
53620.9792,25879.9642,52150.9945,39601.8773,34629.643,36955.0735,5058.0651,49441.2035,44273.3914,55194.4524,-2059.0872,-2535.2687,23557.35
53631.6186,25886.178,52150.324,39606.8841,34649.1784,36963.7012,5057.1263,49463.4211,44282.5109,55197.984,-2046.0784,-2519.6671,23560.6581
53629.8305,25884.1664,52144.7808,39615.2437,34657.5826,36961.0637,5057.6627,49467.2209,44277.5935,55191.4573,-2039.5517,-2515.5544,23562.2674
53623.9296,25882.3335,52148.4911,39607.2417,34648.1949,36956.1911,5059.4062,49459.7107,44272.2738,55192.5302,-2044.6926,-2519.6224,23563.6532
53614.5419,25876.5668,52148.5358,39594.2777,34633.9792,36949.7538,5056.5451,49442.7681,44262.886,55190.295,-2051.4876,-2530.4854,23561.3734
53614.1396,25869.1907,52148.8935,39594.4566,34642.7411,36946.6245,5060.6132,49445.6291,44254.0348,55190.295,-2048.6265,-2529.3678,23563.2956
53633.2726,25876.5221,52155.0626,39607.197,34670.189,36953.9559,5068.8386,49470.8866,44276.2077,55206.6118,-2029.3593,-2510.5923,23571.7893
53626.0307,25881.8865,52151.8886,39608.8064,34671.9325,36950.469,5072.549,49481.2131,44275.8054,55208.4893,-2025.7384,-2505.7197,23574.1585
53609.848,25881.7077,52152.738,39605.4536,34657.672,36950.7372,5077.4217,49461.3647,44260.3827,55203.1696,-2034.232,-2514.8839,23571.3869
53596.1241,25877.6844,52153.9897,39601.2515,34647.2561,36944.6576,5078.3157,49437.1802,44240.7131,55195.3465,-2044.1562,-2525.0316,23568.4365
53587.9433,25881.8418,52155.152,39602.235,34648.4631,36941.2154,5078.9416,49431.4581,44240.7131,55196.5535,-2040.4905,-2521.9917,23570.8505
53598.1804,25888.2791,52153.2297,39613.3661,34678.4592,36947.3398,5080.5956,49444.3327,44245.0941,55198.878,-2027.3924,-2512.0676,23572.4151
53601.3991,25899.0526,52156.4484,39621.5469,34688.9198,36947.7868,5087.167,49442.6787,44248.715,55200.8003,-2020.2845,-2505.5856,23575.3208
53591.0279,25897.3539,52158.0577,39610.0134,34674.4806,36944.2105,5088.9999,49417.5106,44245.1835,55197.5816,-2027.1242,-2508.8042,23576.7514
53569.5255,25890.6484,52152.6933,39591.372,34650.3407,36931.9171,5084.1272,49383.536,44224.1281,55189.6244,-2047.0172,-2528.8314,23566.1119
53565.2786,25884.524,52148.5358,39586.3652,34642.7858,36928.9219,5080.4615,49370.0355,44214.9192,55184.6623,-2056.8073,-2534.1064,23559.764
53580.7461,25887.0274,52144.6913,39596.2447,34663.3047,36931.2465,5080.7297,49371.6896,44220.1942,55184.9753,-2043.6645,-2524.808,23560.3452
53589.9103,25893.2859,52144.289,39600.6703,34675.9558,36929.7713,5081.5344,49372.8966,44216.9309,55183.5895,-2035.3049,-2519.3095,23562.0439
53570.7772,25893.3306,52142.0091,39589.5392,34656.3309,36920.4283,5074.0242,49357.2503,44196.1884,55173.8888,-2051.6664,-2532.4076,23554.6231
53553.3428,25891.9895,52140.8468,39583.5042,34638.6731,36917.7908,5072.0572,49331.5011,44178.9776,55163.1153,-2067.7596,-2545.2822,23548.8564
53559.5119,25894.4035,52139.4163,39584.89,34646.1385,36924.8986,5073.5325,49326.852,44181.2575,55162.9812,-2063.0211,-2538.6661,23553.0585
53580.8802,25898.6503,52137.9411,39597.0047,34664.2435,36928.1173,5074.4265,49337.1785,44192.031,55173.8888,-2047.956,-2527.8479,23557.7524
53580.9249,25899.6785,52139.014,39598.9716,34673.4524,36929.5925,5074.0242,49339.503,44186.8007,55173.8888,-2046.2573,-2529.3678,23556.9477
53569.0784,25896.0128,52139.5057,39597.2729,34665.2716,36930.3524,5077.3323,49330.6965,44181.3916,55172.5477,-2052.1581,-2531.3795,23559.0935
53555.0416,25892.6153,52143.3949,39594.6801,34646.0491,36928.5643,5081.2215,49304.6343,44174.4626,55168.7479,-2056.852,-2533.704,23561.8204
53557.8579,25891.8107,52146.4348,39596.6023,34644.1716,36928.5643,5082.8755,49297.0347,44182.7327,55167.3174,-2048.9842,-2530.1725,23565.352
53573.817,25891.9895,52144.9596,39603.3973,34658.879,36933.8393,5082.2496,49310.6693,44188.9465,55171.0278,-2029.717,-2521.0977,23564.5026
53575.0687,25894.2693,52146.1219,39608.0017,34667.6409,36935.3592,5085.513,49313.3515,44190.0194,55175.2746,-2016.9318,-2514.9286,23568.3024
53567.1115,25884.7028,52146.8818,39599.3739,34661.3377,36935.6275,5083.9484,49300.7451,44182.8668,55176.2134,-2028.3759,-2521.6788,23568.8835
53550.303,25883.317,52146.7477,39582.2078,34632.4593,36926.5527,5079.8804,49280.1815,44173.7026,55170.849,-2049.0289,-2530.1725,23566.246
53552.8511,25885.0157,52145.4513,39581.5372,34621.3281,36921.7694,5077.1087,49280.3603,44178.2624,55172.1901,-2048.5818,-2527.4009,23565.1731
53574.0852,25894.3588,52149.2958,39594.2777,34645.0657,36930.6207,5080.9085,49299.6722,44187.203,55176.0793,-2033.2485,-2515.9568,23568.9729
53588.2115,25893.9564,52153.3638,39604.0678,34658.2085,36932.0065,5081.4003,49302.9356,44197.9766,55179.5214,-2020.6869,-2506.4796,23570.4482
53578.3768,25889.3073,52151.7992,39598.7481,34650.3854,36930.3524,5077.6452,49290.0163,44185.549,55177.8674,-2025.6937,-2513.811,23568.3024
53566.888,25882.9594,52150.7263,39585.7841,34628.8383,36925.9715,5077.5558,49262.2554,44170.0816,55170.0443,-2036.2437,-2524.0481,23567.2295
53567.6926,25877.9526,52149.6534,39582.6101,34626.8713,36923.0211,5076.9299,49259.6626,44174.239,55171.0725,-2037.7189,-2528.9655,23567.453
53588.7927,25882.9594,52147.1053,39595.8424,34643.4116,36924.3175,5077.1087,49285.5012,44190.7346,55185.0647,-2019.2116,-2517.2532,23571.9681
53600.1921,25889.4414,52147.1053,39606.0795,34653.5593,36925.5692,5076.0806,49291.6703,44195.4732,55189.535,-2010.8521,-2510.7265,23574.248
53598.7616,25891.0954,52149.0276,39604.336,34646.0044,36923.781,5078.271,49277.8122,44188.8571,55184.7965,-2018.854,-2517.2085,23572.1469
53583.3389,25882.4676,52147.6865,39590.5674,34618.2883,36921.4565,5073.6666,49256.6228,44175.9825,55178.6721,-2039.9094,-2532.4076,23566.6931
53582.4895,25881.8865,52150.6369,39586.6334,34614.0862,36925.9268,5072.549,49259.2603,44175.6696,55179.2085,-2041.1164,-2531.2901,23567.8107
53598.7169,25887.5638,52151.4863,39589.4498,34638.4943,36931.7383,5074.3371,49282.6402,44190.2429,55188.1939,-2027.0348,-2521.4553,23568.8835
53610.0715,25893.3753,52150.9945,39590.2544,34647.4797,36932.1406,5075.3206,49293.0114,44196.0543,55190.4738,-2022.2068,-2515.5544,23569.6435
