FC3,FCz,FC4,C5,C3,C1,Cz,C2,C4,C6,CP3,CPz,CP4
53935.5576,26039.0192,52261.6804,39846.7183,34843.5938,37149.8466,5005.2255,49443.2598,44100.1654,55122.4351,-1825.5115,-2406.4779,23775.816
53937.5693,26045.8589,52262.1274,39847.1653,34850.1205,37150.2489,5003.795,49448.8925,44101.2383,55123.7762,-1823.5445,-2401.9629,23779.0793
53921.6995,26038.7063,52258.7299,39844.2596,34835.5025,37143.3645,5003.8397,49439.46,44092.6999,55118.5459,-1833.424,-2411.8423,23776.3971
53902.6111,26021.2272,52255.6454,39826.3782,34810.9603,37132.6804,4994.6755,49411.2521,44071.5104,55107.5488,-1852.87,-2431.2437,23769.2446
53904.9804,26021.6296,52261.8592,39832.6814,34822.9408,37139.1177,5001.7834,49410.8051,44068.5153,55110.4546,-1845.2257,-2424.7169,23775.056
53918.7044,26030.9726,52265.3461,39847.8359,34854.2333,37146.8514,5010.9476,49439.6836,44075.4443,55114.7014,-1820.7282,-2404.511,23780.2863
53919.7326,26033.2078,52265.659,39844.349,34856.4684,37140.2353,5010.5453,49449.4736,44069.1411,55117.7859,-1820.6835,-2399.9512,23776.8441
53901.7171,26028.5586,52263.3344,39834.2013,34831.3451,37131.2946,5009.0253,49427.256,44054.4337,55117.7412,-1836.0168,-2413.9881,23770.1833
53882.2711,26021.5849,52260.831,39821.9973,34814.5366,37122.6221,5009.383,49395.1142,44033.9148,55108.2194,-1847.9973,-2426.9968,23768.3505
53887.7249,26028.7374,52267.6706,39822.9361,34822.2703,37126.0643,5014.8368,49391.1356,44036.4629,55111.5274,-1839.7272,-2421.1854,23774.1172
53900.2419,26038.0805,52271.9175,39829.0604,34845.9631,37128.3889,5021.5423,49398.6011,44049.114,55117.7859,-1826.8526,-2407.0591,23778.5876
53904.6228,26052.7879,52275.2255,39837.7776,34863.3081,37131.384,5028.829,49400.568,44058.6805,55121.4516,-1816.1237,-2399.0124,23784.3096
53888.8425,26054.7101,52280.7688,39833.6202,34853.4733,37128.4336,5036.4286,49373.6118,44048.5328,55118.8588,-1822.4269,-2403.5275,23784.6673
53862.378,26046.6188,52278.9806,39819.628,34826.83,37119.7164,5031.8688,49346.9685,44032.0373,55114.8355,-1836.2403,-2419.0396,23779.7052
53862.9591,26048.8987,52275.002,39822.4443,34831.5686,37117.4812,5027.622,49345.1804,44021.5319,55107.1912,-1832.0829,-2421.3195,23780.0628
53873.1515,26056.5877,52272.4092,39833.4861,34857.3625,37124.0973,5028.6055,49351.573,44029.7127,55108.4876,-1816.4814,-2402.9016,23782.1192
53876.549,26060.2087,52273.3927,39836.8835,34857.4519,37123.1586,5029.2313,49348.4885,44031.0985,55114.2097,-1811.4746,-2396.1514,23784.2649
53860.724,26050.9104,52267.2236,39829.1051,34838.9,37115.1567,5025.6103,49328.1931,44013.9323,55110.0969,-1823.321,-2409.3837,23780.8228
53841.6356,26040.8521,52265.3461,39822.2208,34814.3131,37106.5289,5024.0457,49303.785,43996.2745,55099.5022,-1840.3977,-2426.3263,23774.0725
53839.758,26046.8423,52262.6638,39820.2538,34814.8495,37105.5901,5025.4315,49305.8413,43993.8158,55097.6247,-1838.0731,-2423.4205,23770.3621
53858.2653,26056.4536,52259.9369,39833.799,34837.3801,37111.6251,5022.9281,49319.1183,44000.3425,55094.8083,-1822.6504,-2412.5129,23771.435
53860.1428,26056.7218,52263.5579,39840.3257,34841.761,37117.2577,5022.6599,49312.7704,44003.3376,55094.7189,-1817.4648,-2409.7413,23773.8043
53846.8212,26053.9055,52262.2168,39830.5357,34825.4442,37114.8437,5022.9281,49289.301,43992.0723,55091.8132,-1830.4288,-2421.0066,23771.3456
53836.5841,26053.0114,52262.8427,39824.6795,34813.1955,37112.0721,5026.2362,49265.2953,43982.8187,55086.8511,-1839.5931,-2428.785,23771.2115
53844.3178,26054.3525,52260.5181,39827.2723,34817.4423,37115.3802,5024.4033,49265.1612,43981.8799,55088.9075,-1834.8098,-2423.4205,23770.541
53854.8678,26052.6091,52261.5463,39836.4812,34834.8767,37118.2859,5022.7046,49289.4351,43996.6768,55092.9755,-1820.46,-2414.1669,23773.6255
53854.9125,26056.4983,52263.6473,39839.2528,34840.9116,37116.0507,5026.7726,49290.9998,44004.4552,55098.2058,-1809.5523,-2405.7627,23780.9122
53846.9553,26048.4517,52264.6755,39834.559,34827.0983,37112.3403,5022.4811,49266.8599,43989.5242,55094.0037,-1822.1587,-2416.715,23777.6488
53831.4432,26042.7743,52262.7532,39826.4229,34802.2431,37111.8039,5022.034,49244.1505,43970.4806,55087.9687,-1836.0168,-2424.6722,23774.4749
53844.2731,26044.7413,52265.5696,39833.2179,34808.2781,37111.8933,5026.862,49248.3526,43980.7624,55089.0863,-1826.0926,-2416.0445,23780.2863
53868.1895,26053.8161,52271.1575,39847.2548,34829.9146,37119.2694,5031.3324,49272.1796,43999.2696,55096.1941,-1807.8536,-2404.958,23782.9685
53872.8833,26057.7947,52268.1177,39847.7465,34831.1216,37114.4861,5027.0855,49274.3701,43993.5029,55093.4672,-1808.7476,-2409.339,23781.1804
53857.7735,26050.0163,52257.8359,39836.7494,34808.9039,37103.8914,5021.8999,49252.823,43981.9247,55089.1757,-1821.6223,-2423.1076,23774.7878
53841.8591,26039.198,52253.9467,39822.3102,34785.2111,37096.2918,5016.7143,49225.1515,43965.1161,55077.7763,-1837.7602,-2436.1163,23767.6352
53844.9883,26033.4313,52251.3986,39823.7854,34787.7592,37096.6047,5010.8582,49215.1827,43960.1094,55064.097,-1836.4191,-2433.0318,23762.3602
53867.8765,26041.165,52257.6571,39838.3588,34815.5648,37109.6581,5014.9709,49236.1933,43972.9393,55075.3623,-1820.7282,-2417.0727,23768.127
53871.274,26050.508,52260.2051,39840.1916,34825.6677,37112.6533,5018.1448,49250.5431,43980.4047,55088.9075,-1814.7379,-2410.0095,23776.7547
53855.6278,26046.887,52256.7183,39821.5503,34808.3228,37101.7009,5015.0603,49227.9679,43971.0617,55084.4371,-1825.6456,-2418.9949,23771.4797
53848.3858,26039.958,52257.5229,39813.3695,34783.1547,37099.8681,5015.9097,49196.3178,43963.1939,55079.1174,-1839.0119,-2431.2884,23765.0871
53863.8532,26045.0989,52261.8592,39822.7572,34791.6484,37108.7193,5019.0836,49213.2157,43971.6429,55083.1407,-1831.6805,-2426.9521,23768.1717
53886.9202,26054.4866,52265.2566,39830.6251,34819.4987,37113.9944,5023.1516,49246.8774,43993.9499,55091.2768,-1816.2131,-2410.993,23775.5924
53892.9552,26060.9239,52268.1624,39824.9924,34826.5171,37116.006,5023.2857,49250.0514,44002.2647,55095.6577,-1819.9682,-2406.6567,23776.5759
53892.9999,26062.8909,52268.7882,39823.6513,34815.0283,37116.6766,5025.8338,49232.4829,43998.7779,55096.7306,-1826.6737,-2412.8258,23780.2416
53878.5607,26052.922,52266.106,39811.2684,34790.7543,37112.3403,5024.9398,49217.4625,43990.2395,55094.1378,-1836.0615,-2422.4818,23776.5312
53881.5111,26056.4536,52267.6706,39819.5386,34798.5327,37120.7893,5027.6667,49228.8172,43991.3124,55093.2884,-1829.5795,-2416.6256,23779.6158
53899.169,26060.0746,52265.6143,39827.7193,34823.0302,37124.0526,5026.9067,49263.5965,44003.3376,55101.3798,-1815.3638,-2403.5275,23783.952
53900.376,26056.543,52260.9651,39822.1761,34825.8018,37115.1119,5023.7775,49269.4974,44003.427,55100.441,-1819.3871,-2407.5508,23778.6323
53886.7414,26048.094,52260.071,39815.2471,34814.1789,37111.6251,5019.0389,49250.1408,43994.844,55096.373,-1828.2831,-2417.0727,23773.8937
53864.6579,26032.6713,52257.21,39805.5017,34786.0605,37102.5056,5013.9874,49226.5373,43974.3251,55086.27,-1844.0187,-2429.9026,23764.0589
53864.2555,26024.6694,52255.1537,39807.3792,34788.0721,37095.3083,5012.8698,49224.7939,43980.5835,55086.9852,-1837.492,-2428.472,23762.9861
53884.4168,26031.9561,52258.4617,39819.181,34815.9224,37096.56,5015.9991,49242.0495,43999.2249,55095.2107,-1821.5775,-2412.9599,23766.607
53896.0397,26041.9697,52260.3393,39823.7407,34825.9807,37103.9361,5019.1283,49254.5664,44000.6554,55093.4672,-1820.5941,-2408.3555,23767.0988
53882.9416,26038.2146,52258.2382,39822.0867,34810.6921,37101.5221,5015.4179,49237.5791,43983.3105,55080.9056,-1835.3909,-2422.0347,23760.0356
53873.2409,26037.0076,52261.7698,39812.5201,34795.4035,37102.4609,5018.3237,49216.1214,43982.8187,55088.0134,-1839.5931,-2429.9473,23762.4049
53880.3935,26043.7131,52265.9719,39814.3083,34801.3937,37113.3238,5023.4199,49239.3225,43995.0675,55100.2622,-1830.4735,-2423.1523,23769.5575
53897.8726,26057.75,52272.1857,39835.6766,34826.2936,37130.177,5033.6123,49280.5839,44013.3959,55114.1649,-1808.6135,-2405.4497,23779.7499
53900.7336,26062.7121,52274.9126,39839.9681,34834.0273,37130.8029,5038.3508,49293.682,44017.8663,55116.7578,-1809.3288,-2399.1019,23781.0463
53892.9552,26062.4439,52273.8397,39839.2081,34824.416,37126.3772,5033.7464,49287.3341,44006.3775,55105.8054,-1822.114,-2409.6966,23776.6206
53876.6831,26060.0299,52270.5317,39834.7378,34806.8476,37124.1868,5028.4266,49266.7705,43990.3736,55096.5071,-1836.285,-2426.1475,23769.6916
53875.8337,26061.818,52269.6823,39829.9098,34804.1654,37126.2878,5028.8737,49271.5538,44000.4319,55096.7753,-1831.7699,-2421.3195,23769.781
53892.7317,26065.886,52266.9554,39834.6484,34823.1196,37128.523,5026.9514,49285.233,44017.4192,55099.7704,-1817.733,-2407.4167,23774.609
53901.583,26068.1659,52267.1342,39845.6007,34834.9661,37137.866,5026.5044,49289.7034,44019.2968,55098.8764,-1810.0888,-2402.4099,23774.609
53891.7482,26061.1922,52266.3742,39842.4715,34821.4209,37137.0614,5027.7561,49281.6567,44012.2336,55096.5965,-1819.4765,-2413.2729,23773.4467
53878.1136,26053.8161,52264.2732,39831.0721,34802.7349,37133.2169,5022.794,49266.6364,44008.6126,55088.2369,-1835.9274,-2428.2485,23768.4399
53883.478,26052.475,52268.3412,39833.6649,34811.7203,37140.0118,5021.6764,49272.6266,44018.3133,55091.4109,-1833.2899,-2422.4371,23770.228
53907.6179,26060.7451,52273.7056,39842.3821,34834.2508,37146.315,5024.6269,49303.025,44032.8419,55098.2952,-1813.2627,-2407.5508,23774.9666
53915.9328,26067.4059,52274.1973,39851.4569,34846.4102,37151.9923,5027.3091,49319.5206,44039.9945,55102.1397,-1804.5008,-2404.7792,23778.3194
53900.5995,26058.5546,52273.035,39842.4715,34830.7192,37143.2751,5025.4315,49300.2981,44027.254,55099.8598,-1820.1917,-2416.0445,23775.056
53898.6772,26055.6936,52272.4092,39833.6649,34812.6143,37134.5133,5025.2527,49276.7841,44016.6146,55094.4507,-1830.9653,-2424.1805,23770.0939
53901.583,26054.7996,52273.4821,39835.3189,34819.2304,37132.4569,5025.4762,49277.0076,44016.4357,55093.6908,-1829.4454,-2419.8443,23768.3058
53910.0319,26060.2534,52276.0302,39838.7611,34839.794,37133.798,5026.9067,49304.4108,44032.976,55109.6052,-1816.1684,-2407.6402,23776.3524
53914.0999,26070.9375,52274.9126,39842.2033,34848.1536,37134.4239,5028.069,49316.4808,44040.8885,55114.2097,-1811.7428,-2403.8851,23779.7499
53902.2535,26064.5449,52273.6609,39834.2907,34836.8883,37134.8262,5029.8572,49300.4769,44036.0159,55107.8618,-1824.2598,-2411.3953,23778.5429
53884.5062,26056.6771,52275.6279,39821.0585,34817.9787,37128.3889,5027.8455,49285.8589,44025.8682,55103.4361,-1835.9721,-2421.0513,23773.3126
53896.0397,26062.0415,52273.1692,39822.3549,34826.4724,37127.6736,5026.0574,49290.1504,44017.0169,55100.7986,-1831.1441,-2416.5809,23769.5128
53911.2389,26062.6674,52266.7319,39832.8155,34850.3441,37129.9088,5025.9233,49305.4837,44029.8915,55108.6217,-1815.5426,-2403.5722,23772.3291
53913.2059,26063.025,52267.6259,39834.7378,34854.3674,37125.5279,5029.3207,49308.7471,44035.8371,55115.6402,-1811.564,-2397.4031,23777.3806
53896.3974,26060.1193,52268.8776,39824.0536,34839.2576,37122.3539,5028.1584,49300.4769,44023.9012,55110.0969,-1824.6174,-2411.7082,23771.3009
53876.549,26049.5692,52269.6376,39817.974,34820.1245,37114.7543,5029.0972,49280.0921,44022.6942,55102.542,-1834.4969,-2425.2981,23765.3553
53892.5976,26049.6587,52272.4986,39820.5668,34832.3286,37117.7942,5033.7911,49285.0095,44032.2161,55107.9065,-1826.8973,-2421.7665,23768.1717
53911.0154,26063.7403,52274.1973,39828.3899,34852.0875,37128.1654,5039.1555,49311.3399,44045.3142,55115.1484,-1811.1616,-2404.2428,23776.8441
53917.8103,26067.8977,52272.6327,39831.7873,34854.5909,37132.0099,5041.346,49317.6877,44053.182,55122.0328,-1807.3171,-2399.5489,23779.5264
53912.3565,26069.5964,52273.5268,39829.1051,34841.3587,37127.763,5044.6093,49310.0882,44043.3025,55120.0211,-1811.3852,-2403.2146,23778.6323
53893.3575,26059.0464,52274.555,39820.0303,34818.3811,37123.1139,5041.9718,49294.7102,44027.5669,55113.7179,-1827.2549,-2412.0212,23775.2795
53905.5169,26060.4322,52281.931,39824.5901,34830.0487,37130.6241,5042.5977,49301.0134,44036.1947,55117.8753,-1819.1636,-2404.5557,23781.7168
53928.7627,26067.6295,52280.9029,39837.9564,34857.6754,37136.2567,5044.2964,49323.8121,44051.3045,55123.955,-1804.4561,-2389.133,23786.8577
53926.304,26073.4856,52278.176,39844.9302,34865.0068,37134.245,5042.5082,49331.4564,44053.3161,55126.5925,-1801.2822,-2387.2554,23790.4787
53905.7851,26067.093,52276.0302,39834.6037,34845.2032,37126.0643,5037.3673,49306.3331,44040.0392,55116.4895,-1816.7496,-2404.2428,23781.3592
53877.309,26054.7101,52269.3247,39814.2189,34819.8116,37123.5162,5030.6618,49282.9531,44018.0898,55101.2009,-1837.4026,-2420.7383,23771.7927
53885.1321,26050.7762,52267.1342,39816.9905,34824.5054,37125.5279,5027.8455,49288.9881,44023.7224,55104.8219,-1833.5581,-2414.7034,23770.4068
53914.547,26056.6771,52275.6279,39840.9516,34858.2119,37137.7766,5034.4169,49317.8666,44039.5921,55118.0094,-1813.8885,-2397.7607,23780.1969
53922.683,26056.5877,52275.4043,39840.8622,34859.1954,37136.9272,5030.7959,49327.1649,44038.6534,55114.7014,-1813.7991,-2400.443,23777.1571
53903.9075,26049.9716,52275.2702,39828.3452,34838.9894,37132.3675,5028.3819,49314.6926,44032.7525,55110.4993,-1829.2665,-2411.8423,23771.6585
53878.5607,26042.5508,52273.1692,39815.9623,34817.5317,37125.3043,5027.3538,49297.9288,44020.4591,55102.8997,-1840.1742,-2425.4322,23766.6965
53879.8124,26042.9084,52273.5268,39819.3598,34818.1129,37123.4268,5029.4995,49303.3826,44026.1364,55104.3302,-1833.1558,-2420.6489,23769.0657
53897.6938,26053.5479,52277.0584,39831.385,34842.208,37129.3277,5031.7794,49327.0755,44040.5756,55112.3768,-1817.8225,-2405.0921,23774.7431
53908.2438,26057.0347,52279.7853,39838.3588,34848.6006,37134.558,5032.6288,49336.7314,44051.6174,55112.645,-1813.9333,-2400.4877,23775.9054
53895.3692,26055.2466,52278.7124,39831.5638,34834.4743,37130.8923,5033.5228,49316.8384,44037.0888,55111.7063,-1827.7466,-2408.9366,23772.2397
53879.5888,26049.1222,52280.0982,39826.0206,34816.9953,37129.4618,5035.3557,49291.7597,44026.047,55105.3584,-1838.0731,-2416.6256,23770.3174
53894.9221,26054.7996,52281.931,39832.7261,34837.7824,37137.5531,5041.9271,49301.818,44031.4561,55109.0688,-1827.7913,-2405.3603,23779.2581
53915.2622,26066.0648,52282.4675,39848.417,34865.7221,37147.6114,5045.1458,49334.2727,44048.7117,55119.6635,-1810.357,-2388.373,23789.3164
53917.5868,26069.5517,52281.7075,39852.7086,34872.964,37149.936,5043.9388,49340.263,44049.7845,55122.9268,-1803.2044,-2384.3497,23790.0317
53909.0484,26062.6227,52281.2158,39843.5891,34860.2235,37141.1294,5040.9436,49331.2329,44044.1519,55117.8753,-1816.3025,-2391.8152,23783.7732
53892.1952,26058.8229,52282.4228,39835.6766,34832.418,37139.6095,5040.139,49308.7918,44039.1451,55112.2874,-1832.9769,-2399.4148,23781.3145
53898.1408,26063.0697,52278.7571,39831.8321,34830.8533,37137.1061,5038.0379,49311.6975,44043.5261,55116.1766,-1830.6077,-2402.5887,23779.884
53917.855,26058.8229,52270.8446,39835.9448,34853.9203,37136.0779,5036.6521,49326.8967,44051.4833,55114.2991,-1821.9352,-2396.1514,23779.0793
53920.8055,26062.0415,52273.4374,39844.5278,34867.0632,37143.6328,5037.725,49335.8821,44059.6193,55121.8092,-1815.2297,-2390.9658,23782.4321
53904.7122,26052.8773,52269.8164,39836.6153,34844.175,37138.0001,5030.6171,49319.5206,44045.3589,55120.1105,-1824.975,-2403.1252,23776.0395
53884.9533,26046.0824,52268.6988,39819.0022,34816.2353,37128.8359,5025.0739,49304.1873,44026.2705,55111.3933,-1841.6494,-2417.028,23769.6022
53884.5062,26047.8705,52272.7668,39811.3132,34821.1974,37125.3043,5024.9398,49307.4507,44035.2112,55113.0474,-1842.32,-2417.6985,23769.334
53909.0037,26053.9055,52278.9806,39827.6746,34850.9252,37133.4404,5029.7678,49330.1153,44053.4502,55119.4847,-1825.8691,-2404.7345,23774.5643
53917.8997,26058.6888,52286.8484,39833.9778,34858.7483,37138.2684,5033.1205,49336.2844,44065.3861,55130.1688,-1816.7049,-2395.7044,23779.0793
53906.858,26062.1309,52289.2177,39822.8914,34845.4267,37129.6406,5029.5442,49327.6566,44051.7515,55125.922,-1829.043,-2407.1038,23777.1124
53890.0942,26056.8112,52281.6628,39806.3958,34823.0749,37117.6153,5023.4199,49309.06,44039.0557,55119.9764,-1846.0751,-2427.0415,23768.574
53903.7734,26059.2252,52285.3732,39820.7009,34832.418,37125.9302,5029.9913,49320.3253,44052.9585,55125.4749,-1833.8263,-2414.8375,23775.0113
53921.7889,26069.2388,52288.1448,39832.1003,34856.8261,37135.1838,5036.7862,49347.6838,44077.9924,55139.6906,-1812.771,-2396.2855,23783.9073
53921.6548,26071.9657,52287.6084,39834.2907,34861.7435,37135.4073,5036.4733,49353.1823,44074.6397,55135.5332,-1814.6038,-2394.3186,23779.9287
53913.0718,26071.0269,52290.1565,39827.7193,34839.2129,37135.1838,5033.8805,49335.5691,44064.2685,55128.1124,-1826.3161,-2403.2593,23775.5924
53899.4819,26061.2816,52285.7755,39818.7339,34820.2139,37126.0196,5033.1652,49316.0784,44059.3511,55121.2728,-1842.6329,-2414.5246,23772.0609
53901.4935,26058.0182,52286.2673,39825.3947,34827.5453,37127.1819,5037.7697,49335.4797,44067.6212,55124.5809,-1837.2685,-2411.3953,23775.816
53923.5324,26073.9326,52289.4859,39845.8689,34860.7153,37142.4258,5040.7201,49360.2008,44081.8369,55132.0463,-1816.1237,-2397.269,23780.1969
53924.4264,26074.8714,52285.7755,39846.2713,34859.6871,37143.5881,5036.4733,49369.1415,44084.0721,55132.9404,-1809.1947,-2396.3302,23779.7499
53915.2622,26063.9638,52280.8582,39835.2742,34835.8154,37135.9885,5032.0029,49351.6624,44076.7854,55125.4749,-1823.8574,-2407.9531,23773.4914
53893.894,26055.5595,52276.5219,39817.7505,34814.3131,37121.1022,5024.9398,49326.539,44058.01,55111.0804,-1848.2208,-2422.4371,23766.3388
53900.1524,26061.1922,52278.6677,39819.3151,34820.9292,37126.1984,5027.6667,49342.9005,44060.7816,55116.5342,-1840.353,-2418.2796,23768.7081
53915.0387,26071.0269,52282.4675,39828.9263,34849.1371,37134.1556,5035.8474,49376.8752,44081.6134,55139.333,-1823.0975,-2401.65,23780.4651
53909.0037,26064.7684,52278.3995,39828.2558,34850.5676,37131.1158,5031.4665,49390.2415,44080.0041,55133.0298,-1822.2034,-2400.3983,23777.3359
53899.0349,26061.2816,52281.0817,39833.7543,34843.7279,37135.7203,5034.8639,49381.3008,44080.2723,55130.6158,-1825.6009,-2403.7957,23778.8558
53885.8473,26056.1854,52281.6628,39826.6017,34826.6959,37135.5414,5034.3275,49360.7819,44071.1081,55129.6324,-1840.1295,-2415.1504,23775.7266
53890.8541,26062.265,52280.4111,39829.1498,34835.6813,37140.0565,5032.0923,49366.0569,44076.9643,55128.5595,-1841.0683,-2414.7481,23773.8043
53918.1232,26069.9987,52282.0652,39842.3374,34862.5481,37148.9972,5035.8027,49386.3076,44095.3374,55136.5614,-1821.0858,-2396.9114,23779.1687
53923.5324,26072.5468,52285.3732,39844.0361,34869.7454,37150.5618,5033.8805,49383.3125,44089.8836,55137.4555,-1818.4036,-2396.5538,23775.503
53909.1825,26069.2835,52285.9991,39835.766,34852.0875,37146.1362,5035.4451,49376.6516,44080.6746,55134.6391,-1826.8526,-2405.9862,23774.8325
53896.6656,26061.9521,52283.3169,39821.5503,34828.8864,37140.0565,5033.344,49365.8781,44075.6679,55131.2417,-1841.3812,-2418.3244,23770.1386
53903.4158,26061.818,52285.4179,39827.5405,34835.9495,37144.3033,5034.7745,49367.1298,44081.3899,55138.3495,-1839.1907,-2414.3457,23772.2397
53927.0639,26072.7704,52289.933,39842.7844,34857.7648,37156.0603,5041.3013,49396.5,44098.2431,55148.4078,-1814.3356,-2393.5139,23780.3757
53931.3555,26078.8947,52289.2624,39848.2829,34863.3975,37150.5618,5042.5082,49411.9227,44093.7728,55147.5137,-1807.9877,-2389.6247,23782.8344
53915.0834,26072.4574,52285.6414,39841.8009,34853.3392,37144.4821,5040.4072,49398.6905,44080.2723,55135.6673,-1823.9915,-2404.6004,23778.5876
53903.3711,26062.578,52284.9709,39835.9895,34834.832,37142.4258,5039.1108,49378.9762,44072.9856,55126.6819,-1836.4638,-2416.4021,23777.7382
53904.3099,26062.0862,52284.2109,39836.0789,34839.4811,37145.0633,5037.8591,49380.3173,44088.2295,55133.8792,-1831.2335,-2411.1718,23778.2747
53916.4692,26062.6674,52280.9476,39842.1139,34861.4752,37148.3266,5036.3839,49402.6244,44103.4287,55135.5332,-1819.9682,-2402.4546,23779.1687
53918.2574,26053.9949,52277.416,39838.8058,34861.3858,37144.6162,5035.8027,49401.1939,44100.5677,55132.6275,-1818.8506,-2396.6432,23779.8393
53907.5285,26051.0892,52277.7289,39831.3403,34846.1419,37135.452,5030.2595,49390.1521,44078.3501,55132.3146,-1834.5416,-2410.0542,23775.7713
53894.3857,26039.958,52275.3596,39825.1712,34825.0419,37127.5842,5027.0855,49368.5603,44058.7252,55124.8491,-1847.1032,-2422.1689,23766.8753
53896.4421,26041.7014,52278.6677,39829.4181,34828.5288,37136.4355,5031.1983,49376.5175,44073.0751,55130.7499,-1837.8496,-2413.1387,23770.988
53923.8006,26050.6421,52283.3169,39842.0244,34856.0214,37145.5103,5036.0262,49398.914,44090.7776,55139.5565,-1823.7233,-2396.822,23776.6653
53934.2165,26050.061,52282.691,39844.1255,34868.7619,37152.0817,5036.8309,49398.6011,44095.0692,55139.8695,-1824.8856,-2396.8667,23776.71
53920.1349,26040.718,52280.2323,39836.213,34855.3509,37146.6279,5032.3159,49383.1784,44081.4793,55133.4321,-1838.9672,-2408.132,23769.8704
53909.0484,26040.0921,52283.138,39828.7475,34839.794,37144.0798,5030.8406,49375.3105,44075.5785,55133.7451,-1845.4492,-2415.2845,23770.4068
53917.5421,26043.4896,52288.4578,39829.284,34847.3489,37151.4559,5036.518,49388.7663,44088.006,55136.1144,-1836.0615,-2404.0192,23779.5264
53942.3078,26052.8773,52291.4082,39849.624,34875.0204,37162.8106,5043.0,49412.9062,44105.5745,55145.2339,-1814.6932,-2384.305,23791.1493
53946.1523,26050.9104,52291.7211,39855.659,34879.8484,37162.0953,5043.7599,49414.9625,44102.5794,55149.9724,-1809.4182,-2381.4887,23791.6857
53925.7675,26043.8472,52289.7094,39840.3257,34855.9767,37157.4908,5037.6356,49405.7983,44093.0575,55144.7868,-1823.768,-2393.7374,23783.0579
53910.3001,26041.8355,52290.5141,39830.7145,34836.5754,37151.0088,5039.0661,49385.5029,44077.5454,55140.987,-1834.0051,-2405.0027,23779.0793
53921.923,26043.4896,52291.4529,39835.8107,34848.3771,37153.1099,5041.1671,49393.6837,44089.3918,55148.0949,-1821.8458,-2400.6665,23781.0463
53949.8627,26052.6538,52292.7046,39850.5628,34872.0253,37160.1284,5043.4023,49424.5291,44111.3412,55151.5818,-1807.4065,-2382.8298,23787.3048
53955.7189,26053.5479,52289.173,39853.6026,34880.6977,37163.3023,5043.9388,49432.1287,44113.8446,55152.0735,-1804.6349,-2378.0912,23789.674
53931.9813,26053.4585,52283.6298,39839.7893,34866.7949,37157.5356,5041.033,49421.6681,44099.7183,55155.8286,-1819.7894,-2391.3234,23787.3495
53910.5684,26042.819,52279.3829,39833.7543,34843.7726,37146.6279,5036.4286,49404.5019,44076.2043,55142.0599,-1835.7486,-2408.0873,23778.8111
53917.5868,26045.7695,52283.9874,39836.5259,34851.1487,37150.4277,5038.2167,49406.3795,44082.9992,55144.2951,-1829.5348,-2401.0688,23779.124
53937.0328,26057.3924,52282.1993,39850.1605,34872.6958,37158.0273,5039.7813,49432.3522,44106.3792,55149.1231,-1810.4911,-2384.8414,23783.4156
53941.7714,26058.5546,52281.0817,39853.3791,34870.5053,37157.7144,5037.9038,49439.1918,44115.0069,55150.643,-1811.9216,-2381.5334,23781.0463
53926.4381,26058.5099,52286.2226,39845.1984,34851.5958,37152.0817,5037.1885,49421.4445,44103.384,55145.368,-1823.1422,-2393.1116,23776.6206
53915.7093,26052.2962,52286.9378,39838.0905,34830.3169,37153.3334,5036.4286,49403.0267,44085.7261,55143.1328,-1838.2519,-2403.9745,23775.5477
53926.6169,26051.715,52287.1166,39839.5658,34833.8932,37155.9262,5034.8192,49409.8216,44089.4365,55145.9044,-1834.0051,-2402.0076,23777.1124
53938.6868,26057.303,52287.7872,39849.937,34855.932,37155.1216,5036.8756,49434.6321,44104.5463,55151.6265,-1816.5261,-2389.7588,23779.7052
53933.9036,26057.1241,52289.5306,39846.7183,34860.5365,37156.9097,5036.965,49438.1636,44108.2567,55157.0803,-1814.2015,-2390.9658,23780.5098
53914.8599,26046.9764,52287.5637,39836.4812,34845.7843,37152.7523,5035.2216,49413.085,44100.5677,55148.3184,-1821.3093,-2401.1135,23778.0511
53904.7569,26044.9201,52287.7872,39831.5638,34836.8436,37150.5618,5032.5394,49397.9752,44092.5211,55138.126,-1833.0663,-2412.3788,23776.0395
53911.9989,26053.9949,52286.0438,39831.0721,34848.9136,37150.8747,5032.0029,49413.1297,44097.7067,55137.4108,-1834.7651,-2403.5275,23780.331
53928.2262,26067.7636,52286.5355,39842.6503,34873.2322,37156.3733,5034.1934,49443.8857,44107.3179,55142.8646,-1819.4765,-2390.6976,23782.0745
53920.9396,26063.2932,52284.2109,39845.2431,34874.2604,37154.2722,5030.2148,49438.6554,44112.7717,55143.714,-1819.6106,-2391.5917,23781.4933
53907.6179,26054.5313,52279.7406,39829.3734,34845.382,37142.247,5027.4879,49425.5573,44094.8904,55138.2154,-1836.1509,-2401.65,23776.7547
53895.6821,26050.1057,52283.7639,39821.4608,34829.6463,37139.4753,5027.8008,49415.7225,44085.8603,55140.0036,-1848.5785,-2407.6849,23778.9899
53908.959,26057.7947,52289.3518,39834.6931,34844.3538,37152.0817,5032.7629,49430.0723,44093.5493,55144.3845,-1840.6212,-2399.5042,23785.2484
53930.2379,26063.2038,52291.8105,39850.1605,34870.4606,37160.7989,5037.0097,49449.7865,44111.6542,55156.678,-1817.2413,-2383.8133,23793.7868
53938.3292,26060.0746,52290.3353,39850.831,34875.0204,37153.9593,5037.0097,49456.6262,44118.2703,55156.9909,-1814.872,-2381.7569,23795.709
53915.3516,26050.2845,52287.5637,39835.3636,34852.8922,37143.1857,5031.1536,49436.3755,44105.4851,55144.8762,-1828.8195,-2396.5091,23786.4554
53894.4751,26042.0591,52286.4908,39822.7125,34826.2936,37138.626,5027.0855,49410.224,44088.4084,55136.025,-1845.9857,-2413.1387,23779.4816
53902.9688,26048.0493,52285.3732,39827.4511,34838.3635,37144.7951,5026.6385,49420.3717,44097.1255,55141.2106,-1844.4657,-2408.0426,23780.0628
53924.9629,26055.4254,52284.9262,39839.6999,34866.3926,37146.315,5028.2031,49445.7632,44117.3315,55152.6099,-1829.0877,-2392.4857,23784.0861
53932.026,26058.3758,52282.3334,39842.3821,34866.6161,37142.9622,5028.4714,49451.4406,44114.4705,55151.3135,-1823.4104,-2388.5071,23787.4836
53923.1747,26054.2184,52279.9194,39841.8009,34853.0263,37140.4588,5029.7678,49438.8342,44102.5347,55147.6926,-1832.3511,-2395.3915,23783.2814
53913.8764,26051.3574,52282.8698,39832.5026,34829.4228,37135.765,5032.3606,49415.2308,44094.9351,55140.8529,-1842.8117,-2407.1038,23778.9452
53913.9211,26055.3807,52282.9145,39833.1732,34840.4646,37139.3859,5029.276,49426.2725,44103.384,55144.6974,-1834.7204,-2401.9629,23780.4204
53926.8851,26059.2699,52277.5948,39841.3092,34862.414,37146.315,5030.2148,49451.7982,44112.9059,55151.3135,-1820.9517,-2390.1165,23781.9403
53926.6169,26052.5644,52273.4374,39840.7727,34858.3013,37147.8796,5028.6055,49453.8993,44111.2071,55153.057,-1822.3822,-2392.3516,23779.3475
53908.1544,26040.9415,52274.6444,39825.7971,34847.2595,37141.0847,5020.2012,49439.773,44103.5181,55147.469,-1839.4589,-2406.8803,23772.7314
53893.581,26035.8006,52273.2586,39827.4511,34832.1944,37140.5035,5017.8766,49422.2939,44093.4598,55138.7966,-1848.4443,-2416.0892,23771.2562
53902.1194,26038.0358,52272.5433,39836.3918,34841.4034,37147.6561,5021.0059,49427.3454,44100.97,55139.6459,-1835.2121,-2409.8754,23775.816
53920.4478,26043.0425,52274.8679,39842.695,34862.7716,37147.2985,5021.2741,49446.3444,44113.1294,55140.4059,-1825.9138,-2399.9512,23777.9617
53922.7277,26046.0377,52274.1526,39844.6172,34871.3547,37146.1809,5022.034,49445.6738,44112.8612,55143.2222,-1822.9634,-2398.5207,23779.3922
53913.2953,26038.4381,52272.0069,39843.902,34853.6074,37144.7057,5023.1963,49430.2064,44101.3724,55147.3349,-1830.4288,-2408.7578,23775.9501
53890.4518,26023.7306,52267.8941,39830.4015,34825.2207,37134.1109,5017.6531,49406.8712,44093.1022,55137.7237,-1846.2092,-2422.9735,23766.7412
53896.4421,26026.8599,52273.8844,39835.1848,34832.7309,37133.351,5020.9165,49414.2473,44099.5842,55141.4788,-1841.1577,-2416.5362,23769.7363
53916.1563,26035.4429,52279.3382,39848.5959,34862.6822,37139.9224,5026.8173,49441.3823,44113.0847,55142.8646,-1828.2384,-2403.2146,23775.2795
53923.5324,26045.6353,52284.4344,39858.2518,34877.5238,37150.0254,5034.4169,49466.5056,44117.9127,55149.5254,-1820.8623,-2396.4196,23780.9569
53914.3682,26042.6402,52283.6745,39854.4073,34862.8163,37154.1381,5035.8474,49460.3813,44105.8427,55147.1561,-1827.4337,-2402.3205,23780.2863
53903.0135,26042.7296,52280.1876,39845.2431,34840.1964,37149.8466,5034.2381,49441.7846,44099.0031,55143.1328,-1844.3763,-2413.1387,23773.3573
53908.7802,26044.9648,52281.6628,39852.5745,34846.9019,37151.9029,5034.9981,49452.1558,44106.1556,55147.1561,-1837.492,-2409.1601,23773.9831
53926.1699,26047.9599,52283.2721,39862.588,34865.4985,37156.2392,5034.6404,49475.2675,44115.5434,55153.4146,-1820.2364,-2394.4974,23778.6323
53932.4284,26053.8161,52282.7804,39858.8777,34868.0019,37153.0205,5035.8474,49479.5591,44113.3529,55151.9841,-1821.3093,-2393.9162,23779.5264
53924.2476,26056.7218,52279.6065,39851.144,34855.1273,37146.4044,5033.2993,49462.3035,44104.4122,55142.6858,-1829.8924,-2404.9133,23776.3524
53908.6461,26054.7996,52280.2323,39852.5298,34838.9,37146.0915,5031.3324,49434.4085,44095.9185,55135.8461,-1833.6475,-2411.6635,23775.816
53916.0222,26050.8209,52286.8037,39853.4238,34844.8455,37149.4442,5032.0029,49438.8342,44106.558,55142.5517,-1833.7369,-2405.1815,23776.3524
53936.0493,26055.336,52284.658,39859.1459,34858.1225,37154.0487,5033.7464,49454.1675,44118.0468,55147.3349,-1817.286,-2392.6198,23780.6886
53943.6042,26058.5099,52285.6414,39862.588,34861.3411,37155.4792,5035.4004,49468.0256,44121.8466,55148.9443,-1811.564,-2389.9376,23782.9685
53932.5625,26058.7335,52285.9097,39856.5531,34848.3324,37150.6959,5029.6783,49457.0285,44113.7999,55141.3894,-1820.5494,-2398.4313,23781.091
53913.2506,26049.2116,52283.451,39843.7232,34831.8815,37146.315,5025.208,49434.5427,44096.4103,55133.3874,-1835.9274,-2411.3059,23777.023
53918.5703,26048.5411,52285.9991,39845.3325,34839.9282,37153.3334,5024.5821,49445.4503,44106.1109,55144.2951,-1832.1723,-2403.5275,23778.4088
53939.5809,26054.0396,52289.0836,39859.3247,34854.9932,37163.3917,5028.2925,49463.6893,44124.5288,55150.643,-1813.7097,-2389.133,23784.399
53944.8559,26060.2981,52290.6035,39868.2207,34864.6939,37172.5559,5031.0642,49470.1266,44126.9428,55154.7557,-1805.3949,-2384.7967,23790.7469
53932.6519,26057.1688,52289.933,39856.7319,34848.6006,37169.2479,5026.5044,49462.9294,44114.5599,55146.7091,-1817.6883,-2395.9726,23785.0696
53920.3584,26049.9716,52289.7094,39841.2645,34825.936,37158.4743,5019.7989,49441.8293,44100.3442,55140.3612,-1835.078,-2412.0659,23777.3806
53920.716,26047.2,52290.2906,39844.0808,34823.2985,37158.1167,5018.5919,49447.1043,44105.5298,55142.8199,-1833.9157,-2406.7014,23780.4204
53932.2048,26055.5595,52291.4082,39854.9438,34847.5724,37167.1468,5021.7658,49472.5853,44119.2538,55147.9608,-1817.0625,-2391.0552,23786.6342
53938.1504,26060.5663,52293.9563,39863.348,34866.8844,37173.0924,5027.3985,49484.9235,44128.9544,55154.9792,-1808.7924,-2384.0368,23789.0929
53929.5226,26055.5148,52296.2362,39854.452,34848.4218,37163.6152,5028.7396,49474.3735,44115.9904,55146.1279,-1817.5095,-2392.1728,23789.227
53915.8881,26052.7432,52295.1186,39839.9234,34828.7523,37154.5404,5026.1021,49452.5582,44102.2217,55139.0201,-1837.939,-2408.4449,23781.0016
53914.994,26049.3904,52292.6152,39841.3539,34833.4014,37154.7639,5028.5161,49455.1063,44100.6124,55136.5614,-1834.2733,-2403.2593,23780.9569
53934.5294,26052.9667,52301.9135,39855.3014,34859.7765,37165.0457,5039.1108,49479.7379,44116.0798,55148.3631,-1809.8652,-2381.8463,23791.1493
53937.0775,26059.8511,52309.6472,39862.6775,34876.9873,37170.0972,5045.6375,49489.6173,44111.7436,55151.5371,-1801.7739,-2379.03,23796.0219
53917.4974,26060.8792,52310.4072,39853.8709,34862.3246,37167.5491,5047.1574,49470.7525,44101.8194,55141.6576,-1810.357,-2383.8133,23793.608
53898.2749,26059.9405,52312.0165,39848.73,34842.3868,37161.693,5051.8513,49443.5728,44086.8437,55140.3165,-1818.8953,-2391.4129,23793.6974
53908.959,26063.8744,52315.1904,39858.2071,34858.6142,37170.4549,5062.1331,49445.3609,44093.1916,55154.8004,-1807.9877,-2383.1874,23801.8781
53920.6713,26076.6149,52315.414,39864.0633,34881.1448,37172.3324,5065.5305,49453.3628,44099.0031,55156.2309,-1793.012,-2374.0232,23803.6662
53914.7705,26081.5322,52313.6705,39860.0847,34881.5024,37166.4762,5062.1778,49442.9469,44090.9117,55152.8782,-1795.4707,-2373.5762,23802.3698
53897.6938,26081.3981,52313.1788,39851.6804,34869.5666,37157.4014,5061.239,49417.7341,44077.456,55146.7985,-1807.4512,-2382.7851,23797.5866
53883.8357,26076.6596,52310.4072,39838.627,34852.1769,37152.1711,5062.6695,49400.8362,44055.4619,55141.6129,-1818.3589,-2389.2224,23795.262
53886.3391,26076.6149,52306.5627,39843.3208,34858.5695,37151.3665,5066.6928,49399.9869,44054.7913,55139.3777,-1815.4979,-2385.9143,23797.8995
53897.3808,26080.1464,52305.758,39848.5959,34877.6132,37152.5735,5066.3352,49411.9227,44065.3861,55141.8811,-1804.7243,-2375.1408,23799.9558
53899.5713,26085.4661,52303.4334,39851.8592,34891.4713,37154.9875,5064.1447,49403.6973,44059.2617,55138.9307,-1803.1597,-2376.169,23797.7654
53890.5859,26091.0988,52305.3557,39853.9603,34878.6861,37158.6084,5067.274,49378.3951,44047.5047,55131.6887,-1808.0771,-2385.0203,23797.9442
53863.585,26084.6615,52299.4995,39840.2363,34847.3042,37149.936,5062.2225,49344.1969,44034.4512,55125.3408,-1824.528,-2399.1019,23788.1094
53867.6083,26088.5954,52297.9796,39841.6221,34853.4286,37154.6745,5061.9543,49353.4505,44033.8701,55124.0444,-1822.0693,-2397.0455,23787.9753
53884.9533,26094.7645,52295.5209,39847.2995,34873.8134,37156.3286,5061.5072,49369.4991,44038.2063,55126.5031,-1804.9926,-2384.5732,23793.7421
53886.2944,26095.6138,52295.4315,39851.9039,34876.2721,37150.5171,5059.6744,49365.744,44045.8059,55124.1338,-1801.6845,-2380.9522,23791.5963
53867.2954,26088.9083,52293.1516,39841.1304,34854.0545,37143.2751,5056.8134,49331.0094,44028.2822,55113.5391,-1818.3589,-2398.7442,23784.4884
53855.9854,26078.7159,52296.415,39833.2626,34830.7639,37136.6143,5054.9805,49301.1922,44011.6525,55103.1679,-1833.424,-2411.1271,23780.7333
53861.2604,26077.8666,52296.5044,39835.6318,34832.9544,37137.9107,5053.3712,49306.3331,44015.8993,55109.8287,-1827.3443,-2400.1747,23784.6673
53879.1418,26081.3087,52294.7609,39846.7183,34858.346,37139.2071,5055.4723,49320.2806,44024.2141,55119.6635,-1810.9828,-2385.1544,23790.1658
53885.3556,26078.2242,52294.2692,39849.8029,34861.3411,37139.0283,5053.6394,49311.4293,44037.4464,55117.2048,-1803.562,-2381.3993,23790.3893
53871.3187,26064.679,52292.9728,39839.5658,34843.3703,37133.5298,5046.0845,49287.6023,44030.1597,55113.1815,-1817.733,-2396.1514,23786.4107
53849.7269,26053.7714,52288.2342,39828.0323,34817.487,37122.3539,5044.5199,49261.4061,44003.3376,55105.6266,-1832.3064,-2415.4186,23780.2863
53866.446,26053.8608,52291.7211,39839.5658,34824.0584,37128.3889,5049.8843,49255.4605,44003.9188,55104.9113,-1827.3443,-2407.2379,23783.7285
53885.9814,26057.1688,52290.9611,39845.0643,34846.9913,37132.4569,5050.3314,49275.443,44018.3133,55112.0192,-1814.2462,-2394.5868,23789.8082
53892.2846,26060.3875,52291.3635,39849.624,34853.518,37131.8758,5053.1477,49279.6898,44025.1529,55117.8753,-1803.2938,-2385.1991,23792.401
53877.6666,26053.9055,52286.6249,39838.7164,34836.933,37123.1139,5050.7337,49260.6461,44011.3395,55110.9016,-1814.6038,-2397.0455,23788.9141
53860.5452,26045.7247,52283.2274,39822.489,34811.1838,37114.6649,5042.3741,49235.2992,43996.8109,55102.1397,-1835.2121,-2413.6305,23780.4204
53866.4907,26041.8802,52283.0933,39826.3782,34815.9224,37121.594,5045.0116,49242.4518,44003.5164,55105.5819,-1826.942,-2405.405,23783.192
53887.099,26052.6985,52290.3353,39841.8903,34844.8455,37132.4122,5048.5879,49262.7025,44016.3016,55115.8637,-1807.3618,-2386.3167,23793.4291
53898.9902,26061.1922,52294.4033,39845.1537,34853.8309,37135.1391,5048.275,49264.3565,44023.7671,55117.3836,-1804.0538,-2382.7404,23796.2902
53894.1622,26056.9006,52294.0904,39834.8272,34832.9097,37128.0313,5050.3761,49254.477,44019.3415,55113.8073,-1820.6388,-2395.5256,23794.3232
53874.5821,26044.4283,52295.0739,39823.9195,34807.0264,37119.4482,5046.2186,49239.1437,44005.5728,55106.1183,-1834.4522,-2408.4449,23788.467
53885.9814,26050.3292,52296.1915,39830.2674,34822.4044,37121.9069,5046.3974,49245.0446,44012.4571,55109.5158,-1830.4288,-2399.6383,23792.7139
53902.1641,26056.2748,52291.6317,39839.7893,34848.1983,37129.9535,5044.2517,49266.7258,44028.8633,55114.7908,-1813.8885,-2385.3332,23795.9325
53899.3478,26055.2019,52289.1283,39837.5541,34853.4733,37129.4171,5040.8095,49272.716,44030.8303,55113.5838,-1808.5688,-2383.7686,23795.6196
53884.7297,26048.8987,52283.7639,39825.5736,34832.4627,37124.3209,5037.8591,49258.9921,44016.7487,55107.5935,-1818.7165,-2395.4362,23790.4787
53871.9893,26044.3389,52277.9524,39816.8564,34807.4734,37122.7562,5039.826,49239.859,44009.1491,55104.4196,-1829.3113,-2409.5178,23783.952
53868.9941,26035.9794,52276.969,39815.2024,34813.1955,37121.7281,5037.9485,49241.9153,44026.2705,55109.1582,-1827.8807,-2411.0377,23785.5613
53875.9679,26027.3069,52273.3033,39821.6844,34830.5404,37118.3306,5035.0875,49260.512,44025.2423,55106.6995,-1821.2199,-2398.2525,23783.2367
53878.8736,26022.7025,52270.6211,39826.6017,34835.1002,37116.5425,5039.6025,49266.3682,44025.8682,55107.9065,-1818.4483,-2390.7423,23784.8461
53870.4246,26015.0135,52267.0001,39820.0303,34819.9457,37113.905,5036.8756,49257.8745,44013.53,55100.4857,-1828.5513,-2404.3322,23783.505
53846.3742,25993.9134,52262.9321,39804.697,34789.3685,37098.9293,5028.1137,49228.5043,43995.8274,55089.7121,-1846.1645,-2422.7053,23773.3126
53855.5831,25994.584,52267.8494,39808.0498,34798.2645,37105.0537,5031.243,49245.581,44008.2997,55103.1232,-1839.146,-2413.854,23777.7382
53874.8503,26004.0164,52264.0944,39817.214,34824.2819,37113.145,5028.6055,49273.2972,44019.2521,55107.4594,-1826.9867,-2400.6218,23781.8509
53879.1865,26009.2914,52258.9535,39819.4939,34821.4656,37116.9895,5028.7396,49278.0805,44019.8779,55103.0338,-1826.3608,-2400.9794,23780.8675
53867.3848,26000.7083,52259.2217,39817.1693,34808.9486,37113.7261,5028.5608,49255.9075,44016.6593,55095.7471,-1834.1839,-2409.5625,23776.4418
53849.414,25995.478,52261.2333,39811.179,34791.2908,37110.4181,5029.0525,49241.96,44003.5611,55092.0814,-1845.8962,-2415.3292,23771.6138
53856.4324,26004.1952,52264.5414,39818.5551,34806.0429,37119.0012,5034.2381,49251.9289,44011.6972,55099.6363,-1836.5085,-2408.0426,23775.9054
53873.688,26019.1262,52265.3908,39835.3189,34836.4413,37129.283,5038.932,49287.0659,44027.0752,55103.2126,-1819.0742,-2394.5868,23781.7168
53881.1982,26025.3847,52265.7037,39841.1304,34845.829,37128.4783,5039.4684,49296.2301,44034.183,55104.956,-1810.2229,-2391.3234,23782.4768
53867.5189,26023.8647,52265.1672,39830.8486,34827.6347,37122.1751,5034.2828,49274.5042,44028.5951,55099.7704,-1820.147,-2402.8122,23780.1969
53856.2089,26022.0319,52265.0778,39821.4608,34803.8524,37122.5774,5027.3985,49255.1476,44019.8779,55092.2602,-1837.045,-2418.0561,23775.6819
53863.2721,26023.8647,52262.1274,39823.0702,34809.351,37129.9982,5022.3917,49260.4226,44020.8614,55092.4838,-1837.7155,-2417.2068,23773.8937
53886.0708,26029.1845,52258.5064,39835.2295,34831.8815,37143.6328,5023.9563,49283.579,44031.5008,55095.7471,-1818.7165,-2402.2311,23776.0842
53895.5927,26033.3419,52256.1818,39845.6901,34845.7396,37148.1031,5024.1798,49298.8229,44031.4114,55095.9259,-1813.3521,-2401.4264,23775.6819
53876.549,26023.0601,52253.9467,39830.8039,34832.865,37137.9107,5016.8037,49280.9862,44018.5368,55086.3594,-1832.4852,-2412.6023,23771.0327
53864.2108,26011.2584,52250.0128,39821.595,34812.212,37128.4783,5009.07,49268.6927,44002.5777,55075.7647,-1849.249,-2426.5051,23761.1979
53863.1827,26007.0115,52247.107,39822.042,34806.937,37125.0808,5007.0584,49270.8385,43997.2132,55072.0543,-1846.2092,-2426.5498,23758.1134
53879.9465,26015.7287,52251.2645,39834.6037,34832.9097,37133.9768,5013.6298,49299.9405,44020.5485,55085.7335,-1824.7515,-2407.5955,23766.4282
53885.2215,26015.3711,52252.8738,39835.1848,34842.8786,37136.4355,5017.519,49307.1824,44029.2656,55100.0834,-1820.907,-2398.5207,23771.7927
53857.8182,26004.3293,52247.107,39817.5716,34816.1906,37121.3704,5009.2041,49285.7695,44019.3415,55084.1242,-1844.0187,-2417.2068,23760.885
53830.7726,25994.3604,52240.7144,39800.8525,34789.1003,37111.3569,5000.3976,49257.1145,44004.3211,55075.6752,-1862.3471,-2437.2786,23755.5653
53838.2381,25989.9795,52239.1051,39799.8691,34799.2033,37109.1664,4998.9223,49270.1232,44007.2715,55084.6606,-1858.9497,-2436.5187,23757.1746
53855.3149,25995.031,52237.2723,39802.4619,34822.8514,37105.1431,4998.1177,49285.0095,44021.3084,55088.0134,-1849.8749,-2424.1358,23757.9346
53852.0068,25998.5626,52236.1547,39806.9322,34834.6978,37102.2373,4998.7435,49297.4371,44028.7739,55090.8744,-1845.5386,-2417.8773,23762.8073
53835.9135,25994.0922,52236.557,39800.182,34815.2518,37096.9623,4996.5978,49284.2495,44023.2307,55090.8297,-1854.2558,-2427.578,23761.332
53827.0622,25991.9912,52233.5172,39788.0226,34790.6649,37087.3511,4995.3461,49259.4391,44014.1559,55083.1854,-1866.2363,-2438.7985,23755.6547
53842.2614,25995.9698,52234.5454,39798.5727,34804.7018,37091.1509,4996.8213,49267.1728,44018.1345,55086.0018,-1857.0274,-2431.5119,23762.1814
53860.9475,26005.9834,52235.35,39817.5716,34833.9379,37097.9905,4999.7717,49288.5411,44027.6116,55093.959,-1846.2092,-2412.6917,23768.574
53867.4742,26006.0281,52236.2888,39815.7388,34840.2411,37102.3268,5001.4704,49293.0561,44037.804,55100.441,-1841.3812,-2412.0659,23767.4117
53855.6278,25999.5908,52234.4112,39803.1771,34811.6308,37098.5717,4999.6823,49266.9046,44025.1082,55093.7355,-1850.009,-2424.5381,23761.8238
53839.4898,25994.9863,52236.9593,39791.4201,34788.6533,37094.6825,4997.5812,49247.7268,44010.9372,55086.8958,-1867.1751,-2436.6081,23758.024
53849.1011,26001.7365,52238.7475,39799.1091,34805.3724,37099.1975,5002.0963,49265.9658,44012.9042,55092.7073,-1862.8836,-2431.3778,23763.5672
53872.6598,26014.3429,52244.1119,39815.4259,34831.4345,37106.9759,5007.5054,49290.1951,44033.5572,55100.5304,-1839.2354,-2410.8142,23769.9151
53876.1914,26020.2885,52242.5473,39815.8729,34837.0224,37110.9545,5009.1594,49296.9453,44034.2277,55103.6596,-1834.631,-2408.4449,23770.8539
53857.103,26010.7219,52240.1333,39799.1985,34816.4141,37102.4162,5007.9525,49277.1417,44027.701,55102.8103,-1850.4113,-2422.5265,23765.4895
53838.104,26005.6257,52242.0555,39792.94,34798.9351,37096.6494,5006.6113,49260.0203,44015.184,55095.9706,-1864.2247,-2435.5352,23760.3486
53850.8892,26009.4255,52244.246,39793.4318,34807.9652,37105.1878,5006.0749,49274.1466,44016.1675,55096.5965,-1861.6319,-2430.3496,23762.7178
53869.5306,26011.6607,52242.9496,39804.4735,34829.3334,37109.6581,5006.8796,49297.0347,44026.5834,55099.7704,-1846.2986,-2416.4468,23763.6566
53874.0009,26005.7151,52241.9214,39813.593,34830.5851,37110.9545,5009.8747,49292.3856,44023.0072,55094.7636,-1840.0848,-2416.7597,23761.8238
53858.2206,26000.4848,52238.7922,39800.0479,34810.0662,37102.282,5003.348,49274.2807,44008.9703,55086.8064,-1851.5289,-2426.9074,23755.2077
53836.7629,25997.1768,52242.6814,39786.9945,34783.2888,37097.9011,5001.0234,49261.5402,44000.8789,55081.5314,-1866.594,-2439.4244,23754.0454
53843.0661,26001.3342,52243.3072,39805.01,34799.1139,37109.077,5008.3995,49269.6762,44013.3959,55085.51,-1855.4181,-2427.4439,23758.7839
53859.4276,26007.1456,52243.3966,39816.1858,34823.2538,37111.178,5009.7406,49283.2661,44026.6728,55093.5119,-1837.1791,-2415.5974,23763.5672
53862.2439,26007.0562,52242.5473,39816.6329,34833.4908,37112.1168,5008.7571,49285.5906,44031.2773,55091.6344,-1835.838,-2409.786,23766.6517
53841.2333,25997.445,52240.8932,39802.7301,34813.8213,37104.7407,5004.2421,49269.0057,44017.2404,55081.8443,-1851.8418,-2425.0746,23756.9511
53825.587,25988.4149,52237.5405,39788.7826,34785.4793,37100.9409,5002.9457,49251.7054,44005.2152,55078.8045,-1865.8787,-2439.6032,23752.3019
53842.0379,25994.3604,52241.1168,39797.7233,34799.1139,37104.9196,5009.2936,49256.891,44012.2783,55082.7831,-1857.6086,-2427.4439,23761.8685
53866.3566,26000.7083,52240.625,39811.6261,34822.1809,37108.4958,5013.6745,49281.2544,44025.9129,55089.0416,-1838.0731,-2414.2116,23768.7975
53861.6627,26001.4683,52238.211,39811.2237,34822.3597,37104.5172,5009.9194,49289.7928,44034.0936,55089.131,-1836.0168,-2416.0445,23764.7295
53845.2119,25998.2944,52238.8369,39803.9371,34812.5249,37097.5882,5010.0535,49273.2525,44020.8614,55082.7831,-1848.3549,-2423.2864,23759.7227
53836.0029,25986.7609,52237.1829,39794.8623,34794.0177,37092.4026,5003.9291,49251.3478,44007.5845,55071.5625,-1866.9069,-2440.1844,23753.7324
53844.1837,25981.307,52236.3335,39795.2199,34797.6834,37096.4259,4998.3859,49252.7336,44010.8478,55070.2214,-1867.041,-2437.0998,23754.0454
53855.9407,25983.6763,52235.0371,39805.0547,34821.8232,37096.6941,5000.174,49278.5275,44024.5271,55083.3195,-1852.2441,-2422.4371,23758.2028
53853.6608,25986.0456,52230.3432,39800.0479,34820.7057,37095.8,4996.106,49278.3487,44025.1529,55084.2583,-1849.6066,-2418.9502,23756.9064
53837.4335,25976.6132,52229.5386,39781.9877,34803.9418,37085.4288,4987.3888,49260.1544,44006.9586,55077.6869,-1864.4929,-2432.7636,23751.229
53829.2974,25979.0272,52232.7125,39775.3268,34788.0721,37086.0994,4993.1556,49251.3478,43998.6438,55078.8492,-1869.902,-2440.4526,23754.9841
53843.1108,25983.8104,52229.0021,39784.4911,34802.7349,37093.3861,4997.5812,49260.0203,44008.1209,55079.6986,-1864.4482,-2430.3496,23758.6945
53858.5782,25989.8454,52229.4939,39797.0974,34824.0584,37097.6776,5000.174,49284.4284,44031.9926,55090.3827,-1848.2208,-2415.6421,23766.607
53865.3284,25993.4664,52228.6892,39796.9186,34819.0516,37095.8,4999.5929,49289.3904,44040.7097,55097.5353,-1844.1081,-2416.2233,23767.5905
53847.6259,25987.5208,52226.6328,39788.0226,34797.4151,37085.4288,4995.1226,49274.3254,44019.8779,55094.0484,-1857.7874,-2427.7121,23758.2922
53834.6171,25978.7142,52227.4822,39771.2588,34774.3481,37076.7564,4989.3111,49257.2039,44007.6292,55090.9191,-1873.523,-2442.7772,23748.8598
53841.5909,25984.4363,52231.9078,39773.494,34781.5007,37081.3608,4992.6639,49266.9493,44015.9887,55096.3283,-1863.5094,-2430.5284,23755.4759
53858.6676,25992.9746,52231.3714,39782.4794,34806.4899,37088.2004,5000.6658,49289.4351,44032.8419,55103.0338,-1847.2373,-2414.5693,23762.4049
53871.0058,26003.0776,52233.1595,39792.5377,34819.5434,37096.4706,5001.6046,49294.3525,44037.2229,55103.3467,-1840.3083,-2411.4847,23764.5507
53858.31,25998.0708,52237.004,39778.6796,34801.4832,37091.5532,4996.866,49276.1582,44027.8351,55103.7937,-1857.8768,-2421.1407,23762.6284
53843.6919,25991.9912,52238.7475,39769.6048,34781.0537,37089.0051,4997.5812,49259.6626,44018.1345,55103.2573,-1872.7183,-2433.6129,23758.6051
53852.0515,25996.4615,52240.5356,39781.183,34797.1469,37093.0284,5002.8563,49271.9114,44029.6233,55107.4594,-1861.6319,-2430.6625,23759.9462
53872.3469,26008.2632,52242.1896,39788.5591,34821.4209,37103.0867,5006.209,49304.992,44048.8458,55115.9084,-1844.4657,-2411.3506,23767.8587
53884.4168,26013.2253,52243.1731,39794.5493,34826.4277,37104.696,5007.2819,49309.3282,44047.7282,55117.6965,-1841.0236,-2410.233,23766.3388
53880.3935,26007.9056,52242.9943,39793.3871,34815.833,37100.9409,5006.7902,49297.0347,44038.251,55113.0474,-1852.0206,-2421.7218,23763.0308
53859.0699,25999.6802,52243.7543,39786.011,34805.4618,37097.1411,5004.8232,49283.4449,44031.9031,55105.4925,-1864.4482,-2428.2038,23758.2922
53859.9193,26006.788,52247.0623,39791.9118,34816.8612,37103.7573,5008.0866,49293.3691,44042.4532,55111.3486,-1856.178,-2420.7383,23764.0142
53877.309,26015.1476,52252.1138,39799.6455,34831.9262,37111.8933,5013.451,49317.2854,44065.1625,55124.4467,-1837.4026,-2402.2311,23772.7761
53892.5529,26014.6558,52253.3655,39805.0994,34839.8387,37112.3403,5011.0817,49326.539,44067.2636,55125.6984,-1837.0897,-2397.7607,23772.4185
53882.0922,26014.03,52248.7611,39792.1801,34829.9593,37108.0488,5002.7221,49313.0386,44057.25,55115.059,-1850.3666,-2413.8093,23768.127
53867.9212,26012.4654,52247.5988,39786.5921,34806.3111,37108.7193,5003.3033,49294.7102,44049.2034,55108.0406,-1860.4249,-2421.6324,23764.7295
53875.9232,26021.2719,52251.175,39795.9799,34812.2567,37112.0721,5007.3266,49305.9754,44052.2879,55107.6829,-1851.2607,-2414.0328,23767.4564
53896.6656,26030.302,52251.935,39804.8311,34835.9048,37117.4365,5009.9641,49328.6401,44069.7223,55121.541,-1835.6144,-2403.9745,23771.5691
53905.2933,26035.2194,52256.7183,39811.8496,34850.8805,37122.7562,5014.0768,49334.9433,44077.8136,55124.2679,-1829.8924,-2400.89,23774.6984
53893.5363,26034.9512,52258.9982,39806.3958,34833.312,37117.9283,5013.2275,49320.2806,44066.5036,55116.9813,-1843.6164,-2408.6684,23768.3058
53884.5956,26035.4429,52264.8096,39805.3676,34819.6775,37119.4035,5015.7309,49312.9939,44058.5017,55116.4001,-1851.5736,-2416.268,23765.8471
53891.0776,26041.2991,52267.0001,39812.2072,34831.2557,37126.2878,5015.3285,49326.9861,44063.1509,55121.094,-1847.4162,-2412.7364,23768.4846
53908.4226,26049.6587,52265.3461,39822.1314,34851.7746,37132.4569,5020.1118,49356.7586,44078.0818,55128.8277,-1831.1888,-2399.7724,23774.4749
53921.7442,26055.1125,52270.3528,39824.8583,34856.8708,37133.9321,5023.2857,49375.7576,44083.1333,55133.2086,-1827.2996,-2394.0951,23776.5759
53910.3448,26051.8044,52272.141,39814.353,34841.761,37130.6241,5022.347,49359.262,44078.3501,55130.4817,-1839.0566,-2403.1252,23774.1619
53886.7414,26043.1319,52269.0564,39798.1256,34813.866,37124.8126,5017.7872,49334.8986,44068.0683,55121.4069,-1858.5026,-2422.0794,23770.7645
53900.9124,26042.9531,52273.5268,39808.2286,34826.7853,37130.4452,5021.8999,49341.023,44075.7573,55121.4963,-1852.3335,-2414.301,23773.7596
53930.9978,26050.8657,52274.1079,39825.5736,34863.9339,37142.9175,5027.9796,49365.744,44087.3355,55131.6887,-1827.2102,-2394.3633,23784.6673
53928.405,26053.3243,52269.5035,39825.4842,34865.6327,37145.108,5024.448,49371.2425,44086.7096,55138.4836,-1822.4269,-2393.8268,23787.5283
53909.5849,26047.4682,52270.1293,39815.6494,34848.4665,37137.866,5018.1448,49356.9821,44075.8914,55134.8627,-1833.3793,-2405.9415,23784.4437
53895.2351,26041.0309,52270.3975,39811.9837,34827.3665,37132.4569,5012.9145,49342.5876,44069.767,55127.129,-1844.421,-2413.9434,23782.1192
53895.3245,26035.3535,52269.727,39811.4026,34824.9078,37130.8029,5009.5618,49348.3096,44076.4725,55128.336,-1843.974,-2412.4682,23783.2367
53910.4342,26041.2991,52269.1905,39811.6261,34840.5987,37133.351,5008.5336,49370.0355,44086.8437,55131.644,-1837.5814,-2402.6781,23779.2581
53915.0387,26042.8637,52266.9554,39812.2072,34841.3587,37129.5959,5009.07,49366.2357,44079.5571,55125.9667,-1841.1577,-2409.2495,23773.1338
53915.441,26045.3224,52271.6939,39815.6494,34842.9233,37136.2567,5016.8484,49356.2222,44077.6348,55126.1455,-1851.7077,-2419.9784,23773.1338
53906.0533,26043.7131,52274.6444,39808.7651,34831.2557,37136.0332,5022.347,49344.644,44073.835,55123.8209,-1859.0391,-2424.9405,23770.7645
53917.0504,26050.9998,52279.7406,39815.1577,34837.8718,37136.0332,5025.655,49356.8033,44085.6367,55127.9336,-1844.734,-2416.1339,23770.0939
53946.3758,26058.1523,52289.7542,39826.557,34863.3081,37147.1643,5032.897,49391.0462,44101.0147,55143.9375,-1823.1422,-2394.4974,23779.3475
53955.7189,26067.0036,52295.8785,39833.9778,34874.931,37154.7639,5036.8756,49397.0364,44109.0614,55149.6148,-1815.9449,-2386.272,23786.4107
53938.9104,26069.4176,52296.1468,39833.2179,34866.5267,37151.7688,5040.2731,49376.3834,44098.2431,55145.4127,-1823.9915,-2388.9095,23787.3048
53926.5275,26069.6858,52299.0078,39828.7475,34853.2051,37153.9593,5045.2799,49363.6429,44094.8457,55144.0269,-1834.7204,-2397.4925,23789.227
53936.7199,26073.2621,52304.7745,39839.2975,34864.6939,37167.1915,5046.7104,49383.4019,44104.2781,55150.7771,-1824.8856,-2388.2836,23794.055
53962.9161,26084.3933,52308.2167,39860.7999,34892.723,37178.1439,5049.5267,49409.017,44126.0487,55158.4661,-1804.2326,-2369.3293,23801.1181
53964.7937,26083.5439,52304.3722,39867.5948,34899.5179,37175.9087,5047.828,49412.2803,44131.2343,55155.7839,-1801.5057,-2366.0213,23798.883
53949.818,26077.956,52302.5393,39857.5366,34877.4791,37167.1021,5042.8212,49394.3095,44120.6843,55146.7985,-1814.3803,-2378.2253,23793.6974
53937.9269,26066.5566,52299.6783,39843.2314,34854.5909,37160.6201,5037.5909,49375.1764,44107.8991,55137.679,-1827.2102,-2390.027,23790.6575
53935.5576,26061.818,52296.9961,39839.1187,34858.0331,37165.0904,5034.3722,49385.2794,44111.5648,55146.7985,-1827.0314,-2385.9143,23795.5302
53949.0134,26063.9638,52295.9679,39842.0691,34882.7094,37166.4762,5034.4169,49404.8148,44121.1313,55149.6148,-1813.5756,-2377.7783,23796.3796
53956.2106,26068.6576,52297.0408,39843.0079,34892.4994,37161.5142,5031.1983,49408.5699,44122.7406,55152.9229,-1817.4648,-2377.5101,23791.6857
53940.5197,26063.8744,52296.6385,39830.9827,34871.5782,37153.244,5027.3091,49401.328,44114.0234,55150.4642,-1833.871,-2387.3448,23786.0084
53925.1864,26058.5994,52299.0525,39821.6397,34848.2877,37149.8466,5027.622,49383.536,44100.6124,55146.7985,-1844.0634,-2398.923,23782.5662
53929.3438,26061.2816,52297.9349,39826.8253,34852.4898,37154.6298,5026.5938,49388.9004,44100.7912,55148.8101,-1841.8729,-2396.9561,23781.3145
53949.0581,26073.8432,52301.7794,39840.5045,34878.8202,37165.8951,5029.0972,49418.6282,44115.454,55151.85,-1826.1373,-2387.0766,23785.3378
53949.4157,26075.6314,52302.8523,39840.7727,34882.7541,37160.0389,5026.6385,49419.8352,44115.454,55150.1513,-1821.7564,-2389.2671,23785.1143
53929.2097,26057.8394,52295.3868,39827.8087,34855.4403,37147.4326,5018.1001,49404.189,44104.9039,55141.7023,-1832.0382,-2402.6781,23780.6439
53910.2107,26050.4186,52293.1963,39820.2091,34839.794,37140.0118,5019.2624,49379.6021,44091.3588,55133.611,-1846.4327,-2410.7248,23776.2183
53920.6713,26059.8511,52296.6385,39824.3219,34854.0992,37148.0584,5023.9116,49389.6604,44099.0478,55136.7849,-1839.6378,-2400.8453,23782.1639
53936.3623,26064.0979,52296.0573,39834.8719,34871.5782,37151.2324,5028.1584,49413.2191,44113.9787,55141.747,-1822.3375,-2389.133,23786.1872
53940.028,26058.0182,52293.9116,39837.9564,34873.7687,37151.2324,5028.3819,49422.428,44119.969,55141.6576,-1815.9896,-2391.547,23786.2319
53928.3156,26054.2631,52294.3139,39827.6299,34854.3227,37148.5502,5028.8737,49392.432,44112.6376,55141.1211,-1832.1276,-2402.4546,23782.298
53910.7919,26048.094,52294.6268,39820.2538,34836.3519,37145.2868,5026.5491,49372.2707,44095.6503,55134.9521,-1845.4045,-2411.6188,23779.7052
53926.1699,26054.8443,52299.4101,39833.039,34851.9981,37155.1216,5031.1089,49384.2959,44109.4637,55143.7587,-1828.9983,-2401.0241,23786.8577
53947.0017,26062.4439,52303.4334,39841.488,34873.9922,37161.5589,5035.6686,49407.3629,44127.7921,55156.4097,-1812.1451,-2384.9756,23792.7139
53952.1426,26067.6742,52306.5627,39842.7844,34879.5801,37162.0506,5039.8707,49419.2094,44138.3868,55163.0259,-1805.6184,-2380.7287,23796.6031
53936.2729,26063.1591,52304.9533,39837.6882,34865.0515,37153.2887,5037.7697,49409.5534,44126.9428,55152.8335,-1820.6835,-2388.8201,23789.4058
53920.716,26055.1125,52299.0078,39821.7291,34844.0409,37146.6279,5031.8688,49395.6953,44106.4239,55145.7256,-1839.0119,-2404.4216,23783.0132
53930.4167,26051.5809,52299.9913,39823.6066,34849.2265,37150.8747,5033.2099,49403.0714,44110.8048,55149.1678,-1826.7632,-2396.9561,23786.9024
53948.0746,26058.1523,52305.4004,39839.3422,34875.0204,37157.7144,5037.7697,49425.1996,44120.3713,55157.0803,-1808.9712,-2380.4158,23794.7702
53944.4089,26060.2534,52301.3771,39840.0128,34873.724,37154.7639,5034.8639,49419.8799,44115.6775,55152.7441,-1808.39,-2383.3215,23793.3844
53928.5392,26050.9104,52301.4218,39835.1848,34860.0447,37146.8067,5032.9864,49393.0131,44110.3578,55148.1396,-1820.3259,-2391.6811,23791.9986
53908.6461,26043.9366,52295.5209,39823.6066,34837.7824,37140.28,5025.968,49373.0307,44097.4385,55138.7966,-1834.4522,-2402.8569,23785.2037
53920.4031,26050.061,52295.3868,39827.5852,34843.9515,37146.0468,5027.0855,49387.0229,44105.1722,55139.5565,-1827.5678,-2396.6432,23782.298
53936.9434,26054.4866,52295.5656,39840.0128,34863.0399,37152.1711,5028.4714,49411.7439,44123.0536,55146.8432,-1812.6816,-2387.0319,23787.8859
53943.3807,26052.7432,52295.0292,39841.6668,34864.828,37152.6629,5027.1749,49418.1365,44129.9826,55151.7606,-1814.5591,-2391.1446,23786.5001
53933.7695,26051.6703,52294.3586,39829.9545,34844.6667,37152.4394,5021.7211,49403.1608,44117.3315,55144.3398,-1829.6242,-2400.443,23781.4039
53919.2855,26049.2116,52297.5326,39825.35,34833.2226,37150.0701,5024.5821,49380.0938,44111.4753,55140.54,-1840.6659,-2404.2428,23779.0346
53928.0921,26049.1222,52303.6569,39828.7475,34842.2527,37153.5569,5030.9747,49385.4135,44114.7834,55141.2553,-1831.457,-2391.2787,23785.2931
53952.7237,26058.7782,52306.3838,39845.4666,34869.5666,37163.9729,5036.6521,49402.1773,44124.2605,55152.0735,-1813.4415,-2376.9736,23792.6692
53956.5235,26057.4818,52303.4334,39843.8573,34869.2089,37162.1847,5031.5559,49411.7886,44135.5705,55151.9841,-1811.4299,-2377.8677,23790.3893
53945.3924,26063.3379,52310.3178,39832.8602,34857.7648,37157.5803,5034.6404,49413.1297,44132.3072,55149.0337,-1818.046,-2388.7753,23788.3329
53934.3506,26057.5712,52310.6307,39830.9827,34844.9349,37158.3402,5035.7133,49393.6837,44120.729,55147.5585,-1825.5115,-2395.8385,23786.0978
53935.1106,26060.3875,52309.379,39839.4763,34851.4616,37162.14,5038.2167,49406.5136,44117.7785,55149.8383,-1823.3657,-2386.8978,23788.1988
53946.1523,26069.06,52314.7434,39850.5628,34871.7123,37166.1633,5039.9601,49435.2132,44138.1633,55162.5341,-1811.9663,-2373.9785,23793.3844
53952.4108,26072.4574,52312.0165,39850.0711,34879.1331,37161.5142,5040.2284,49450.4124,44148.8475,55166.8704,-1808.0771,-2371.6986,23793.0268
53943.1125,26057.3477,52304.9086,39839.3869,34853.6968,37156.8203,5037.0097,49429.1782,44134.8553,55154.8451,-1822.874,-2381.444,23786.3213
53920.3584,26045.5459,52299.3207,39830.6251,34826.2042,37153.0205,5033.1205,49405.9771,44115.7222,55139.78,-1835.3909,-2392.9775,23779.6158
53919.3749,26045.1883,52298.0243,39833.4861,34830.6298,37152.1711,5027.2644,49416.7954,44117.8232,55140.0036,-1832.1276,-2391.9493,23781.3145
53934.1718,26050.061,52295.1186,39835.5871,34845.0691,37150.383,5026.1468,49439.9518,44130.519,55148.7207,-1822.8292,-2386.5849,23784.3543
53937.7928,26050.4186,52286.4908,39833.2626,34850.7464,37147.0749,5023.0622,49433.291,44131.5472,55142.1046,-1821.5775,-2391.0552,23778.3641
53927.1533,26050.6421,52288.8601,39823.9642,34832.105,37140.6823,5019.4412,49411.6545,44122.2042,55135.712,-1834.9439,-2403.304,23770.988
53914.6364,26044.4283,52286.2226,39821.4161,34817.8893,37136.1673,5017.4296,49386.6205,44108.5249,55128.9171,-1852.4677,-2416.0445,23767.3223
53930.9978,26047.2894,52282.7804,39830.0439,34830.3169,37136.4802,5015.1944,49383.4019,44108.7484,55130.7052,-1841.8729,-2405.6286,23770.8986
53953.3049,26050.3739,52282.3334,39839.9234,34854.0992,37141.7999,5014.6133,49400.6127,44115.454,55136.9637,-1824.975,-2391.0552,23775.7713
53949.0134,26055.6042,52285.9097,39841.935,34854.278,37142.0234,5015.1944,49405.7536,44118.8961,55136.5167,-1823.0528,-2392.3516,23774.5196
53929.2097,26053.369,52287.6084,39829.5969,34838.587,37144.1692,5014.4792,49396.5447,44112.5929,55129.99,-1833.7816,-2400.4877,23772.9996
53915.6646,26046.5294,52290.4694,39826.1994,34824.8631,37146.762,5014.3003,49393.2366,44101.5959,55127.1737,-1842.8564,-2408.9813,23771.3456
53922.4148,26048.0046,52286.5802,39827.764,34831.9262,37146.5385,5010.0982,49399.0481,44106.5133,55127.7995,-1838.0731,-2408.7131,23771.3456
53945.3924,26053.0114,52284.3003,39841.8456,34851.5511,37152.037,5011.7522,49424.1267,44122.0701,55135.1756,-1821.5328,-2398.2078,23776.7994
53952.1426,26053.3243,52283.7192,39849.8029,34859.4636,37155.7027,5010.4111,49435.0344,44121.3995,55139.333,-1819.9235,-2394.1398,23776.6653
53933.233,26043.8919,52278.8465,39835.4977,34839.8387,37145.5103,5003.348,49406.5583,44107.9438,55128.6042,-1833.7816,-2408.4002,23770.228
53916.3351,26036.4711,52278.6677,39820.1197,34818.1129,37146.315,5002.141,49380.0491,44095.8738,55120.5128,-1848.1314,-2419.8443,23765.2212
53917.5421,26040.6733,52276.8348,39817.2587,34819.454,37146.6726,5001.381,49395.4271,44094.5327,55127.0843,-1845.181,-2417.6538,23766.6517
53935.9152,26043.8025,52273.2586,39821.282,34835.9048,37151.5453,5000.3529,49410.5816,44103.2499,55129.7218,-1831.1441,-2405.0474,23767.5011
53942.3972,26046.3953,52274.1973,39830.9827,34850.21,37159.279,5005.6279,49412.6827,44106.0662,55129.3194,-1824.0362,-2404.3769,23767.8587
53926.751,26037.7675,52268.9223,39819.0469,34829.3334,37150.7406,5005.2702,49390.3309,44093.6387,55120.9152,-1837.6261,-2418.0561,23763.8801
53902.2088,26031.5537,52269.5929,39803.803,34810.1109,37144.1692,5003.8397,49370.4379,44081.8369,55116.8919,-1853.4958,-2426.7733,23762.8073
53907.8861,26038.4828,52270.8893,39800.1373,34820.1245,37140.3694,5004.0632,49377.1434,44082.0605,55120.0211,-1852.3782,-2421.6324,23766.1153
53928.8074,26047.9599,52272.1857,39816.9011,34847.036,37144.4821,5008.4442,49396.6341,44087.8272,55127.576,-1834.2286,-2408.579,23773.4914
53924.9182,26051.5362,52272.4986,39819.0916,34849.7629,37141.0847,5013.5404,49405.843,44085.145,55130.2582,-1830.6077,-2403.4381,23771.8821
53902.2088,26048.9881,52275.762,39815.6941,34840.1517,37140.8612,5018.8601,49382.6419,44076.1149,55130.2582,-1836.6873,-2406.5673,23772.2397
53890.9882,26051.5809,52281.9757,39809.972,34818.694,37136.4355,5024.001,49363.8217,44067.0848,55127.3078,-1848.5785,-2416.7597,23772.9996
53900.5995,26060.2534,52284.8815,39814.9788,34825.2207,37139.2071,5030.5277,49359.0832,44064.939,55128.9171,-1833.8263,-2410.3671,23775.6819
53918.9726,26073.6644,52289.5753,39826.557,34856.6473,37141.04,5036.6521,49379.1997,44074.595,55132.9851,-1817.9119,-2392.0387,23781.4039
53923.6218,26073.9774,52285.6861,39826.6017,34861.654,37142.0681,5033.9252,49373.0307,44068.4259,55131.8228,-1818.1354,-2396.4196,23778.2747
53907.305,26071.5187,52282.6016,39821.2373,34841.761,37136.0332,5033.4334,49347.1026,44052.1985,55126.4137,-1830.1606,-2406.7909,23775.0113
53877.5772,26062.7121,52279.2041,39804.3841,34818.694,37124.4997,5030.8853,49320.817,44032.3949,55113.2262,-1849.9196,-2420.783,23767.5458
53886.4285,26072.2339,52278.6677,39814.8447,34837.4695,37128.6124,5034.104,49312.4574,44035.1218,55114.7461,-1840.1742,-2413.0046,23772.1503
53897.962,26083.8568,52279.8747,39827.8981,34861.3858,37140.3694,5040.8095,49324.9744,44044.6883,55128.4701,-1821.4434,-2396.9114,23782.9685
53887.3672,26077.8219,52278.623,39823.5619,34859.8212,37134.6027,5037.5909,49320.6829,44038.8769,55123.1056,-1820.1917,-2396.3302,23776.9336
53875.6102,26073.7091,52278.4442,39812.4307,34838.587,37129.9535,5034.9981,49301.0581,44028.3716,55118.8588,-1835.0333,-2405.8968,23773.2232
53852.4985,26066.7354,52276.0302,39793.2082,34816.5929,37123.0245,5029.723,49267.2175,44012.8595,55108.7558,-1854.1217,-2420.5595,23766.4729
53858.8911,26066.5566,52278.3101,39801.2102,34824.6396,37128.9253,5034.3275,49269.4527,44014.29,55107.6829,-1847.1926,-2410.7248,23772.4185
53888.3954,26080.6382,52286.0438,39823.6066,34851.1934,37137.1508,5041.5695,49291.4915,44025.7341,55113.405,-1824.528,-2395.0338,23780.4651
53891.1223,26079.6994,52286.2673,39825.9312,34848.1536,37137.3296,5042.0612,49281.0756,44024.7059,55110.0075,-1820.5941,-2399.1913,23779.884
53875.2526,26072.9939,52284.4344,39819.4045,34826.1595,37127.316,5036.2945,49258.3662,44018.7156,55104.2408,-1832.0382,-2413.094,23775.6371
53863.1827,26068.4788,52286.8931,39816.3646,34808.9933,37126.1537,5036.1603,49238.1603,44009.9537,55096.7306,-1843.974,-2424.0464,23772.3291
53872.2128,26074.1562,52290.1565,39822.3102,34814.3131,37133.0827,5039.6919,49239.5908,44009.1938,55099.0999,-1836.6426,-2415.7763,23771.6138
53889.7812,26081.7111,52296.6385,39837.1071,34837.0224,37143.0963,5043.5811,49251.7948,44017.2851,55106.2524,-1821.354,-2396.8667,23776.1736
53896.0397,26085.1979,52298.7396,39839.6999,34843.1915,37139.2518,5044.3858,49256.5334,44017.2404,55104.509,-1820.0576,-2390.5188,23778.9452
53878.1583,26069.7752,52292.034,39829.2392,34827.5453,37127.763,5037.5462,49234.4946,44003.2035,55094.7189,-1834.2733,-2400.5324,23773.6255
53869.3964,26062.4886,52294.3139,39826.2888,34811.8991,37128.7465,5039.4684,49221.1282,43991.4018,55096.7306,-1839.8166,-2411.5741,23775.9054
53874.3138,26066.4225,52298.9184,39828.8369,34825.4889,37130.3111,5043.8046,49230.516,43997.0791,55097.4011,-1827.5678,-2403.5275,23780.9569
53887.7249,26072.4127,52296.415,39837.5094,34848.5112,37132.4122,5047.068,49246.341,44010.7137,55096.9988,-1811.0275,-2388.9095,23789.3611
53903.9522,26075.2738,52296.9514,39838.8505,34847.8854,37135.6308,5051.136,49240.7978,44025.9129,55106.9677,-1806.1996,-2384.0815,23792.5798
53898.2302,26069.8646,52298.4713,39826.8253,34829.5122,37128.4336,5048.9902,49219.8318,44019.2968,55107.8618,-1817.6883,-2393.2457,23788.78
53879.9912,26059.8063,52295.9679,39808.3627,34811.6308,37116.3636,5041.7036,49196.586,43995.738,55096.9988,-1835.7038,-2410.2777,23780.2863
53887.099,26053.3243,52294.9398,39805.2782,34818.2917,37120.9681,5036.8756,49196.7648,43997.0344,55099.2787,-1831.8146,-2409.7413,23782.3874
53906.2768,26059.1805,52293.8669,39812.1178,34832.6415,37122.041,5034.2381,49217.9543,44017.0616,55109.337,-1816.4814,-2397.9396,23783.192
53905.0698,26059.404,52289.2624,39815.4259,34834.519,37115.3355,5032.7182,49215.3615,44020.0567,55111.7063,-1814.2015,-2395.2574,23783.9967
53893.8493,26057.7947,52287.1166,39809.3015,34816.7717,37111.8486,5030.5724,49196.4519,44012.4571,55106.5207,-1828.4619,-2404.5557,23782.298
53885.2662,26051.0892,52284.8368,39794.3705,34792.7213,37110.3287,5027.3091,49182.0574,43998.0179,55102.3632,-1847.5503,-2419.9784,23777.6041
53890.72,26052.2515,52285.4626,39795.2199,34795.6717,37110.6416,5024.9398,49189.5229,44001.013,55106.163,-1837.7155,-2412.2447,23778.9452
53916.3351,26063.5614,52287.6084,39811.8496,34824.416,37117.3471,5027.3091,49224.0787,44016.391,55112.8238,-1818.3589,-2396.822,23781.538
53918.4809,26066.646,52284.2109,39813.3248,34830.9875,37116.2295,5027.0855,49231.6782,44021.1296,55112.6003,-1819.7447,-2397.1796,23778.1852
53912.58,26067.5848,52284.5238,39809.1674,34817.6658,37116.8554,5027.9796,49220.8153,44027.0305,55110.1416,-1832.4405,-2406.7909,23775.7713
53900.6889,26062.6674,52288.0107,39803.8477,34800.4103,37116.9895,5029.8572,49209.0136,44021.3978,55110.4099,-1838.9225,-2414.1222,23775.503
53897.5596,26056.9006,52289.1283,39807.7369,34806.0429,37114.2626,5028.4714,49214.378,44021.8002,55116.9813,-1834.0051,-2410.993,23774.3407
53910.8813,26059.3593,52288.0554,39816.4988,34827.8582,37114.5755,5029.6336,49234.3158,44030.6515,55119.7976,-1824.6174,-2399.5042,23778.2747
53916.4245,26069.06,52292.6152,39823.1596,34834.8767,37113.5473,5038.619,49236.3274,44038.2063,55126.4584,-1815.4979,-2393.0222,23786.6342
53901.9406,26062.265,52297.6667,39815.2024,34821.9126,37113.4132,5039.7813,49220.4577,44027.3881,55125.0726,-1822.9187,-2402.9016,23785.2037
53890.8988,26050.8657,52296.9514,39800.5843,34803.4054,37105.7689,5035.0428,49201.1458,44014.9605,55116.9366,-1838.3861,-2413.7199,23780.5992
53897.7832,26055.6489,52293.241,39810.6426,34807.9205,37115.4696,5033.657,49209.0583,44020.6379,55113.0474,-1837.6261,-2409.6072,23779.3922
53917.5868,26067.853,52291.7211,39824.7242,34829.1993,37125.4832,5037.0991,49230.7395,44034.1383,55120.1552,-1817.8672,-2394.7209,23784.8014
53922.1466,26072.9939,52292.8387,39827.8534,34837.6483,37129.9535,5039.4237,49244.9105,44043.6155,55131.1523,-1816.0343,-2392.9328,23786.7683
53907.4838,26064.4108,52289.7094,39819.3598,34818.6046,37124.4997,5040.7201,49230.4713,44035.5241,55124.9385,-1825.5115,-2405.2262,23782.0745
53897.5596,26061.1922,52285.6414,39812.386,34804.076,37122.7115,5043.1341,49223.721,44024.1247,55117.1154,-1838.2967,-2415.4186,23776.8441
53899.9289,26064.232,52284.2109,39819.5833,34816.6376,37129.6853,5043.3576,49233.9134,44035.5688,55118.1883,-1829.7583,-2403.4828,23777.47
53917.6762,26068.7917,52285.4626,39834.2907,34846.0972,37137.5084,5043.7152,49256.3993,44047.6388,55118.4565,-1813.1286,-2393.9162,23781.6274
53918.3468,26069.2388,52283.0933,39828.7922,34843.415,37136.2567,5037.2779,49264.5353,44042.1402,55113.9414,-1817.5095,-2397.4925,23777.6488
53909.0037,26071.7422,52283.4957,39824.456,34822.8514,37132.5463,5030.8406,49248.6656,44038.251,55105.8054,-1831.1441,-2405.0921,23772.9996
53898.9007,26066.5119,52282.0204,39819.1363,34805.0594,37130.7135,5027.0855,49226.0009,44028.461,55103.7043,-1839.2801,-2413.8987,23771.2562
53913.6082,26067.8977,52281.8863,39821.2373,34816.9506,37135.5414,5027.8008,49241.8259,44028.5951,55104.9113,-1835.6144,-2409.786,23768.7081
53930.2379,26073.8432,52285.5073,39832.5026,34846.3207,37142.5152,5026.4597,49270.4809,44040.0392,55110.0522,-1823.4998,-2400.5324,23773.9831
53940.1174,26077.2854,52286.0885,39836.8835,34848.6006,37144.9292,5024.2692,49275.0406,44049.2034,55110.0075,-1820.0576,-2400.5324,23777.4253
53921.7889,26067.0483,52282.1099,39821.6844,34824.416,37134.7815,5021.0506,49252.7336,44045.4036,55104.4643,-1836.732,-2413.2729,23773.8043
53901.4041,26062.1756,52283.9874,39819.6727,34804.523,37135.8991,5023.5987,49243.7482,44033.1995,55104.8219,-1849.4278,-2417.6091,23773.2232
53900.4207,26055.3807,52282.691,39819.4939,34808.5463,37133.9768,5022.347,49254.7899,44037.2229,55103.9279,-1843.7505,-2416.3574,23773.3573
53920.4031,26060.7004,52285.105,39832.0556,34836.8883,37139.8777,5025.8785,49280.9415,44062.0333,55112.6897,-1821.6223,-2398.8336,23780.3757
53928.7627,26068.6576,52291.2741,39839.2081,34847.483,37144.9739,5028.8737,49291.1339,44064.939,55113.4497,-1812.5027,-2392.6198,23784.8908
53916.6927,26063.5167,52294.1798,39826.8253,34831.211,37140.8612,5028.9631,49279.511,44058.9935,55119.5741,-1822.6057,-2400.2194,23783.7732
53897.5596,26056.9006,52292.1234,39813.9507,34809.7533,37134.9156,5028.8737,49262.5237,44049.7398,55116.2213,-1834.5863,-2405.1368,23782.7897
53907.5285,26062.7121,52289.3518,39823.249,34813.4637,37138.3578,5026.3703,49272.3584,44053.9867,55111.1251,-1832.1276,-2399.4595,23782.298
53929.0309,26070.8034,52290.0224,39839.2975,34838.9,37143.0516,5028.1584,49299.404,44067.4424,55122.5692,-1810.357,-2384.8414,23789.1823
53930.0591,26071.5187,52290.2012,39837.1965,34846.8572,37139.2518,5029.9913,49291.4915,44067.5318,55131.4205,-1808.3006,-2387.7025,23788.467
53915.0387,26064.8578,52288.0107,39824.9924,34834.519,37130.937,5031.3324,49269.1845,44056.7583,55126.4137,-1820.6388,-2401.7841,23785.7848
53902.79,26060.7451,52285.2391,39810.4638,34818.7387,37124.4103,5029.4995,49262.8366,44044.9566,55122.6586,-1836.285,-2414.4799,23782.4321
53908.1097,26067.9424,52291.14,39815.2918,34832.7309,37130.8923,5033.9699,49277.1417,44047.9517,55129.0512,-1830.3394,-2405.0474,23786.6789
53922.2807,26073.0833,52293.4198,39827.4064,34860.7153,37136.659,5039.4684,49298.51,44060.5581,55136.6508,-1815.4979,-2392.1281,23789.5399
53933.8142,26079.4312,52295.6103,39827.5405,34863.0846,37139.6095,5040.9436,49309.5517,44063.4638,55136.4273,-1811.1616,-2389.4459,23787.2154
53920.8502,26078.0007,52296.5491,39814.9788,34839.6599,37134.6027,5040.4966,49296.6324,44063.732,55131.9122,-1823.6786,-2396.7773,23786.3213
53911.1942,26072.9939,52298.3372,39810.9555,34821.7785,37127.5842,5041.2565,49271.4643,44053.8526,55128.9618,-1836.5085,-2404.2875,23781.091
53923.6218,26079.4759,52295.655,39818.5998,34829.7358,37131.4287,5041.7036,49287.6917,44059.7534,55133.0745,-1830.6524,-2401.0688,23782.5662
53938.3739,26083.9909,52297.0855,39830.938,34848.5559,37139.5648,5045.1458,49309.1047,44070.6164,55140.0036,-1813.665,-2385.1097,23788.3776
53939.8044,26084.5274,52296.415,39834.6931,34853.6521,37140.1459,5044.4752,49307.4059,44077.5454,55135.8014,-1811.251,-2384.2603,23787.6177
53919.5985,26076.5702,52292.9728,39821.5503,34835.2343,37135.3626,5038.7979,49281.925,44068.2024,55130.9288,-1826.7184,-2399.6383,23783.505
53895.3245,26071.8763,52292.6599,39806.1723,34815.7436,37135.1391,5032.8076,49268.2457,44050.6786,55121.5857,-1844.9575,-2410.993,23777.2912
53906.6792,26074.0221,52289.2177,39808.1392,34824.4607,37136.659,5032.4053,49280.5839,44051.0362,55125.5643,-1838.7437,-2404.0192,23779.9287
53922.236,26078.6265,52289.7542,39822.1314,34850.657,37143.3198,5035.4898,49300.8345,44067.6212,55132.7616,-1821.4434,-2391.9046,23785.159
53924.5158,26077.3748,52291.4082,39830.0439,34857.9437,37143.3645,5039.4237,49305.886,44067.3977,55129.5429,-1812.771,-2385.4673,23785.7401
53910.1213,26069.954,52290.4694,39819.3151,34836.5754,37134.2003,5040.0496,49293.0114,44057.7418,55130.3923,-1824.3045,-2395.4809,23786.3213
53895.4139,26063.5167,52290.7376,39811.7155,34818.6493,37134.3344,5041.0777,49286.1718,44050.9468,55130.0347,-1835.838,-2402.6781,23787.0365
53908.3332,26058.4652,52290.5141,39821.0585,34832.8203,37140.8165,5039.6919,49283.7578,44059.3958,55128.0677,-1827.6125,-2399.8618,23789.674
53923.6665,26063.5614,52293.5539,39834.9613,34858.2566,37146.1362,5040.2731,49307.8977,44068.6941,55133.4321,-1811.8769,-2387.2554,23791.0151
53920.3137,26060.8345,52290.6929,39835.8554,34852.0428,37145.0633,5040.1837,49307.9871,44067.8447,55131.8228,-1808.0771,-2385.1991,23786.8577
53901.3147,26057.0347,52290.1565,39834.2013,34833.9379,37141.2188,5041.793,49292.475,44057.0265,55127.2631,-1816.3919,-2391.0552,23785.2931
53894.7433,26051.6256,52286.312,39817.4375,34814.5366,37135.452,5038.2614,49276.6947,44040.5756,55118.4565,-1836.1509,-2401.3817,23782.745
53906.7686,26051.3127,52287.3402,39819.3151,34821.1974,37139.3859,5040.3625,49287.8705,44051.0809,55119.9764,-1829.5795,-2395.7938,23785.919
53926.4828,26060.9686,52292.6152,39838.0905,34850.3441,37146.8961,5041.6142,49304.232,44069.1859,55128.6936,-1810.9381,-2381.7569,23788.2435
53927.7792,26061.6839,52293.4198,39837.1965,34851.9981,37145.5997,5042.1506,49307.9871,44073.7009,55128.3807,-1808.6135,-2381.4887,23785.159
53913.4294,26059.0464,52295.2974,39827.4511,34831.0769,37140.3694,5040.7201,49295.2019,44063.285,55124.1338,-1820.2811,-2391.1446,23781.0016
53901.1806,26058.2417,52294.4033,39818.8233,34808.9039,37139.4753,5039.6472,49272.3137,44046.7,55117.3389,-1841.8729,-2408.4896,23772.8208
53917.6762,26067.8977,52299.7677,39829.2392,34827.5453,37146.2256,5046.4869,49283.4896,44054.8807,55121.4516,-1834.5416,-2403.4381,23776.1736
53938.821,26079.9229,52304.998,39845.4666,34863.7104,37158.4296,5053.1924,49308.5682,44077.903,55129.1406,-1812.1898,-2382.4722,23786.6342
53941.8161,26080.1464,52302.5393,39841.4433,34866.0797,37148.0584,5051.2701,49313.128,44072.7621,55126.816,-1811.4746,-2383.5003,23782.4768
53930.1485,26074.9161,52300.1254,39829.9098,34846.1419,37140.3247,5047.6044,49299.5381,44059.9769,55124.9832,-1823.9021,-2390.6082,23780.2863
53910.8813,26063.5614,52301.6453,39819.6727,34827.5453,37137.5978,5048.275,49281.1203,44059.3511,55124.1338,-1833.8263,-2400.6665,23782.4768
53924.3817,26064.4108,52299.4548,39821.2373,34840.8222,37142.247,5048.8561,49287.6023,44064.0897,55122.1669,-1825.2432,-2397.8055,23787.3495
53946.4206,26070.5352,52300.7065,39837.2412,34857.6754,37143.8563,5046.5763,49314.8267,44075.7126,55126.1902,-1809.9099,-2384.9756,23791.5963
53945.8841,26068.747,52301.7794,39841.7115,34865.275,37149.4889,5046.8445,49321.6217,44090.5541,55142.3728,-1803.9644,-2379.6111,23797.7654
53931.8472,26067.093,52305.2216,39830.3121,34847.3936,37142.9622,5044.2964,49302.3098,44078.3501,55137.0084,-1817.0178,-2391.3682,23795.3514
53913.34,26064.5002,52303.8805,39815.9623,34821.8679,37133.6192,5041.793,49286.6188,44066.4142,55128.6936,-1831.01,-2405.0921,23787.1259
53918.0785,26065.3049,52299.4101,39809.2121,34830.4063,37131.6075,5041.2118,49296.99,44069.4988,55129.9453,-1832.8875,-2402.8569,23783.5497
53935.5576,26073.9774,52300.3489,39830.7592,34862.1011,37140.9506,5047.1574,49316.8831,44087.6037,55138.9754,-1809.6417,-2386.719,23790.1658
53940.8326,26069.2835,52301.2429,39834.4696,34864.7386,37142.0234,5045.2799,49322.6051,44094.8904,55137.5002,-1803.8303,-2384.1262,23790.6575
53920.0902,26055.783,52297.1749,39821.1926,34843.4597,37133.798,5038.8426,49310.0435,44084.7427,55128.8724,-1821.4881,-2398.8783,23782.7897
53909.4061,26048.6305,52290.7823,39811.7602,34823.6114,37131.2946,5035.0875,49295.6042,44075.5337,55121.8092,-1837.7155,-2407.0144,23781.091
53927.7792,26055.4701,52292.3917,39811.5367,34841.314,37136.3461,5035.1322,49314.2009,44077.2325,55128.1571,-1827.7466,-2399.3254,23786.4554
53950.1309,26066.1095,52293.1963,39824.1878,34865.0515,37143.5881,5039.1108,49336.955,44083.8486,55132.6275,-1808.39,-2388.7306,23789.674
53946.3758,26060.7451,52289.7542,39825.3947,34861.2964,37143.2304,5036.4286,49337.4467,44090.42,55133.6557,-1805.8866,-2387.5237,23790.9257
53919.822,26048.9434,52286.9378,39809.3015,34843.1468,37133.5298,5033.657,49316.9278,44077.6795,55126.9948,-1825.735,-2406.6567,23783.7732
53906.0086,26049.0775,52285.7308,39796.2928,34824.6396,37124.4997,5029.1419,49308.7918,44063.8214,55120.2893,-1844.734,-2421.3642,23779.5264
53907.305,26053.1008,52284.345,39802.7748,34829.5569,37133.1275,5027.6667,49311.2952,44075.3102,55120.7364,-1838.2967,-2413.3623,23780.1522
53924.3817,26061.6839,52285.3285,39817.214,34854.5909,37143.0069,5029.5442,49344.9569,44093.0128,55127.3972,-1821.7564,-2400.2194,23781.1804
53932.6966,26063.2038,52287.1166,39829.2392,34863.7551,37143.2751,5032.8523,49356.5798,44100.523,55135.1756,-1813.7097,-2392.7987,23784.0414
53927.1086,26063.8297,52293.7328,39824.6795,34848.2877,37144.2586,5036.6521,49341.47,44090.42,55134.7733,-1824.0362,-2399.4148,23782.7003
53906.858,26060.611,52292.9728,39811.8049,34835.7707,37139.6989,5034.9534,49317.7325,44082.1499,55124.3573,-1837.045,-2414.2116,23780.0628
53914.994,26062.5333,52293.6434,39814.5318,34844.0856,37140.5035,5037.9485,49327.9248,44092.6999,55127.7995,-1829.5348,-2405.8968,23784.712
53934.2612,26066.4225,52295.6103,39832.9049,34864.381,37144.3927,5042.1506,49355.641,44106.0662,55133.7451,-1812.8157,-2389.4906,23790.434
53929.612,26059.404,52289.3965,39830.3121,34864.6045,37139.5648,5035.311,49360.0219,44103.4734,55128.9618,-1812.1451,-2388.5518,23786.9024
53917.9444,26057.8841,52288.5472,39825.0818,34856.6473,37136.3461,5034.8192,49351.126,44091.18,55127.3972,-1818.5824,-2393.2904,23783.952
53902.7452,26058.3758,52293.6434,39819.5833,34838.3188,37141.1294,5037.1438,49335.8374,44085.2344,55126.816,-1830.3394,-2403.6169,23781.6274
53908.7802,26057.3477,52288.4578,39814.8894,34836.5307,37140.1459,5033.1652,49335.435,44087.1567,55123.508,-1829.9818,-2406.0309,23778.7664
53923.6665,26062.8909,52289.1283,39828.1217,34859.8659,37145.5997,5035.7133,49353.9423,44104.0546,55134.818,-1811.9216,-2391.994,23786.2319
53928.5392,26056.8112,52288.3236,39831.2062,34870.0136,37143.7222,5033.7911,49365.1628,44101.0147,55132.4934,-1807.1383,-2391.994,23783.952
53917.1845,26052.3409,52287.0272,39823.2937,34847.5277,37135.9885,5031.7347,49347.505,44090.5094,55127.5313,-1822.4716,-2402.1864,23782.2086
53904.9804,26046.5294,52286.0885,39814.8894,34826.5171,37132.0993,5031.0194,49332.4399,44079.87,55125.0279,-1835.3909,-2415.5974,23777.6041
53907.2156,26042.1932,52282.3334,39813.2801,34832.5521,37134.2003,5029.1419,49333.6022,44084.6086,55126.0114,-1830.7865,-2411.44,23776.0842
53933.3224,26051.3127,52285.3732,39828.524,34854.2333,37145.7785,5036.7415,49360.9607,44105.3063,55132.404,-1813.3074,-2394.408,23782.5215
53939.8938,26055.6936,52288.5919,39834.2907,34856.9602,37140.8612,5039.1108,49372.673,44105.1275,55133.611,-1811.3852,-2390.2059,23785.2931
53922.1466,26049.0775,52288.0554,39822.489,34842.3421,37130.8923,5034.6404,49356.1774,44089.6153,55126.0114,-1826.2267,-2403.4381,23781.4039
53916.5586,26045.1883,52286.7143,39812.1178,34827.3218,37128.7465,5030.6618,49338.8325,44078.3501,55119.2164,-1842.6329,-2417.5197,23776.3524
53917.0951,26041.9697,52282.691,39814.7553,34827.0088,37130.5346,5028.069,49343.884,44086.0838,55121.7645,-1837.8496,-2410.233,23778.5876
53939.8044,26045.9483,52282.4228,39826.6017,34848.0642,37136.659,5029.723,49361.8995,44098.2431,55127.8889,-1821.7117,-2393.961,23784.5331
53948.611,26048.5411,52287.4743,39827.1829,34862.1905,37139.1624,5032.3606,49363.0618,44096.5891,55130.3923,-1822.8292,-2391.9046,23786.6342
53931.4896,26048.1834,52292.5258,39820.6562,34845.1585,37142.8281,5034.5957,49353.0482,44095.6503,55131.1523,-1829.9818,-2398.1631,23788.3329
53910.2107,26033.6995,52289.0836,39809.525,34818.1576,37141.6211,5033.5675,49332.3505,44083.8486,55126.4137,-1840.7553,-2410.6354,23782.298
53912.6247,26034.3701,52288.9048,39814.1742,34826.9194,37139.2071,5038.2167,49341.6935,44091.6717,55130.2582,-1833.6028,-2402.0076,23782.6556
53936.2282,26041.8802,52286.9825,39835.0954,34857.2731,37146.4491,5038.7084,49359.4855,44110.0448,55136.6061,-1814.9167,-2388.7753,23789.3611
53936.5858,26042.1485,52284.1215,39832.4579,34860.0447,37145.1974,5035.1322,49359.0385,44102.7582,55129.3641,-1812.9945,-2388.8648,23787.0812
53918.9279,26032.3584,52281.7969,39820.388,34844.5326,37136.6143,5029.276,49340.7547,44096.6785,55121.3622,-1824.3492,-2398.7442,23783.3261
53900.1524,26022.5236,52280.4111,39811.8049,34829.6016,37131.5181,5023.4646,49326.7179,44091.2247,55112.7344,-1837.4026,-2410.6801,23777.47
53900.7336,26025.7423,52276.4325,39815.6494,34834.519,37136.8378,5021.3188,49341.6488,44089.3918,55119.5741,-1832.1276,-2404.1981,23777.7382
53915.7093,26030.0785,52277.9524,39827.3617,34856.692,37139.7436,5022.5705,49362.6595,44103.2499,55132.6275,-1816.839,-2387.3895,23782.6109
53913.8764,26026.1893,52276.5219,39827.9876,34858.5695,37132.5016,5021.8105,49366.1016,44099.8524,55127.0843,-1816.079,-2388.9542,23782.0297
53892.5976,26019.8414,52272.4092,39815.2471,34840.554,37129.1488,5014.9709,49348.1308,44085.5473,55117.0707,-1828.4619,-2397.8502,23777.5594
53877.7113,26016.8016,52268.1624,39804.8759,34819.4093,37127.4948,5008.3101,49328.953,44079.4677,55109.337,-1842.6329,-2411.1271,23772.7761
53890.9882,26017.6957,52270.6211,39813.2801,34834.7872,37134.6921,5010.9476,49341.8276,44082.731,55111.0357,-1837.1791,-2408.0426,23772.8208
53910.7472,26022.2554,52271.2022,39825.2159,34854.8144,37139.9224,5015.105,49372.3154,44096.5891,55121.7645,-1819.9682,-2393.4245,23778.0511
53910.5684,26025.4741,52272.0516,39827.4064,34858.5695,37142.2023,5019.0389,49373.1648,44101.0147,55124.6703,-1817.9119,-2391.6364,23780.2863
53898.6325,26019.0815,52268.073,39816.8564,34840.7328,37133.351,5015.7756,49348.4437,44092.5658,55116.0872,-1830.6524,-2401.1582,23774.6984
53884.1933,26006.5198,52265.2119,39800.9866,34815.6542,37123.9185,5011.3499,49330.8753,44081.524,55108.577,-1846.7903,-2417.8773,23770.1386
53886.4732,26005.4469,52265.8825,39809.1674,34827.6347,37125.5279,5012.7357,49339.7713,44084.3403,55108.5323,-1840.1295,-2412.4235,23771.9268
53897.6938,26006.6092,52262.2168,39822.5784,34854.3674,37133.8427,5013.3169,49362.123,44101.0594,55117.2048,-1826.2714,-2399.1913,23774.5643
53902.8347,26005.2681,52260.7863,39822.5337,34851.4616,37136.212,5009.7853,49378.5292,44095.7844,55113.7179,-1825.7797,-2399.1019,23769.0657
53887.2778,26002.6306,52257.0312,39806.3511,34832.0156,37122.5327,5001.694,49365.9675,44075.802,55100.3069,-1843.3034,-2413.7199,23761.0638
53869.3964,25997.5791,52252.9185,39790.7048,34809.4404,37113.9944,4997.1342,49347.4156,44062.838,55095.8812,-1862.5259,-2425.1193,23758.0687
53878.3371,25999.6802,52253.2761,39802.9536,34819.6775,37115.2461,5002.8563,49355.641,44072.5833,55099.0105,-1856.8039,-2418.7267,23760.9744
53896.3526,25998.5626,52255.2878,39817.1693,34840.5093,37120.3423,5004.0185,49376.0705,44084.9215,55105.9842,-1839.2354,-2407.2379,23767.2776
53898.856,25995.031,52255.2878,39820.7903,34837.6036,37121.3704,5003.3927,49375.5788,44088.766,55106.163,-1833.2452,-2403.9745,23765.9812
53891.167,25999.3672,52258.1488,39821.4608,34825.8466,37125.9749,5010.6347,49362.2124,44084.385,55101.5139,-1839.8613,-2408.4896,23768.4399
53879.3653,26000.6189,52263.1556,39822.042,34814.8495,37124.5891,5018.0554,49350.813,44079.0206,55108.7111,-1848.8467,-2412.3341,23773.7596
53888.7084,26001.4683,52262.3956,39823.6066,34823.3879,37137.3296,5020.7824,49358.055,44084.6086,55111.5274,-1839.5931,-2404.9133,23777.7829
53903.3711,26003.6141,52264.5861,39830.9827,34839.2129,37142.1576,5021.587,49379.0209,44107.6308,55116.3107,-1818.0907,-2391.1446,23782.1639
53906.2768,26002.8094,52261.3674,39830.4462,34839.0341,37131.2946,5017.2061,49384.9665,44106.7368,55114.1649,-1817.2413,-2395.3915,23778.2747
53889.066,25997.6685,52259.5346,39816.4093,34820.7951,37122.8456,5011.1711,49368.8732,44091.6717,55106.8336,-1834.4522,-2412.7811,23767.9034
53866.3119,25990.3818,52256.9865,39809.078,34799.6056,37117.4365,5004.4656,49349.7849,44075.042,55102.6762,-1851.0371,-2424.0911,23762.092
53871.4081,25989.1748,52253.4102,39812.7437,34813.5978,37120.3423,5001.7834,49364.0453,44082.1499,55109.6052,-1842.4541,-2416.5362,23764.4166
53894.8774,25994.4499,52256.0477,39828.8369,34838.4529,37128.5677,5006.7455,49388.5875,44099.8077,55115.1037,-1821.9352,-2401.8735,23771.6585
53898.9455,25993.1087,52255.0642,39829.731,34841.0457,37130.6241,5005.5385,49386.7099,44098.2431,55113.3156,-1821.9799,-2401.0688,23768.7081
53876.8619,25984.928,52248.6269,39811.7155,34815.9671,37115.9613,4996.106,49363.33,44086.4414,55104.2408,-1845.3151,-2419.7996,23758.7392
53862.4227,25979.4742,52247.5094,39799.2432,34789.4579,37109.8816,4989.8028,49347.7732,44078.4842,55098.2952,-1857.4297,-2428.9638,23754.6265
53864.7026,25974.4674,52244.9613,39797.2316,34793.3471,37106.0818,4990.6969,49353.2717,44078.7524,55101.9609,-1854.077,-2426.9521,23755.0735
53878.4266,25975.0038,52238.8816,39803.49,34812.2567,37104.4725,4986.9865,49368.8285,44079.1547,55104.2408,-1841.5153,-2421.4536,23758.2922
53880.5723,25978.5801,52240.0886,39803.5794,34817.487,37105.6348,4987.0759,49371.466,44086.8437,55105.716,-1837.6261,-2416.8938,23759.0522
53866.8483,25968.2983,52239.6863,39794.1023,34794.2412,37100.181,4986.1819,49349.919,44073.8797,55100.3069,-1849.6513,-2426.1028,23751.0949
53847.2682,25959.5811,52236.7805,39788.872,34780.9196,37095.2636,4983.2761,49326.1814,44055.8642,55095.9259,-1865.9234,-2441.1231,23743.8083
53852.0962,25961.2799,52239.418,39791.0625,34789.5473,37099.0187,4986.5395,49336.6867,44070.9293,55099.2787,-1858.0556,-2432.5848,23750.1115
53879.2759,25977.7755,52244.3354,39807.4687,34818.7834,37107.87,4993.3344,49365.8781,44089.7942,55111.0357,-1830.25,-2410.0095,23763.4331
53885.4003,25978.5354,52247.5094,39807.5581,34819.0069,37105.5901,4993.5132,49373.9694,44087.6931,55106.7889,-1835.3462,-2409.1154,23761.3767
53867.4295,25972.0981,52249.5657,39800.2267,34805.6406,37104.0255,4993.8262,49365.5205,44081.4793,55099.0999,-1848.2208,-2419.7549,23755.5653
53853.1244,25974.825,52254.0361,39798.7962,34793.1236,37108.6299,4999.3694,49361.5419,44080.6746,55107.9065,-1855.8204,-2423.2417,23758.2028
53866.4013,25994.3604,52258.0594,39810.1062,34805.1935,37122.041,5006.0302,49371.6896,44094.9798,55112.6897,-1843.7505,-2408.4896,23766.6517
53889.2895,26004.6422,52261.1886,39823.4278,34834.7425,37131.2499,5007.6842,49401.1492,44108.8378,55123.6868,-1821.1752,-2395.2574,23774.5196
53885.3109,26005.4469,52259.3111,39823.6066,34835.0108,37127.5395,5007.1925,49411.0286,44108.2567,55127.2631,-1823.4104,-2391.5917,23772.8208
53872.1681,26000.0378,52257.3888,39814.0848,34821.1974,37126.7349,5010.6794,49395.8741,44094.0857,55124.4467,-1835.2568,-2401.2923,23773.0443
53864.032,25992.8852,52256.5395,39811.3132,34807.9652,37125.0808,5014.1662,49378.3504,44084.385,55121.1387,-1842.767,-2410.9483,23771.435
53880.9747,25993.0193,52259.6687,39818.1081,34822.0468,37127.6289,5016.1779,49383.3125,44092.9681,55122.5692,-1835.2568,-2404.7792,23774.1619
53901.4935,25995.791,52262.3956,39825.3947,34842.6104,37129.6406,5017.8319,49397.707,44103.6075,55123.5527,-1821.1752,-2395.1679,23776.71
53895.995,25996.1933,52261.2333,39830.5804,34844.4879,37129.7747,5017.4296,49394.846,44106.8262,55120.647,-1818.9847,-2396.3749,23777.6935
53881.5558,25992.0806,52259.2664,39819.5833,34815.3412,37123.9185,5007.4607,49373.9247,44096.0079,55113.852,-1832.664,-2409.1154,23766.6965
53866.446,25989.9348,52258.3723,39808.1392,34789.6367,37117.0342,5003.0351,49362.57,44086.3073,55107.1465,-1850.009,-2419.5313,23762.1367
53874.0903,26003.0329,52262.0827,39810.9555,34812.1673,37121.9516,5008.6677,49379.0209,44092.2976,55112.1533,-1841.7835,-2411.6188,23767.9034
53896.4421,26016.9357,52260.6969,39825.3053,34845.2032,37135.9438,5011.8864,49408.1229,44110.9836,55121.1387,-1825.5115,-2397.716,23775.1007
53905.2039,26022.166,52263.0215,39831.1168,34846.9466,37137.7766,5010.6794,49409.3746,44117.4209,55121.9434,-1822.2928,-2395.4362,23775.816
53891.7482,26020.1991,52264.0049,39822.0867,34833.0438,37135.9885,5006.8349,49394.6224,44107.8097,55112.8238,-1836.4638,-2407.7743,23772.8208
53873.3304,26011.4372,52259.7581,39804.9653,34809.2169,37130.8923,4996.419,49377.7692,44093.1022,55101.6033,-1855.5522,-2421.096,23765.6236
53890.9882,26018.5003,52264.2285,39821.5503,34823.7008,37140.1459,4999.8611,49392.7449,44100.7912,55102.3632,-1839.6378,-2409.6966,23772.2397
53913.3847,26030.6597,52268.5647,39838.7611,34849.0924,37149.6677,5001.4257,49423.0092,44116.5268,55120.4234,-1818.5377,-2394.2739,23777.9617
53907.2603,26033.1184,52270.7552,39837.42,34851.7299,37149.3548,5005.6279,49424.6632,44112.2353,55119.6635,-1817.733,-2394.5868,23777.2465
53895.2351,26027.7987,52269.2353,39824.8136,34833.5356,37138.8048,5008.176,49415.5437,44094.488,55112.2874,-1833.6028,-2407.2379,23772.7761
53883.7016,26018.2768,52265.4802,39816.4093,34813.1061,37130.6241,5003.1245,49396.947,44075.9808,55105.269,-1843.3034,-2418.4138,23768.3505
53897.4702,26020.8249,52264.2732,39821.6844,34822.5385,37137.6872,5004.9126,49409.6428,44075.5785,55106.5654,-1834.4969,-2410.9036,23773.6702
53909.1825,26022.3895,52258.8193,39823.2043,34842.7445,37136.4802,5008.9806,49420.6399,44084.8321,55109.8287,-1821.8905,-2397.7607,23774.296
53903.8628,26018.4556,52265.1225,39825.5289,34852.8922,37136.212,5015.0603,49419.2094,44084.9215,55111.9298,-1814.2015,-2394.6762,23778.4535
53885.1321,26013.27,52271.4704,39813.906,34832.0156,37128.3889,5016.312,49395.2483,44074.0138,55109.4711,-1826.0032,-2403.8851,23778.0511
53876.5937,26013.1359,52272.588,39813.7271,34814.0895,37130.0876,5018.1001,49370.0355,44057.0265,55101.1115,-1837.7602,-2412.0212,23777.7382
53874.8056,26017.5616,52268.8776,39808.1839,34821.9573,37130.6688,5020.5141,49366.4593,44056.043,55103.4808,-1837.2238,-2406.8803,23774.3407
53895.548,26032.5819,52272.3198,39817.7505,34848.1983,37135.5861,5028.2031,49379.9597,44069.6776,55114.1649,-1822.561,-2392.1728,23779.2581
53895.101,26038.1699,52273.6162,39820.5668,34860.8494,37129.73,5031.9135,49374.9082,44065.8331,55114.5673,-1817.733,-2390.3847,23780.8228
53875.5655,26035.9794,52276.969,39811.2237,34844.7561,37123.0245,5034.6851,49350.9918,44044.3307,55112.4662,-1829.7136,-2403.5275,23777.6488
53861.3498,26040.5391,52281.8863,39803.8924,34827.143,37122.9351,5038.2614,49326.539,44034.6748,55111.2592,-1843.3928,-2413.0493,23778.1405
53867.3848,26050.2845,52283.6745,39808.2733,34836.2178,37122.8456,5043.2235,49325.7791,44042.4085,55114.0755,-1834.3627,-2403.2593,23781.2698
53884.7297,26061.1475,52283.6745,39820.1644,34862.8163,37129.4618,5047.7833,49337.0891,44047.7282,55117.2048,-1817.5989,-2388.0154,23782.4321
53879.9465,26064.9025,52282.5122,39820.5668,34866.3926,37133.2169,5046.7104,49333.6916,44036.7758,55114.9696,-1817.3307,-2390.0717,23780.5992
53857.1477,26053.9949,52277.5054,39808.8098,34848.1536,37121.9069,5041.6142,49304.7684,44028.1034,55105.0007,-1831.457,-2405.7627,23772.3738
53838.6405,26049.8822,52278.1312,39794.0129,34821.8232,37112.3403,5038.932,49276.5605,44010.3114,55096.06,-1846.388,-2421.6771,23764.0142
53848.8328,26058.6441,52280.6346,39798.7962,34831.2557,37118.1518,5041.033,49271.6432,44012.4124,55090.0698,-1840.4871,-2417.2962,23764.4166
53867.8765,26076.0337,52287.2061,39814.1295,34852.6686,37131.2052,5049.2138,49286.5294,44026.1364,55107.4594,-1815.4979,-2393.6927,23780.3757
53868.9047,26081.5769,52290.7376,39826.3782,34858.9271,37135.1391,5055.2934,49299.6275,44031.8584,55115.9978,-1809.2394,-2387.7919,23784.8908
53859.7852,26078.1795,52291.2741,39821.3267,34845.1585,37127.8077,5055.6511,49284.026,44020.5485,55105.269,-1817.6436,-2395.6597,23781.7168
53846.1953,26069.9987,52291.9893,39813.2354,34827.143,37128.076,5055.3828,49256.2652,44011.5631,55097.9823,-1828.9983,-2402.9464,23782.0745
53855.3596,26075.2738,52294.3586,39820.075,34828.1264,37130.9817,5058.378,49264.2671,44017.0169,55104.1067,-1818.3589,-2392.0387,23786.6342
53868.7706,26080.9958,52294.9398,39832.6367,34843.415,37133.3063,5056.3663,49279.1533,44022.6495,55107.5041,-1799.807,-2382.6063,23787.3048
53869.4412,26080.9511,52292.9728,39831.8321,34847.1254,37129.9535,5051.4936,49266.6364,44015.8993,55105.8054,-1804.0538,-2385.512,23787.7518
53845.1672,26071.6528,52291.8552,39816.1858,34821.1527,37121.9963,5051.9407,49235.5675,44006.0645,55095.0766,-1823.0081,-2395.9279,23782.2086
53836.5394,26067.9871,52296.5044,39815.4259,34803.5395,37120.4764,5053.2371,49216.792,44003.2482,55089.8015,-1832.4852,-2404.4216,23785.2931
53848.0729,26066.1989,52294.5374,39824.3666,34815.4753,37126.3772,5055.204,49220.9494,44008.9256,55094.406,-1821.6223,-2395.7491,23789.0482
53864.9708,26069.7305,52295.2974,39829.6416,34834.519,37126.8243,5056.0534,49240.4401,44011.4737,55096.9541,-1807.5407,-2383.2321,23790.7022
53873.4198,26075.6314,52299.6783,39831.8321,34834.8767,37125.6173,5057.171,49240.4848,44011.429,55098.4293,-1803.2938,-2383.545,23792.8033
53865.4625,26071.7869,52300.6171,39823.4725,34811.6755,37120.9234,5052.2089,49222.5587,44009.3726,55095.8812,-1820.3706,-2399.3701,23788.2435
53853.929,26065.5731,52298.069,39813.9507,34789.1003,37119.5376,5051.0913,49206.8231,43998.0179,55087.6558,-1832.6193,-2411.2165,23783.2814
53855.4937,26066.646,52300.1254,39816.007,34799.3821,37125.3043,5052.1642,49211.6511,43999.3143,55092.3944,-1824.7068,-2404.4216,23784.8014
53878.2477,26072.3233,52300.3042,39827.3617,34825.0866,37131.4287,5053.9523,49230.4265,44015.4076,55094.9872,-1810.6699,-2389.9823,23790.5681
53893.9834,26074.1562,52302.2264,39830.9827,34828.1711,37131.2946,5055.4723,49233.7793,44020.3696,55094.1378,-1809.5076,-2390.6529,23789.8082
53888.3954,26066.2436,52301.2429,39824.456,34809.9768,37123.8291,5053.0136,49217.5519,44004.2317,55087.2535,-1824.5727,-2399.1019,23783.6838
53874.8503,26060.3875,52297.4879,39811.492,34783.4677,37116.3636,5049.7949,49199.5811,43989.1666,55089.7568,-1837.1791,-2407.1038,23780.4651
53881.6899,26057.5712,52296.0573,39812.8331,34797.2363,37123.0692,5048.9455,49197.2119,43996.6321,55091.992,-1831.7699,-2396.3302,23785.159
53898.0067,26064.0979,52297.4432,39824.9477,34817.04,37129.9088,5048.7667,49222.4693,44011.3842,55099.9492,-1813.0392,-2383.0086,23790.1658
53903.0135,26072.7704,52293.3304,39824.6795,34818.5152,37124.8573,5042.4188,49228.3255,44016.3016,55098.5187,-1814.0674,-2384.2156,23787.5283
53890.5859,26064.0532,52293.1516,39816.767,34804.1207,37119.8058,5043.8046,49207.8066,44002.0412,55091.1427,-1823.6786,-2398.476,23784.6226
53874.7609,26049.7481,52290.38,39805.0547,34782.1712,37115.4696,5042.5529,49179.4646,43990.9995,55087.164,-1836.2403,-2413.094,23780.0628
53885.0874,26053.5926,52293.2857,39809.7485,34789.6367,37121.9516,5044.8328,49189.0311,44002.98,55095.7024,-1827.4337,-2403.8851,23783.7285
53912.2224,26065.6625,52293.3304,39824.0536,34818.3811,37131.0711,5053.2818,49230.7842,44022.7389,55104.3302,-1802.7574,-2383.6792,23791.3281
53918.2574,26072.9492,52294.4927,39827.0488,34829.1099,37137.5978,5053.1924,49247.9503,44027.6116,55102.095,-1800.1646,-2380.9075,23791.6857
53900.2866,26067.6742,52300.036,39821.1032,34817.2188,37132.5463,5049.8396,49233.5558,44022.7836,55098.5187,-1813.2627,-2387.926,23786.2319
53889.2448,26066.7801,52302.8076,39815.9623,34799.7397,37130.7582,5048.5879,49219.8318,44009.9537,55096.7306,-1823.7233,-2395.6597,23786.5895
53891.6588,26066.9589,52303.791,39824.5454,34808.0546,37128.7465,5048.9455,49224.5257,44011.5184,55097.1776,-1819.2083,-2390.027,23788.3329
53906.1874,26069.3729,52305.2216,39836.8835,34832.865,37130.4005,5049.3926,49248.2185,44026.8517,55102.7656,-1806.5572,-2377.1524,23790.8363
53903.1476,26067.0036,52302.3605,39831.2956,34837.2459,37127.8971,5045.8163,49239.1437,44030.6962,55099.9045,-1806.3337,-2381.0416,23789.4505
53885.3556,26061.2816,52298.6948,39823.4725,34825.9807,37123.7397,5046.0398,49213.9757,44021.666,55097.0882,-1815.4085,-2392.0834,23784.6226
53882.2711,26061.5945,52301.3324,39819.0469,34816.5482,37124.1868,5049.5714,49199.6258,44018.2239,55095.9706,-1826.9867,-2396.4196,23786.6789
53893.0446,26064.1426,52300.3936,39818.6892,34819.0516,37127.2713,5052.2983,49204.8115,44026.4493,55095.3448,-1821.8011,-2391.7258,23788.02
53912.2671,26069.3282,52302.9864,39831.4297,34839.6599,37137.2849,5052.6112,49237.2215,44042.3638,55103.4808,-1808.7029,-2379.5664,23794.4126
53912.8035,26079.2971,52302.2264,39835.3636,34845.1585,37139.9224,5048.1409,49246.4751,44040.4862,55103.749,-1807.4512,-2377.1524,23792.3563
53897.6938,26071.4293,52299.3654,39828.3899,34824.9972,37128.7912,5045.6375,49237.1321,44024.1247,55098.2952,-1818.046,-2388.7306,23785.6954
53889.3789,26063.7403,52297.7561,39819.2257,34809.8427,37131.1158,5045.5481,49224.2128,44026.6281,55099.9939,-1827.1655,-2395.2127,23784.9802
53892.687,26069.1047,52295.9232,39827.6746,34821.4209,37137.0167,5047.6044,49238.8755,44034.4065,55099.9045,-1817.4201,-2387.5684,23787.573
53920.0455,26082.6945,52298.6501,39847.1653,34849.2712,37145.108,5051.5831,49270.4362,44044.9566,55102.8103,-1797.9294,-2371.1175,23794.8596
53927.7792,26087.6119,52304.6404,39856.5084,34857.8542,37147.209,5053.1924,49280.718,44044.1966,55112.3768,-1793.2802,-2365.6189,23798.0336
53921.2078,26085.8238,52304.7298,39845.0643,34838.0059,37148.6843,5053.7735,49263.1942,44036.5523,55110.2757,-1804.9926,-2379.1641,23793.7421
53910.6578,26085.7791,52301.9135,39836.3024,34829.4228,37148.5502,5055.517,49247.6374,44026.8517,55102.542,-1812.8157,-2387.4342,23792.3563
53916.7374,26090.2941,52303.8357,39839.9234,34848.3324,37159.279,5057.7074,49259.4838,44033.6466,55103.8384,-1803.2491,-2379.7452,23794.9938
53936.3623,26104.331,52308.7084,39860.0399,34876.9426,37175.2381,5063.5636,49290.6421,44057.1159,55113.1815,-1780.2715,-2359.0922,23803.0404
53947.9852,26107.6391,52309.2896,39869.6065,34884.4975,37179.9767,5063.6977,49298.8229,44068.2024,55116.6236,-1776.9188,-2359.7181,23804.0686
53928.7627,26095.6138,52304.551,39861.4705,34866.1691,37171.3042,5056.9028,49280.6286,44056.1771,55108.9346,-1795.873,-2376.5266,23798.2571
53904.0416,26081.7111,52299.8571,39840.9069,34836.0837,37157.0885,5043.9388,49263.2836,44041.8273,55102.0056,-1819.8788,-2391.1446,23788.78
53910.3448,26082.7392,52301.6006,39843.0079,34843.1468,37159.8601,5044.6987,49276.3817,44046.5212,55107.7276,-1812.771,-2384.3497,23789.3164
53926.9745,26088.1484,52302.2264,39850.4287,34861.3858,37163.4811,5049.4373,49299.1358,44061.5863,55118.2777,-1797.1694,-2371.1175,23793.4291
53930.4167,26090.3388,52304.551,39852.5298,34864.9174,37161.5142,5049.8396,49303.025,44060.9157,55118.9929,-1796.2754,-2372.1457,23794.1444
53913.6976,26080.7276,52302.8076,39841.041,34842.2974,37152.6629,5046.2186,49276.65,44041.9167,55111.9745,-1811.9216,-2386.6743,23789.227
53897.3361,26067.6295,52297.309,39824.0983,34820.0798,37140.0565,5044.3858,49254.4323,44025.1529,55107.0571,-1828.0596,-2396.7326,23781.6721
53902.3876,26067.54,52295.2527,39826.5123,34828.3499,37135.765,5043.3129,49262.926,44037.3123,55107.4594,-1823.8127,-2391.0552,23783.4603
53917.8103,26074.6926,52299.7677,39839.8787,34855.1273,37140.2353,5046.2186,49293.0114,44055.0148,55116.8472,-1813.2627,-2378.4488,23789.5399
53922.9959,26075.8549,52301.7347,39844.2149,34863.9786,37141.487,5050.1525,49304.0085,44064.045,55122.748,-1804.9926,-2377.1524,23791.8198
53913.6529,26071.2951,52300.483,39840.6833,34845.829,37142.247,5053.9076,49288.7646,44055.6407,55118.4565,-1809.5523,-2384.752,23793.0268
53902.5217,26064.7237,52299.0078,39831.385,34830.0487,37138.0001,5052.9689,49276.7841,44043.2131,55114.6567,-1823.8127,-2394.1845,23792.4457
53907.1709,26065.1708,52297.622,39828.7028,34843.3703,37138.4472,5053.4606,49283.8472,44053.0032,55120.1105,-1816.7049,-2384.8861,23795.5302
53919.4196,26069.8199,52294.5374,39836.7941,34867.5102,37139.6989,5053.55,49309.6411,44070.2587,55126.0561,-1802.8468,-2373.1291,23796.8713
53918.9279,26066.1542,52290.827,39832.5473,34867.2867,37133.3063,5052.2983,49302.9356,44070.4823,55120.334,-1804.5008,-2375.8113,23790.4787
53911.4177,26066.0648,52293.1069,39825.8865,34850.1205,37130.6241,5053.6394,49286.8423,44066.3695,55116.0872,-1815.5873,-2385.2438,23784.8461
53902.3429,26069.0153,52297.8455,39822.6678,34832.6862,37130.4005,5057.2157,49283.0873,44066.7719,55124.715,-1823.321,-2387.0319,23788.6459
53908.1991,26073.0833,52301.1088,39835.4977,34846.9466,37134.4239,5063.0718,49294.8443,44072.3151,55131.7781,-1811.0722,-2378.5383,23793.9209
53925.1417,26075.4973,52301.6453,39844.2596,34869.4772,37144.3033,5062.7589,49312.7704,44081.4793,55134.8627,-1796.9459,-2368.2564,23797.1395
53934.1271,26075.1396,52301.7347,39845.2431,34873.4111,37147.9243,5063.1613,49314.6926,44079.7806,55132.6275,-1799.047,-2373.0397,23791.5069
53915.441,26071.6975,52295.9232,39837.3753,34857.3625,37140.3247,5061.5519,49299.3146,44061.631,55124.4915,-1815.6767,-2387.7472,23783.3261
53896.1738,26064.7684,52296.9961,39827.6299,34843.6385,37136.8825,5063.206,49290.8657,44055.2384,55124.3126,-1824.6621,-2390.6529,23784.8908
53904.3993,26070.1329,52298.8737,39829.4181,34852.311,37140.0565,5062.5801,49303.6062,44063.4638,55126.4584,-1814.9167,-2382.7404,23790.434
53923.89,26076.5254,52303.6569,39847.0759,34877.8367,37148.8631,5062.8483,49329.2212,44076.6513,55133.7004,-1797.0353,-2370.2681,23795.7984
53921.2078,26077.0619,52303.5675,39854.7649,34884.2293,37154.9875,5067.7657,49325.2426,44084.2509,55131.3311,-1791.0004,-2366.8706,23799.1512
53905.2933,26072.6362,52300.3042,39842.0691,34858.5695,37148.5949,5063.4742,49306.0648,44069.9905,55119.9317,-1804.2326,-2381.8016,23790.7469
53888.6189,26068.9706,52298.7843,39826.9594,34835.8601,37142.2917,5063.8765,49290.9104,44060.1557,55116.6683,-1818.8506,-2392.441,23787.3495
53889.6024,26067.5848,52295.0292,39829.6863,34839.9282,37140.0118,5061.5072,49292.475,44059.7981,55111.8404,-1817.3307,-2393.5586,23782.2086
53907.3944,26073.9326,52296.102,39842.9185,34861.0282,37144.9292,5061.9096,49309.954,44066.2801,55118.4118,-1803.4279,-2380.7734,23783.3709
53914.4129,26074.782,52298.2031,39849.6687,34864.1127,37142.6493,5060.8814,49317.6877,44068.2024,55125.3855,-1803.2938,-2381.4887,23784.712
53898.2749,26070.9375,52295.2527,39838.7611,34846.4102,37136.2567,5057.171,49298.5994,44055.2384,55118.5459,-1819.3871,-2392.7093,23783.7285
53889.0213,26068.9706,52295.8785,39832.1897,34833.0885,37139.833,5057.1263,49283.9366,44048.4881,55112.4215,-1828.1937,-2397.3137,23782.6109
53899.8395,26064.8131,52296.9514,39831.7426,34843.5044,37146.5385,5056.9028,49294.4866,44056.5795,55112.5109,-1821.667,-2388.5518,23783.2814
53917.6762,26071.7869,52294.5821,39839.1187,34859.3295,37150.3383,5056.2769,49322.8287,44071.9575,55120.334,-1808.3453,-2378.8512,23785.7848
53918.2574,26072.1445,52293.9116,39841.935,34860.1341,37150.1148,5055.7852,49323.7674,44077.5007,55118.68,-1802.0421,-2380.1029,23786.5448
53911.5965,26069.6411,52302.0923,39836.4365,34849.1818,37151.0983,5058.3333,49302.3098,44072.0916,55113.9861,-1810.6699,-2386.8531,23786.9471
53900.5101,26065.2602,52302.4499,39829.6863,34839.5258,37143.7222,5056.0981,49287.1553,44062.3015,55111.2145,-1824.8856,-2400.443,23780.9569
53906.1874,26070.8928,52300.5277,39828.8816,34847.1701,37145.1974,5054.2653,49301.818,44061.0051,55113.9414,-1822.8292,-2396.3749,23782.4768
53923.89,26079.4759,52300.1254,39839.6552,34869.2536,37150.1148,5056.5451,49314.1115,44073.7009,55116.9366,-1806.1996,-2383.3215,23783.2814
53925.9464,26073.8879,52298.1137,39842.0244,34875.0204,37152.3947,5057.8415,49310.5352,44085.7708,55123.4633,-1805.5737,-2379.477,23786.3213
53906.6792,26062.9803,52294.0904,39827.6299,34852.8922,37144.1692,5049.5714,49295.1125,44079.6018,55123.8209,-1823.321,-2394.8997,23784.8014
53893.8493,26057.4371,52294.4927,39822.5784,34835.9048,37139.9224,5048.8114,49281.3885,44063.3744,55116.8472,-1831.8146,-2404.5557,23784.1308
53893.3575,26056.7218,52293.2857,39824.3666,34843.3256,37140.3694,5047.2021,49289.9269,44074.6844,55118.0989,-1820.8623,-2397.5819,23784.5778
53921.9677,26060.3875,52293.0175,39831.2062,34861.8329,37144.9292,5047.515,49312.681,44096.8126,55122.7927,-1806.8254,-2383.3215,23788.7353
53930.7743,26063.6508,52291.9446,39823.8748,34859.5083,37142.1129,5046.8892,49322.3369,44103.2052,55128.8724,-1808.2112,-2382.1592,23790.1211
53908.3779,26057.5712,52289.173,39811.2684,34834.8767,37133.5745,5042.6871,49303.8744,44087.2014,55127.6654,-1824.0362,-2394.408,23786.1872
53900.6889,26052.5644,52289.8436,39806.8428,34824.4607,37133.5298,5042.3741,49286.6188,44076.0702,55124.1338,-1830.0265,-2397.9396,23783.2814
53909.2273,26054.7101,52294.1798,39816.6776,34846.0972,37139.1177,5050.0631,49304.5449,44084.5639,55128.6489,-1816.2131,-2385.959,23789.4505
53926.751,26062.7568,52294.5374,39827.9876,34866.5714,37146.9408,5051.5383,49322.2475,44096.4103,55134.1027,-1801.8633,-2373.7103,23792.2668
53933.0095,26063.3379,52296.5044,39828.2558,34869.9689,37147.5667,5050.0631,49333.334,44094.3092,55136.1144,-1803.2044,-2379.2982,23789.8976
53912.4459,26057.3924,52295.208,39815.0682,34849.0924,37139.6989,5050.5996,49331.1882,44093.5493,55131.5993,-1814.4697,-2388.4177,23787.4389
53884.8639,26053.0114,52297.4879,39803.8924,34828.9311,37137.1508,5052.79,49316.6596,44090.6435,55129.6771,-1827.5678,-2395.1679,23788.4223
53895.3692,26052.6538,52299.8571,39805.7699,34834.5637,37138.5813,5054.0864,49317.2854,44095.4268,55134.2368,-1820.2811,-2390.4294,23787.4389
53917.8997,26057.7053,52299.9913,39820.6562,34861.6987,37144.1245,5056.8134,49339.1454,44109.9554,55139.2436,-1805.082,-2376.8395,23792.7586
53926.0358,26061.371,52298.1137,39831.8321,34869.5219,37146.6726,5055.7852,49345.6274,44111.6989,55137.0978,-1802.2209,-2375.4537,23793.8315
53907.3944,26056.0513,52298.7843,39823.7854,34854.0097,37136.212,5053.4606,49330.1153,44103.2499,55128.2465,-1819.8788,-2387.926,23789.674
53890.4071,26050.1951,52298.4713,39811.9837,34834.0273,37133.1275,5052.3877,49317.8666,44093.6387,55124.5809,-1832.4405,-2396.822,23786.5448
53903.9969,26056.1407,52300.7065,39822.1761,34844.3091,37143.3198,5056.6792,49341.1124,44104.9486,55130.9288,-1818.94,-2390.8317,23789.2717
53934.2165,26064.8578,52306.205,39843.2314,34875.378,37157.2226,5061.9096,49369.0073,44121.2207,55142.4176,-1796.6777,-2373.755,23795.5302
53936.7646,26066.9589,52310.2731,39841.9797,34875.6462,37155.9262,5065.5305,49364.7158,44121.936,55151.1794,-1798.1976,-2369.1952,23797.9442
53917.3186,26064.5449,52308.172,39833.039,34849.897,37154.5851,5060.479,49345.0463,44110.3131,55143.5351,-1814.1568,-2378.9406,23793.5185
53899.3031,26054.4419,52301.8241,39822.9808,34817.9787,37145.9126,5053.0136,49330.4729,44093.5493,55135.1309,-1830.1159,-2393.6033,23783.505
53908.3332,26057.6159,52298.7396,39831.8321,34835.3684,37144.0351,5054.0864,49349.9637,44104.0546,55137.7684,-1823.3657,-2385.8696,23784.8908
53928.9862,26066.3778,52300.6171,39847.0759,34867.1526,37148.7737,5059.4509,49368.9179,44121.0419,55142.3728,-1806.5572,-2371.8774,23788.78
53934.1271,26065.3943,52303.791,39848.2829,34867.7784,37151.9476,5054.8911,49358.0997,44121.3995,55140.9423,-1803.0703,-2373.7103,23787.3495
53918.3468,26053.5479,52296.9961,39837.4647,34854.4121,37141.3082,5048.1409,49341.47,44107.4967,55130.1688,-1818.1354,-2389.2671,23782.6556
53898.8113,26048.2281,52298.516,39824.1431,34841.4928,37137.1061,5047.2021,49333.1105,44103.6075,55126.7266,-1829.6689,-2398.7889,23780.6886
53902.4323,26052.2515,52301.4218,39829.731,34850.3888,37140.8165,5049.6608,49352.2435,44109.5531,55129.2747,-1821.3987,-2392.0834,23781.9403
53920.9396,26059.8511,52299.6783,39844.5725,34869.5219,37145.8232,5050.1525,49379.2892,44121.623,55134.3262,-1807.0042,-2380.1923,23786.9918
53929.3885,26063.8744,52304.7745,39850.3393,34874.2604,37155.0322,5052.2983,49382.5525,44125.4228,55142.0152,-1801.6398,-2376.7948,23793.6527
53910.9707,26053.8161,52300.7065,39838.8058,34853.8756,37153.6911,5049.929,49364.09,44110.9389,55137.3214,-1816.3919,-2388.5518,23789.7635
53895.9056,26048.1834,52299.4101,39825.3053,34834.1167,37143.2304,5044.2517,49350.1872,44102.8476,55132.3146,-1829.5348,-2399.1913,23785.2037
53916.3351,26051.4468,52301.5112,39840.9069,34850.4335,37152.3499,5048.0515,49362.3018,44109.5084,55134.7733,-1819.1636,-2389.6694,23786.0084
53936.2729,26058.5099,52301.4218,39849.937,34871.0418,37153.6016,5049.1691,49381.882,44131.279,55144.1163,-1801.8633,-2375.7219,23787.7965
53937.4352,26063.1144,52299.2313,39851.4569,34876.138,37151.2324,5054.2653,49383.1336,44133.0224,55148.4525,-1800.5222,-2374.6938,23791.2387
53926.0805,26056.4536,52303.1205,39843.8126,34860.76,37147.969,5055.8299,49365.6546,44124.8417,55144.7421,-1808.5241,-2381.8463,23794.2338
53912.9376,26052.1173,52302.5393,39830.0886,34840.107,37143.5881,5045.8163,49348.4437,44108.3461,55134.2815,-1825.5115,-2392.1281,23787.6624
53907.9756,26055.2466,52297.1749,39830.7145,34849.003,37143.7669,5042.8659,49352.2435,44115.3646,55135.5779,-1824.1704,-2386.0037,23784.6673
53927.6451,26056.3642,52301.7794,39844.1702,34874.3051,37150.4724,5050.0184,49376.5175,44135.4364,55150.5983,-1806.8701,-2374.649,23791.641
53928.0921,26056.5877,52300.0807,39848.9535,34876.2274,37151.9923,5047.3809,49387.2464,44133.693,55148.4972,-1807.3171,-2379.2088,23791.2834
53914.3234,26044.3836,52295.7444,39836.7047,34850.6123,37145.4209,5040.5413,49360.916,44123.2324,55142.9987,-1821.2646,-2388.5965,23786.5001
53901.4935,26037.2758,52291.7211,39827.2276,34827.6347,37140.5929,5036.0262,49344.5992,44119.2985,55140.6294,-1832.0382,-2392.6198,23784.9802
53918.2127,26046.6635,52297.4432,39831.5191,34836.486,37146.4938,5043.4023,49361.6313,44128.6415,55145.9938,-1821.8905,-2381.3099,23791.2834
53935.8258,26052.6985,52298.0243,39843.7232,34861.8776,37156.1497,5045.8163,49393.9072,44138.2527,55148.2737,-1806.3784,-2370.7598,23796.5584
53939.268,26057.0347,52292.7493,39846.9865,34869.0748,37154.8086,5042.7318,49388.6322,44139.2809,55150.9559,-1808.3453,-2368.6588,23795.5749
53926.1252,26053.5926,52292.5705,39844.7961,34855.5744,37150.0254,5042.24,49372.673,44129.312,55143.4457,-1820.2811,-2376.9289,23790.2552
53908.065,26048.407,52295.8785,39832.1897,34840.9116,37147.7008,5038.932,49364.8499,44120.4607,55136.5167,-1832.9769,-2389.7141,23786.0084
53917.4527,26051.4468,52302.4499,39839.3422,34853.4286,37155.4345,5043.6258,49373.5224,44130.7873,55140.7188,-1824.1704,-2386.9872,23789.3611
53941.8608,26060.9239,52304.9533,39858.4753,34881.0107,37163.3917,5048.9455,49396.6341,44140.7114,55148.4078,-1804.1879,-2371.2516,23794.7255
53939.0445,26055.6936,52302.2264,39854.4073,34883.3352,37160.2625,5048.8561,49401.9985,44131.1896,55151.403,-1804.5902,-2369.5081,23792.1774
53921.3866,26048.4964,52302.9417,39847.3442,34861.6987,37154.3616,5046.2633,49389.8839,44123.8582,55145.9938,-1818.6271,-2385.3332,23786.0978
53910.8366,26040.7627,52298.516,39834.6931,34842.8339,37145.3762,5043.0894,49369.812,44118.5385,55137.3661,-1830.9206,-2398.1184,23782.0745
53923.7112,26045.6353,52298.2031,39840.3257,34845.1138,37151.6794,5044.1623,49380.1832,44124.3947,55139.78,-1826.629,-2387.4342,23786.2319
53938.4633,26055.5148,52296.1915,39849.0876,34866.8844,37159.5919,5043.2682,49402.5797,44137.0457,55143.8928,-1812.9945,-2374.4702,23790.3893
53938.9104,26059.7616,52297.8902,39845.3325,34870.0136,37151.6347,5042.24,49409.017,44141.0691,55147.7373,-1811.6981,-2374.4255,23787.8412
53922.8618,26051.9832,52293.1516,39831.2956,34842.1633,37145.7338,5036.2051,49383.3125,44125.5122,55138.7519,-1828.9089,-2390.9211,23780.2863
53908.8249,26044.0707,52292.6152,39826.8253,34829.3334,37141.3976,5031.243,49366.5487,44118.9855,55135.0862,-1840.4871,-2404.6451,23774.1619
53912.3565,26044.7413,52289.7989,39830.7592,34833.2226,37139.3412,5032.45,49379.8703,44121.2654,55139.5565,-1835.9721,-2400.0853,23778.8111
53923.7559,26049.7928,52287.8319,39840.5492,34850.7911,37143.0963,5034.2381,49401.5515,44130.6084,55142.4623,-1819.7894,-2390.8317,23780.4204
53925.7228,26050.6421,52286.8931,39841.8903,34858.0331,37141.7999,5032.9864,49400.3892,44125.7805,55139.1095,-1819.5212,-2391.0552,23778.1852
53903.6393,26041.4779,52286.5355,39833.799,34835.0108,37137.3296,5034.551,49378.8421,44121.8019,55136.5614,-1828.1043,-2398.923,23774.9666
53895.101,26035.6665,52288.3683,39830.938,34820.8398,37140.0565,5034.8192,49362.9724,44112.3247,55131.5099,-1839.5483,-2409.3837,23771.5244
53913.9658,26046.4847,52291.8105,39840.8175,34838.2294,37148.6396,5039.6919,49373.7459,44126.7639,55141.2553,-1825.7797,-2397.3137,23777.4253
53929.0756,26052.0279,52293.7328,39850.2946,34868.9854,37158.0273,5045.414,49405.7089,44146.7911,55151.85,-1803.875,-2378.4041,23784.7567
53931.3108,26050.8657,52294.8503,39849.0876,34875.1992,37151.9029,5040.586,49411.118,44139.9515,55150.196,-1809.4182,-2380.2817,23782.8791
53924.2476,26052.1173,52297.7561,39837.7776,34854.0097,37144.3033,5042.8659,49403.1608,44126.8533,55144.9209,-1826.0926,-2389.4012,23777.3806
53905.0698,26045.3671,52289.3965,39827.0041,34836.5754,37136.0332,5040.4519,49385.2794,44114.247,55134.3262,-1836.9555,-2404.8686,23768.8869
53908.4673,26039.6451,52287.519,39831.385,34844.1303,37138.4025,5040.4072,49385.4582,44117.5103,55139.0201,-1829.0877,-2402.1417,23770.7198
53922.7277,26052.0279,52289.3965,39846.0031,34866.0797,37143.9457,5046.2186,49407.8994,44137.2246,55148.8549,-1813.8885,-2385.7802,23777.5147
53927.7792,26052.8773,52289.3965,39849.3558,34870.6394,37144.9739,5046.9339,49418.9411,44147.2828,55150.5536,-1812.1004,-2381.1758,23779.7946
53911.4177,26043.2214,52287.9213,39837.7329,34850.7464,37134.9156,5044.3858,49407.4076,44130.2061,55145.5915,-1829.9818,-2395.3021,23773.4914
53900.9571,26040.0474,52287.1614,39829.0604,34825.0419,37131.6522,5040.8989,49388.6322,44122.0701,55138.5731,-1842.3647,-2406.2097,23768.574
53907.7967,26051.0445,52287.8319,39835.4083,34832.3733,37142.5152,5042.1506,49386.7546,44132.933,55140.54,-1830.6524,-2398.2078,23773.3573
53932.4731,26063.785,52292.347,39846.9418,34862.9504,37149.176,5047.7386,49408.9276,44142.9019,55144.7868,-1814.6038,-2383.8133,23777.3806
53931.3108,26059.9405,52296.415,39846.1372,34869.0301,37148.8631,5045.3246,49415.0519,44147.1934,55147.9608,-1811.9216,-2379.8794,23780.5098
53916.1563,26052.475,52296.6385,39840.3704,34851.2381,37144.3033,5045.2352,49411.9674,44140.3538,55145.2786,-1823.6786,-2386.4955,23779.0793
53899.2584,26051.715,52297.6667,39830.7592,34833.1779,37139.2518,5043.1341,49395.9635,44127.2557,55136.8743,-1836.8661,-2395.615,23776.4865
53911.5071,26053.9055,52300.7959,39837.2412,34845.4714,37146.7173,5044.7434,49408.1676,44140.8455,55147.022,-1820.6388,-2380.8181,23783.5497
53941.7267,26066.7801,52304.9086,39857.8495,34874.2604,37157.312,5052.7453,49431.9052,44161.4985,55162.3553,-1795.3813,-2363.5179,23796.4243
53953.3943,26071.9657,52304.8639,39866.969,34884.0952,37160.7989,5057.0369,49430.8323,44158.5928,55164.9481,-1789.9275,-2358.2876,23798.7489
53931.1767,26065.0367,52295.9232,39848.5065,34850.1205,37155.6133,5049.2138,49406.6924,44136.2411,55153.7722,-1809.2841,-2376.2584,23788.5118
53916.3351,26056.8112,52293.8222,39839.3422,34823.7008,37146.4938,5043.0,49388.5428,44123.1877,55141.9258,-1824.3045,-2390.5635,23779.5264
53927.7345,26060.1193,52296.9961,39848.8194,34836.5307,37150.0701,5050.2419,49404.7701,44135.1682,55145.9491,-1817.9119,-2380.4158,23781.6274
53940.8326,26068.0765,52299.7677,39859.8164,34867.6443,37158.2955,5053.3265,49435.4814,44149.071,55151.4924,-1803.0703,-2365.5295,23788.78
53937.7928,26070.3564,52302.5841,39865.1809,34874.5286,37156.4627,5052.9242,49440.8011,44152.9155,55152.7441,-1801.4163,-2363.6967,23793.8315
53920.6713,26066.6013,52299.0972,39850.1158,34858.4801,37153.1099,5048.722,49428.1054,44145.5394,55147.6926,-1818.493,-2377.1971,23786.2766
53907.5285,26059.5828,52292.5258,39839.3869,34836.0837,37152.7523,5045.1905,49416.8401,44134.7659,55139.1095,-1834.7651,-2393.1563,23777.6935
53915.3516,26062.7568,52293.5092,39843.7232,34849.8523,37157.2226,5046.8892,49435.2579,44139.0574,55140.6294,-1827.3443,-2389.8482,23778.1852
53935.1106,26070.8034,52294.7162,39852.3957,34871.3547,37157.2226,5047.828,49459.4872,44149.2051,55143.3116,-1814.6038,-2377.1524,23780.8228
53946.4653,26071.6528,52297.0855,39865.4491,34881.1895,37163.7493,5054.5782,49466.4162,44157.0729,55150.6877,-1804.4114,-2370.3575,23783.9073
53921.6995,26057.9735,52291.8552,39851.5016,34854.8144,37158.072,5048.1856,49435.2579,44148.7581,55143.9375,-1816.4814,-2384.9756,23778.7217
53906.9921,26047.4235,52287.8319,39838.9399,34832.418,37149.5336,5039.4684,49404.3678,44134.0953,55134.1474,-1833.7816,-2400.9347,23772.5526
53915.2622,26050.2398,52289.3071,39842.0244,34840.7328,37154.6745,5041.4354,49417.153,44134.587,55141.7917,-1826.4502,-2391.7705,23778.3641
53928.5392,26054.6654,52290.0224,39852.798,34863.621,37162.587,5044.6987,49438.3872,44143.7066,55147.469,-1806.9595,-2375.0961,23785.159
53939.1339,26067.4953,52292.6152,39861.9622,34873.5005,37172.5559,5044.8328,49448.1772,44153.6307,55159.986,-1804.2773,-2374.3361,23786.9918
53926.4381,26066.0648,52291.5423,39851.6357,34855.6638,37162.9894,5043.8493,49436.7331,44144.6006,55154.9345,-1820.0576,-2389.0883,23783.505
53910.9707,26065.3049,52294.6268,39846.2713,34843.1468,37156.9097,5041.5248,49426.3172,44140.5773,55147.3796,-1825.422,-2397.716,23785.2037
53920.5819,26070.1329,52292.7046,39852.798,34850.7464,37162.9447,5041.3013,49441.7846,44150.2333,55146.3515,-1815.1402,-2385.5567,23787.7071
53940.8773,26077.0172,52287.6978,39859.3694,34868.5384,37165.8951,5040.3178,49459.8895,44154.6589,55148.8549,-1804.9031,-2374.2467,23788.4223
53935.1553,26070.6246,52285.1497,39857.0448,34870.5053,37167.6385,5035.758,49457.1179,44144.2877,55141.2553,-1807.183,-2374.962,23785.5613
53923.6665,26064.9472,52285.5073,39850.2052,34852.311,37164.3752,5032.1817,49436.0179,44127.7921,55134.3262,-1821.7564,-2385.4226,23779.9287
53909.3167,26052.7879,52286.3567,39836.973,34829.0652,37162.2294,5026.6385,49422.6515,44118.4491,55131.0182,-1834.3627,-2395.1679,23775.6819
53926.6169,26055.1125,52284.8815,39837.5541,34841.1798,37161.8718,5031.6453,49434.9897,44122.6959,55138.3495,-1829.4007,-2388.6859,23782.0745
53945.303,26063.4273,52287.9213,39846.5842,34862.1458,37165.8057,5038.4402,49449.116,44137.314,55147.5585,-1810.3123,-2371.2069,23791.6857
53950.6227,26059.7169,52294.8951,39852.0827,34866.7055,37167.7727,5042.9553,49459.8448,44135.794,55150.3748,-1799.807,-2364.2331,23794.7255
53934.44,26048.2281,52291.4976,39841.8903,34845.9184,37160.0389,5040.4966,49432.1287,44121.6677,55149.3019,-1814.8273,-2376.5266,23793.2056
53917.2292,26038.5722,52289.933,39830.4462,34832.2392,37150.6065,5039.5578,49408.8829,44111.5648,55143.7587,-1826.8526,-2389.1777,23789.4952
53919.1514,26038.1699,52289.0389,39831.1168,34847.0807,37155.3451,5043.3576,49415.6778,44115.2304,55144.2951,-1820.9517,-2380.2817,23791.2387
53930.4167,26045.9036,52291.4082,39841.7562,34867.0632,37163.0788,5046.7104,49437.6719,44122.4724,55151.0453,-1810.804,-2368.6588,23793.608
53931.8472,26051.0892,52293.1963,39844.9302,34871.8911,37161.7377,5051.0019,49433.6933,44121.5783,55147.2455,-1808.0771,-2368.7929,23793.5185
53913.5635,26048.3176,52293.8222,39832.3238,34850.8358,37148.9525,5051.3148,49408.0335,44096.8573,55138.4389,-1820.2811,-2383.1874,23787.6177
53897.962,26043.4896,52290.9164,39820.2986,34831.0769,37138.0895,5054.1759,49374.4612,44083.4016,55138.5283,-1831.2335,-2395.8385,23786.4554
53905.0698,26054.6207,52286.2673,39828.524,34849.45,37144.0798,5060.5685,49368.9179,44086.8437,55141.1211,-1826.3608,-2391.6811,23789.8976
53920.5372,26069.1047,52286.9378,39837.5988,34872.07,37143.6328,5061.5966,49378.708,44098.109,55142.5517,-1806.736,-2375.6772,23793.3397
53917.3186,26067.9424,52291.6764,39835.8107,34871.4888,37142.8281,5063.0271,49376.8752,44091.18,55141.1211,-1802.8915,-2375.409,23792.7139
53894.1175,26059.8063,52286.4461,39824.2325,34853.0263,37134.6027,5059.2273,49356.1774,44071.8681,55132.091,-1818.8059,-2390.8317,23786.8577
