FC3,FCz,FC4,C5,C3,C1,Cz,C2,C4,C6,CP3,CPz,CP4
52689.448,25191.2177,51577.1359,38764.8046,34128.4722,36142.4536,4916.7573,48965.6478,44157.6988,54979.9651,-2811.4915,-3011.2714,22838.7415
52679.0768,25187.6861,51578.0747,38758.6355,34127.1311,36140.0843,4913.7622,48962.0715,44142.276,54977.3723,-2818.5099,-3019.8097,22833.1089
52686.3188,25185.8979,51573.8726,38764.7599,34139.6928,36146.9239,4912.6893,48980.3553,44154.9271,54982.0662,-2805.3224,-3008.3209,22835.1206
52694.3654,25191.5306,51570.1622,38769.7667,34150.064,36149.1591,4909.9177,48984.5574,44170.3945,54986.76,-2794.8171,-3000.319,22834.45
52689.7609,25186.5685,51567.9717,38758.5908,34138.0835,36140.8889,4905.7156,48980.5788,44163.8678,54986.9835,-2802.6849,-3007.6057,22827.0292
52675.9923,25178.2537,51570.2516,38746.7891,34119.4868,36132.3953,4904.1063,48972.4874,44153.3625,54979.6075,-2818.0629,-3023.6095,22821.2625
52667.4539,25176.1079,51569.6704,38750.8571,34116.6705,36135.9715,4906.3414,48964.5749,44150.4121,54980.1439,-2819.3146,-3021.6426,22821.7095
52682.4743,25182.1876,51569.5363,38760.9601,34140.8998,36139.7713,4909.7389,48990.0559,44155.3742,54985.6871,-2801.9696,-3005.0576,22828.5491
52700.9815,25185.7638,51565.1554,38764.4917,34154.6237,36144.6887,4910.6777,49003.7799,44152.5578,54981.932,-2793.923,-2999.9614,22829.1303
52698.1652,25184.378,51568.7764,38764.7599,34144.1184,36145.1358,4910.8565,48992.8275,44150.9932,54982.4238,-2796.9182,-3007.6057,22825.7775
52678.138,25180.5782,51569.0893,38752.2429,34121.0067,36141.2466,4907.9508,48977.3154,44140.7114,54973.9301,-2812.6538,-3019.4521,22819.5637
52676.1711,25180.5335,51571.548,38751.7065,34112.6472,36139.5478,4911.2588,48980.7129,44140.4879,54970.3985,-2815.5148,-3020.0332,22820.8601
52690.0291,25187.1049,51579.8628,38767.8444,34143.7161,36149.7402,4919.0819,48996.1803,44166.5947,54980.4568,-2798.6169,-3005.5046,22827.6104
52705.3177,25188.3566,51583.4838,38780.7637,34162.8939,36155.194,4921.9877,49018.8003,44179.9611,54986.1342,-2789.5868,-2995.9828,22834.3159
52698.3887,25187.2391,51584.3779,38779.4673,34147.1136,36156.8928,4922.4347,49021.3931,44175.5801,54984.659,-2793.5654,-2998.4862,22835.1206
52679.9709,25184.2886,51585.3167,38773.6112,34124.6724,36151.3942,4919.6631,48994.7945,44166.4159,54980.9933,-2807.1105,-3009.6173,22830.2479
52668.4374,25176.5996,51581.5169,38760.8707,34118.9504,36143.0347,4915.9974,48982.3669,44159.174,54975.45,-2819.0911,-3013.8642,22824.1235
52685.0671,25184.4227,51578.7005,38766.5033,34147.65,36149.7402,4918.2326,49005.881,44177.2789,54980.1886,-2807.2,-2999.6485,22827.4316
52701.7415,25193.7658,51583.752,38779.7803,34170.8064,36157.3398,4920.6018,49033.2842,44186.5772,54989.7999,-2791.1067,-2988.9643,22833.5559
52694.1866,25192.2905,51579.8181,38773.4771,34158.1553,36148.9356,4915.8633,49031.049,44180.3634,54984.2119,-2799.198,-2997.905,22827.7892
52671.9242,25180.4888,51574.9902,38758.2779,34132.719,36145.0464,4909.9177,49010.5748,44168.4276,54970.3985,-2813.8161,-3016.457,22819.832
52665.9787,25171.9952,51573.6938,38753.9417,34121.2749,36142.9453,4909.8283,48996.3144,44158.5928,54964.8553,-2817.6606,-3022.8496,22816.658
52680.5073,25176.7337,51568.6423,38765.341,34134.1943,36145.6275,4908.7107,49001.4106,44165.4325,54969.2363,-2803.7578,-3008.768,22818.4462
52694.4548,25185.0039,51572.2185,38774.6394,34148.4994,36144.2417,4907.459,49026.534,44174.0155,54974.7348,-2792.5819,-3001.3472,22820.5025
52686.3188,25180.6229,51569.581,38772.8065,34145.4148,36142.7218,4904.9556,49021.7954,44168.3382,54972.7678,-2802.819,-3006.8457,22818.0885
52671.3878,25172.6657,51568.0164,38763.687,34124.6724,36139.6819,4901.7817,48997.0744,44155.0165,54966.3752,-2817.75,-3019.1392,22815.1381
52663.967,25162.8757,51568.0611,38754.6122,34117.341,36139.9055,4899.2336,48989.6089,44153.4519,54965.8388,-2826.1095,-3024.2801,22811.7853
52678.4062,25165.5132,51563.8143,38756.5345,34131.4673,36142.543,4896.7749,49006.775,44164.4937,54970.1303,-2817.3923,-3017.1275,22813.8417
52686.2741,25169.76,51561.2215,38758.9037,34141.0339,36140.129,4896.149,49022.7789,44167.0418,54970.488,-2813.8608,-3014.4453,22813.35
52683.4577,25169.3577,51564.9766,38761.0942,34139.8716,36142.1853,4897.4454,49022.3318,44167.757,54972.3655,-2816.6324,-3024.0119,22811.0254
52667.2304,25165.2002,51567.6588,38748.2643,34118.9951,36138.6538,4897.8925,49003.0199,44160.2468,54967.4928,-2832.4574,-3034.1148,22807.6279
52666.0234,25159.3888,51565.1107,38742.2293,34114.1671,36136.6868,4894.942,48997.9237,44153.3625,54965.9729,-2834.6926,-3036.5735,22806.4209
52680.4179,25161.4898,51569.4916,38755.2828,34133.032,36140.2631,4896.5961,49023.8965,44169.1875,54971.4714,-2820.8345,-3025.8,22811.2489
52690.5656,25164.3956,51566.8541,38761.4071,34146.0854,36141.7383,4897.9372,49040.6603,44183.6715,54976.2547,-2806.1271,-3015.9205,22815.7192
52683.3236,25161.9816,51563.2778,38759.8872,34129.5898,36138.2961,4891.6787,49029.0821,44176.3401,54970.5774,-2810.8656,-3023.7883,22814.1546
52663.5647,25149.107,51559.1204,38739.3236,34102.4548,36133.2893,4886.2696,49002.5729,44160.5598,54966.6882,-2831.3845,-3040.5521,22808.2985
52667.3645,25150.2246,51560.6403,38739.0107,34095.9281,36139.1902,4889.0412,48988.6701,44163.0185,54968.4316,-2833.3962,-3040.9098,22808.7455
52691.415,25161.9816,51562.0708,38759.9766,34121.9902,36147.8627,4894.495,49017.4145,44179.2905,54976.5676,-2816.4983,-3022.2237,22817.1945
52701.7415,25173.0233,51567.48,38765.0728,34138.2176,36145.7169,4897.8478,49029.7526,44190.9581,54982.2003,-2803.4002,-3009.2597,22823.5424
52699.3275,25172.9339,51570.8327,38766.2351,34136.6082,36144.5546,4900.3959,49027.6515,44185.102,54981.4403,-2810.3292,-3014.4453,22821.5307
52680.3285,25166.899,51568.9105,38759.0826,34120.5597,36145.0464,4897.0431,49013.3911,44169.3664,54975.8077,-2825.7519,-3028.4822,22817.0604
52669.5997,25163.0545,51570.1175,38755.6404,34116.2235,36145.5828,4892.841,49011.9159,44167.757,54969.9962,-2828.3447,-3031.3879,22815.8087
52684.3071,25169.2235,51574.7666,38766.9057,34138.0388,36153.4059,4899.1889,49031.9431,44180.274,54975.3159,-2811.4915,-3014.4453,22822.6483
52702.7249,25177.1808,51575.169,38775.4887,34149.5723,36152.6459,4901.5582,49050.048,44193.6851,54980.8145,-2799.8239,-3002.0177,22826.9398
52701.205,25174.3644,51574.8113,38773.7006,34144.3866,36156.401,4904.4639,49043.2084,44190.0641,54985.866,-2803.579,-3003.0012,22828.0574
52691.7279,25165.5132,51577.27,38763.1059,34124.5383,36155.2387,4903.8827,49028.4115,44181.7492,54980.2333,-2816.5877,-3013.1936,22822.4248
52685.2459,25158.3606,51580.9357,38755.5063,34116.894,36153.7635,4901.6476,49023.1812,44177.0554,54980.0545,-2824.0532,-3018.0663,22820.5919
52701.6521,25163.9485,51582.5003,38772.136,34141.6597,36161.4972,4907.7719,49048.394,44191.6734,54985.7765,-2805.4565,-3006.1305,22827.521
52714.4819,25173.5598,51581.0251,38782.5072,34164.7714,36160.022,4909.113,49067.3482,44207.3196,54988.8611,-2788.1563,-2994.9546,22832.796
52706.9271,25174.7221,51578.9688,38784.9212,34155.8754,36156.1775,4909.7836,49065.0237,44205.5315,54985.4636,-2793.476,-2998.7544,22833.243
52689.6268,25168.1954,51577.3594,38773.5218,34125.8794,36151.3942,4909.2919,49044.0577,44187.6054,54982.1109,-2808.7646,-3008.0974,22831.4549
52681.6696,25169.0,51577.7171,38771.0631,34122.4372,36156.5351,4911.9741,49049.0645,44186.8007,54982.8708,-2810.6868,-3007.248,22835.3441
52700.2662,25176.8678,51584.1097,38783.3118,34151.6733,36165.8335,4916.9362,49072.9362,44199.9435,54991.0069,-2795.13,-2989.9925,22844.4189
52713.9455,25184.7357,51583.752,38790.7773,34167.8113,36173.0754,4918.6796,49088.7165,44206.2914,54993.2867,-2782.8813,-2980.2024,22846.3411
52704.4684,25189.4742,51581.338,38789.4809,34159.3623,36172.2261,4915.1927,49083.4862,44200.4353,54991.6774,-2787.6645,-2985.9245,22840.2615
52685.8717,25184.2886,51581.6957,38779.7803,34133.926,36164.9841,4912.287,49063.012,44189.8853,54985.106,-2805.233,-3002.8671,22834.8076
52682.8766,25179.4606,51584.8249,38775.9805,34131.7356,36162.3466,4913.2705,49052.5961,44189.8853,54981.8426,-2809.7481,-3007.5163,22835.9699
52696.0641,25185.4509,51587.1048,38784.5635,34148.7229,36170.3932,4913.7175,49068.4658,44204.3245,54987.4753,-2794.3254,-2997.2792,22840.0379
52707.0612,25185.5403,51586.0766,38789.8386,34162.8939,36170.3038,4913.7622,49079.9993,44210.2253,54986.9835,-2784.1777,-2991.0654,22840.485
52693.8289,25179.2818,51581.2933,38776.1593,34154.2214,36163.1513,4908.8001,49064.4872,44204.9056,54980.8592,-2796.9182,-3001.5707,22832.7066
52679.9709,25173.9621,51582.6344,38767.6209,34129.4557,36158.0104,4908.3084,49052.1491,44196.2779,54984.4354,-2809.4351,-3010.5114,22828.9068
52675.8581,25170.3858,51580.3993,38764.2235,34116.6705,36158.5915,4905.8944,49048.7069,44186.309,54982.0662,-2812.3409,-3016.6358,22825.3305
52689.7609,25172.5763,51576.4207,38773.9241,34136.6529,36160.9608,4904.7768,49064.7107,44195.5179,54986.9388,-2804.6072,-3008.6786,22823.9
52694.276,25171.5928,51573.3361,38774.3264,34153.5956,36161.5419,4903.3463,49084.8273,44195.4732,54987.2071,-2799.8239,-3003.8059,22823.2294
52692.4431,25170.3858,51573.1126,38771.376,34143.3585,36151.9754,4901.1558,49077.3171,44189.1253,54979.831,-2812.2514,-3013.283,22821.5307
52681.759,25168.1954,51572.7103,38767.7997,34125.3877,36147.3709,4900.8429,49054.1607,44184.655,54978.177,-2821.371,-3022.6707,22820.0108
52674.5617,25167.7036,51573.4255,38768.7832,34118.7268,36150.7684,4901.5582,49049.6904,44185.7278,54975.6736,-2818.6888,-3023.1625,22822.8718
52691.2808,25169.3577,51571.6821,38774.7288,34131.6015,36152.1989,4901.6923,49071.0586,44192.4334,54978.4899,-2807.0211,-3009.8408,22827.4316
52703.1273,25176.242,51571.6821,38781.5684,34147.7841,36151.8413,4906.1626,49093.6339,44205.2633,54986.0895,-2797.097,-2993.0323,22829.3091
52697.1817,25172.6657,51570.5645,38782.8201,34143.0008,36149.919,4905.7603,49087.4648,44199.1389,54987.3412,-2799.7345,-3004.2529,22826.761
52677.4228,25159.5676,51569.5363,38771.7783,34115.687,36146.0298,4906.3861,49068.6893,44193.3274,54981.485,-2811.4468,-3016.9487,22823.1847
52672.2819,25161.7134,51570.9221,38761.3177,34115.7764,36142.9006,4905.1344,49053.8031,44193.1039,54978.8475,-2820.8345,-3022.7602,22818.9379
52687.3022,25170.8329,51578.3876,38772.3595,34137.8599,36152.9142,4908.8895,49080.6252,44201.5976,54989.7999,-2807.1105,-3008.9915,22823.9894
52697.2264,25170.0282,51574.4984,38780.3167,34151.5839,36156.0881,4907.1014,49093.2763,44201.0611,54993.4208,-2801.9696,-3001.7942,22824.8835
52688.8669,25173.5598,51569.4022,38774.1476,34141.5256,36153.5847,4904.1063,49086.4366,44196.5908,54986.2236,-2809.0775,-3014.3112,22819.6532
52665.9787,25170.6988,51570.2963,38756.4898,34113.2283,36142.9006,4900.0382,49068.1529,44184.655,54983.6755,-2825.5284,-3034.1595,22813.35
52662.9388,25174.1409,51573.202,38752.377,34104.5111,36143.6158,4899.8594,49058.5417,44178.2176,54980.9933,-2829.3729,-3035.4112,22811.83
52683.9942,25181.2935,51570.4304,38760.826,34123.9125,36146.1192,4897.8478,49075.0819,44192.7016,54980.5909,-2816.2748,-3021.732,22816.2557
52697.2711,25174.9903,51563.1884,38765.2069,34137.7258,36145.1358,4892.9304,49097.2102,44200.6141,54981.8426,-2812.3856,-3017.1275,22815.4957
52692.0855,25170.2517,51561.1768,38763.1506,34128.6063,36142.8559,4891.5893,49086.6154,44194.8026,54978.8922,-2819.3146,-3026.6047,22810.176
52673.3994,25162.6074,51560.3721,38753.9417,34107.1039,36137.5362,4888.3259,49067.5718,44181.928,54974.4666,-2832.2786,-3039.4346,22806.6444
52657.6638,25157.9583,51559.1204,38748.4878,34096.0175,36137.2232,4887.4319,49057.1111,44174.5073,54973.796,-2835.1843,-3038.2723,22807.762
52672.863,25159.7911,51558.8969,38758.0097,34115.7317,36142.23,4890.874,49071.3716,44182.0621,54977.6405,-2823.5167,-3027.4093,22809.4161
52694.723,25166.0943,51564.9319,38766.1904,34139.8716,36145.8957,4892.081,49079.3735,44193.998,54982.4238,-2815.2913,-3014.8476,22812.3665
52684.1283,25159.21,51563.6355,38761.4071,34129.6792,36134.4069,4889.1753,49071.9974,44195.6073,54980.5015,-2824.1426,-3015.8311,22810.6678
52663.2071,25160.0593,51565.2895,38753.6287,34105.8522,36128.9084,4888.7283,49054.0266,44186.8901,54979.3392,-2831.1163,-3027.8116,22811.0254
52659.8543,25164.4403,51567.0329,38754.6122,34102.4548,36139.0114,4892.7516,49051.5232,44182.1516,54979.6522,-2829.4623,-3030.9409,22815.2722
52683.5024,25170.3411,51566.4965,38774.9523,34131.1991,36153.093,4898.0713,49072.7574,44199.3624,54988.8611,-2810.4633,-3018.6921,22819.0273
52695.2595,25175.3479,51568.6423,38786.1282,34145.6831,36159.2174,4899.8594,49097.9701,44213.9357,54992.5715,-2805.0542,-3005.9069,22822.7377
52685.2459,25171.8163,51569.1787,38783.6695,34141.8833,36155.2387,4897.5796,49105.9273,44214.3381,54990.9174,-2809.9269,-3006.9351,22823.9447
52672.2819,25162.518,51565.2001,38770.5714,34121.8114,36147.5945,4897.6243,49083.7544,44197.2166,54982.9602,-2825.7966,-3020.3462,22818.0438
52663.2518,25160.1487,51565.1554,38762.8824,34111.5743,36142.9006,4897.1772,49075.6631,44188.0077,54978.0428,-2831.6528,-3027.3646,22815.0487
52682.8319,25168.0166,51564.7978,38769.4538,34124.0913,36143.3923,4897.2219,49084.4697,44198.8707,54983.139,-2819.8063,-3015.2053,22818.2673
52698.1652,25172.621,51569.9834,38778.5733,34136.6976,36147.4603,4898.7418,49102.9322,44213.3993,54992.5715,-2806.44,-3005.4599,22822.2013
52693.8289,25174.9456,51575.0349,38776.7404,34126.7288,36145.3146,4897.4901,49100.0265,44208.1243,54988.5929,-2812.0279,-3008.3656,22823.7212
52674.4723,25169.1788,51571.4586,38766.101,34109.7862,36138.5643,4894.5844,49074.6796,44194.1321,54981.038,-2822.3991,-3025.04,22816.9262
52666.8727,25163.1439,51569.8493,38760.9601,34097.3139,36142.6771,4892.6175,49061.0898,44194.892,54981.8426,-2825.5284,-3031.1197,22815.0487
52688.4645,25168.7318,51574.7219,38773.7453,34114.5247,36148.3097,4893.7351,49078.5241,44200.7035,54987.9223,-2817.2582,-3018.4686,22821.6201
52702.3673,25172.0399,51574.5878,38781.6578,34127.1758,36152.4224,4892.3492,49093.7233,44206.6491,54995.2537,-2810.1504,-3010.869,22821.4413
52699.8639,25167.3013,51572.2185,38776.6063,34120.5597,36150.4108,4889.8458,49084.7826,44199.8094,54990.3363,-2816.4089,-3019.1392,22815.9428
52682.6978,25162.9651,51572.1291,38764.5811,34101.5607,36148.9803,4888.46,49064.2637,44185.9961,54980.5015,-2831.7869,-3028.3481,22810.8019
52670.2702,25165.0661,51568.5976,38765.9222,34092.2624,36146.611,4885.8672,49055.7253,44175.8484,54973.9301,-2835.0502,-3028.8398,22807.762
52692.7114,25171.5928,51564.1719,38774.4159,34116.2682,36154.4341,4885.3308,49081.4298,44184.3867,54975.8077,-2824.8578,-3019.2286,22808.2091
52705.1836,25176.0632,51566.9882,38783.6695,34136.8318,36163.5089,4888.5047,49111.0682,44201.6423,54985.0166,-2810.3739,-3006.5775,22814.6464
52694.8124,25173.5598,51566.4965,38778.9756,34123.9125,36159.7091,4884.8391,49102.8428,44201.9105,54981.2168,-2816.9006,-3011.0031,22813.4394
52678.7639,25167.346,51567.2117,38764.7599,34098.4315,36156.3116,4884.4367,49077.0936,44187.9183,54974.9583,-2828.4341,-3022.2237,22811.4724
52669.3314,25169.6706,51568.5529,38759.3508,34095.5704,36156.4904,4888.1918,49068.1529,44181.7492,54973.1255,-2829.2388,-3026.1129,22815.1381
52689.4927,25171.7716,51573.7832,38774.3264,34119.6656,36161.9443,4891.8128,49093.2763,44196.0543,54982.8708,-2810.1951,-3012.6125,22821.6648
52706.3012,25173.3363,51576.1524,38781.3449,34142.8667,36164.2689,4898.6524,49117.1926,44203.5645,54990.2469,-2797.1417,-2999.4249,22828.9068
52700.0427,25166.899,51572.3974,38771.1525,34138.9328,36162.5701,4899.4571,49114.6445,44199.0495,54984.9719,-2805.2777,-3001.3025,22828.415
52688.0622,25167.1672,51574.9902,38764.4023,34125.2983,36158.0998,4903.4804,49093.9468,44188.5442,54980.8592,-2817.7053,-3013.1936,22828.1915
52683.2342,25167.7483,51581.0698,38765.5646,34123.9125,36159.5303,4907.7272,49087.0178,44181.4363,54987.2518,-2816.8559,-3013.9536,22831.0078
52694.4548,25175.795,51583.6179,38771.6442,34145.0572,36159.0385,4911.6164,49106.3744,44190.6452,54989.3081,-2801.2991,-3003.4482,22837.624
52697.0476,25183.1263,51577.583,38775.3993,34152.7462,36162.4807,4912.9575,49115.4492,44195.6967,54988.7717,-2792.8948,-2994.7758,22838.7415
52688.0622,25178.8348,51574.2302,38765.4305,34139.7375,36152.6012,4914.5222,49092.2481,44186.0855,54987.0729,-2801.6567,-2999.112,22838.9651
52667.9903,25170.6094,51571.4586,38749.6501,34124.9853,36137.4468,4912.9575,49067.6612,44161.275,54979.831,-2819.404,-3013.2383,22832.8854
52656.6803,25171.3246,51567.3906,38741.4247,34113.3624,36130.5624,4908.5319,49046.5611,44146.657,54973.0361,-2829.7752,-3022.3578,22826.6269
52665.934,25184.1098,51570.341,38752.9582,34134.7307,36133.6023,4910.9459,49055.2336,44154.2566,54976.5229,-2812.5644,-3011.8525,22828.9962
52676.5287,25192.4694,51574.3196,38772.4042,34158.6471,36142.8112,4920.6465,49066.4989,44164.8513,54979.7416,-2792.3584,-2995.1334,22833.0195
52666.7833,25192.827,51574.856,38772.2701,34154.5343,36145.851,4921.63,49052.5514,44156.9388,54974.6901,-2797.3205,-2998.5756,22834.7182
52644.7445,25194.9281,51579.5499,38757.8756,34131.8697,36142.0959,4920.7807,49019.292,44133.3354,54965.7494,-2815.2466,-3011.182,22828.0574
52627.6678,25193.8999,51578.03,38752.2876,34124.4936,36136.8209,4918.1879,48997.7002,44123.4559,54961.5473,-2823.2932,-3023.4307,22822.5589
52647.2032,25193.7211,51576.063,38761.273,34143.0008,36144.3758,4917.4726,49010.7089,44129.1332,54967.4928,-2807.7364,-3014.7135,22826.7163
52659.3179,25200.1137,51574.7666,38768.6938,34155.5625,36141.023,4919.976,49015.6263,44138.968,54972.6337,-2795.2641,-3002.733,22830.5608
52655.6075,25202.7959,51572.7997,38770.6161,34153.1485,36140.0396,4924.804,49001.3659,44131.9942,54970.5327,-2799.5557,-3006.4881,22828.7727
52642.107,25203.8687,51572.5315,38765.1622,34134.9989,36138.2067,4927.3968,48967.7936,44111.9671,54959.1333,-2812.922,-3019.318,22822.3801
52629.2771,25200.9183,51568.9999,38755.3275,34124.6724,36133.1105,4920.736,48951.4768,44100.076,54955.5123,-2819.1805,-3023.7436,22817.1498
52644.8786,25204.4499,51569.8493,38771.0184,34143.9396,36145.0464,4923.1052,48970.6993,44107.4967,54964.8106,-2801.8355,-3009.4385,22824.6599
52658.3791,25209.1438,51568.4634,38782.1048,34156.7248,36150.4108,4925.3851,48973.0239,44110.0895,54965.4365,-2793.3419,-3002.6883,22826.4034
52658.2003,25207.445,51567.3459,38779.3779,34146.3536,36145.4934,4920.6465,48968.9559,44108.3908,54955.7805,-2798.0804,-3007.8292,22825.1964
52644.1187,25196.0456,51569.1787,38765.4305,34120.2468,36136.8656,4917.4726,48945.5312,44097.1255,54949.2538,-2816.4089,-3024.146,22822.1565
52626.729,25186.7473,51567.2117,38755.4616,34104.4217,36130.7412,4911.84,48922.6878,44093.9069,54946.3481,-2827.9871,-3034.0254,22819.0273
52645.1916,25191.4859,51569.4916,38769.722,34119.8891,36137.5362,4912.5999,48937.574,44102.5794,54952.6513,-2814.9337,-3021.5979,22825.3305
52664.5482,25190.3236,51567.3459,38780.0485,34138.6199,36142.6324,4912.4211,48947.9899,44109.1508,54951.7572,-2798.5722,-3009.6173,22830.1138
52660.5695,25185.6744,51567.4353,38775.3993,34124.136,36137.7597,4911.84,48934.0425,44105.6192,54948.8068,-2802.2379,-3016.3676,22827.0739
52640.6318,25180.9806,51571.101,38763.687,34092.8435,36132.0376,4910.0071,48909.8132,44097.0808,54945.8563,-2817.9288,-3028.4822,22824.6152
52632.4958,25180.31,51569.9834,38759.3061,34082.517,36127.2991,4908.6213,48902.2136,44090.5988,54945.8563,-2827.2271,-3031.7456,22825.554
52647.0244,25177.5831,51567.0329,38765.3857,34101.7395,36129.266,4906.6544,48907.2204,44095.0245,54947.7339,-2812.6091,-3024.8612,22825.7328
52665.6657,25180.5335,51569.2234,38768.068,34120.6044,36130.5624,4906.9673,48909.5002,44102.8476,54950.2373,-2798.1251,-3011.4502,22828.3703
52660.0331,25177.5384,51572.3526,38755.3722,34111.2167,36125.958,4904.8662,48902.7053,44106.6474,54946.661,-2806.7529,-3013.9983,22826.1799
52639.2013,25168.106,51568.2846,38750.723,34087.5238,36120.4594,4899.6359,48879.7277,44092.2529,54938.7038,-2824.1873,-3033.4443,22817.865
52635.4909,25164.8873,51561.9367,38749.6948,34079.6113,36113.1728,4895.702,48867.2107,44083.0886,54934.4122,-2831.6528,-3038.8087,22815.764
52667.6774,25172.0399,51563.5014,38755.8192,34097.3139,36119.7889,4898.5183,48884.1087,44091.6717,54934.4122,-2820.3428,-3024.2801,22818.9826
52675.277,25178.656,51561.1321,38758.1438,34103.6618,36120.9959,4896.6855,48891.1718,44099.0925,54942.0565,-2809.8375,-3018.8709,22821.6201
52668.8844,25182.9475,51564.3507,38756.9815,34104.0194,36122.784,4897.356,48895.5081,44099.3607,54953.59,-2811.1786,-3020.6591,22824.5258
52653.6852,25177.1361,51563.2331,38740.0836,34085.2886,36117.2408,4892.5281,48879.1466,44084.7427,54948.315,-2828.7023,-3032.5502,22817.5074
52650.9583,25174.4986,51562.6967,38737.9378,34076.9738,36113.6198,4892.2151,48872.9328,44082.1052,54946.5269,-2836.3913,-3037.4676,22815.3616
52672.5054,25177.3596,51563.7696,38748.309,34097.6715,36122.5605,4897.669,48902.6159,44100.1207,54955.0653,-2820.7898,-3018.3792,22821.8436
52687.8834,25187.1049,51565.4683,38761.273,34108.4898,36131.1883,4899.9935,48926.8899,44122.9194,54965.5259,-2805.5906,-3008.8574,22827.2974
52684.7094,25189.3848,51564.8872,38765.2069,34105.0923,36131.6353,4902.3628,48924.9229,44122.83,54962.7542,-2808.8987,-3013.3724,22826.4034
52664.5482,25178.5666,51564.7084,38754.4334,34084.7075,36123.2311,4900.0829,48903.1523,44103.2946,54954.8864,-2822.9356,-3025.4871,22818.8038
52652.21,25172.2634,51564.8872,38743.8834,34073.4869,36114.2009,4898.2948,48880.9347,44099.1372,54953.7241,-2829.3729,-3031.2985,22816.7474
52674.0253,25174.1856,51564.9319,38752.7347,34096.5986,36119.7442,4902.2287,48904.6276,44109.6425,54958.2392,-2816.1854,-3021.0167,22820.6366
52686.2293,25179.0136,51570.5198,38765.9669,34115.6423,36126.4497,4907.4143,48919.8714,44121.8019,54966.0176,-2803.1766,-3008.7233,22829.175
52680.8649,25182.1876,51571.2351,38764.134,34106.0311,36122.0688,4908.9342,48921.0784,44116.4821,54965.66,-2807.9152,-3012.4336,22828.415
52661.2401,25178.2537,51567.9717,38751.93,34087.6579,36123.4993,4906.565,48902.9288,44106.8709,54957.9263,-2823.5167,-3025.4871,22822.9165
52653.4617,25179.4606,51565.3789,38743.0787,34076.5268,36124.5722,4900.6194,48893.0941,44106.5133,54951.8913,-2829.0153,-3032.5055,22819.0273
52668.6609,25181.517,51562.6073,38751.2594,34090.2507,36124.751,4897.9819,48913.5683,44113.934,54950.8184,-2816.9453,-3020.6591,22821.486
52684.1283,25189.6977,51565.7365,38771.823,34115.8658,36134.854,4905.4921,48934.8024,44130.072,54956.9428,-2800.405,-3003.8953,22827.6551
52673.6677,25188.3119,51564.7531,38763.9552,34112.7366,36128.7296,4908.0402,48932.6119,44126.0934,54952.8748,-2808.4517,-3011.4949,22823.8106
52657.6191,25186.0768,51565.1107,38754.0758,34095.7493,36117.1067,4907.2802,48915.8034,44117.0186,54950.9078,-2823.2932,-3025.4871,22820.3237
52651.8077,25182.6346,51560.5509,38753.6734,34088.4626,36119.8783,4904.3298,48908.6062,44113.1294,54947.868,-2826.7801,-3030.7174,22817.2839
52664.3246,25188.9378,51562.0708,38762.6588,34103.4383,36128.2825,4899.8594,48935.16,44120.9078,54951.9807,-2815.9618,-3019.8991,22819.6084
52677.2439,25195.1516,51564.0378,38769.6773,34118.6821,36137.715,4896.1937,48950.8063,44129.3567,54955.7358,-2807.3788,-3013.1936,22821.1731
52676.0817,25193.9893,51562.2497,38765.4305,34116.3129,36138.5643,4895.7467,48943.4302,44124.6182,54954.6629,-2807.9152,-3016.3229,22818.7144
52659.8543,25183.8416,51557.0194,38749.1137,34085.9592,36133.1105,4890.3823,48930.1533,44114.2023,54947.0186,-2827.7636,-3027.6775,22812.59
52658.7367,25181.1594,51560.0592,38748.9349,34075.9456,36136.4186,4889.3094,48917.6363,44114.7834,54945.4987,-2833.9773,-3031.6114,22814.9146
52680.1944,25187.552,51564.306,38764.134,34104.8241,36145.9404,4895.7467,48933.506,44131.279,54950.9078,-2820.7451,-3020.7485,22823.4977
52692.5772,25194.034,51565.7812,38772.9406,34123.5548,36146.7898,4902.4522,48955.1425,44145.5841,54956.4064,-2809.7034,-3013.7748,22827.7445
52686.3188,25188.1331,51565.6471,38766.6821,34119.5762,36142.0512,4902.3628,48961.2222,44144.6006,54956.7193,-2810.1504,-3012.4336,22825.3305
52667.6327,25174.7668,51565.2001,38757.8756,34103.9747,36136.2398,4898.7418,48947.23,44129.5803,54947.4657,-2826.4672,-3026.5599,22819.1614
52664.727,25171.7269,51570.6539,38758.3226,34103.4383,36136.9103,4901.3793,48932.7013,44122.4724,54949.8349,-2827.3165,-3028.4822,22819.9214
52681.0437,25174.0962,51574.5431,38764.0893,34125.5218,36140.2184,4902.4969,48953.8014,44135.3023,54957.971,-2813.5031,-3017.7534,22823.5424
52698.0758,25178.0301,51577.4041,38770.169,34145.236,36144.5546,4906.8779,48978.2095,44154.1672,54964.453,-2801.0309,-3004.7894,22828.9515
52695.2147,25185.6297,51579.7287,38769.722,34140.6316,36142.7218,4910.4095,48978.3883,44150.5015,54967.9846,-2802.4614,-3005.9963,22831.1419
52676.6628,25185.8085,51579.7287,38756.5792,34117.4304,36135.6139,4912.4658,48964.5749,44137.1351,54964.453,-2815.783,-3018.8262,22828.728
52663.4306,25183.3051,51579.7734,38744.7774,34105.0476,36128.372,4911.7506,48950.4933,44129.4014,54964.0507,-2819.1805,-3021.4638,22828.3703
52687.034,25191.7094,51581.6063,38749.3372,34129.9921,36131.5459,4916.4444,48967.2571,44147.104,54967.2693,-2801.0309,-3001.5707,22833.5112
52704.2896,25200.7842,51583.305,38760.2895,34149.4828,36138.1173,4921.0489,48984.4233,44155.3295,54979.0263,-2790.0785,-2991.5124,22835.5229
52692.3984,25198.9961,51578.1194,38751.2594,34138.2623,36131.1883,4916.2656,48975.125,44144.4218,54977.5958,-2804.2048,-2999.7826,22832.5278
52671.8348,25193.8999,51572.9338,38740.4859,34120.2915,36126.7179,4916.3997,48952.2368,44132.6648,54970.5774,-2821.7286,-3011.9866,22826.1352
52657.3062,25184.3333,51569.894,38734.8086,34108.1321,36119.476,4915.7739,48943.0279,44125.6464,54966.2858,-2830.1775,-3021.3296,22824.4811
52672.5054,25187.4179,51571.101,38742.6317,34125.5665,36120.5488,4913.941,48957.2883,44140.0409,54970.8903,-2814.5313,-3008.1868,22829.8903
52687.2128,25194.3916,51571.5033,38751.7065,34140.9892,36123.8569,4915.6398,48968.8218,44156.8494,54973.9301,-2804.1601,-2996.6533,22830.2032
52680.6861,25189.4295,51568.9552,38751.2594,34142.8667,36120.5041,4915.2821,48960.5963,44151.1273,54971.2479,-2810.1057,-3006.8457,22829.622
52666.2022,25186.4344,51570.2963,38740.3071,34117.7434,36115.8997,4913.3152,48936.0541,44142.0972,54967.8057,-2822.1309,-3016.5464,22826.0905
52659.899,25186.2109,51569.4022,38738.3848,34106.7016,36119.476,4914.0751,48927.024,44137.2693,54971.5608,-2820.4322,-3018.0216,22828.0574
52674.2935,25188.4907,51567.8376,38748.0855,34121.4091,36124.8404,4912.1529,48951.745,44148.9816,54975.9418,-2810.508,-3009.8408,22829.9797
52690.1186,25194.7939,51568.9105,38759.5296,34141.2574,36132.5741,4913.4493,48966.3184,44157.8329,54980.8592,-2801.165,-3001.3472,22830.6502
52686.1846,25184.7804,51566.6306,38750.5889,34135.893,36126.3603,4910.6777,48956.7071,44149.4286,54976.2547,-2807.647,-3007.248,22827.4316
52668.6162,25178.2537,51565.6024,38736.5967,34108.4898,36120.683,4906.4755,48932.9696,44129.625,54966.3752,-2824.8578,-3022.7602,22821.3966
52657.2615,25172.8892,51564.9319,38733.2439,34092.1283,36119.6995,4905.2238,48920.8549,44119.6561,54963.9612,-2828.3,-3024.2801,22821.7542
52673.7124,25179.7289,51567.9717,38749.6948,34113.9436,36128.7296,4909.2919,48940.1668,44131.1449,54969.6833,-2813.3243,-3009.3044,22827.1186
52681.2226,25191.1283,51569.9834,38759.3955,34133.8366,36134.5857,4910.7224,48952.7732,44146.9699,54972.589,-2801.0756,-3001.2578,22829.0856
52675.8581,25189.653,51571.4139,38752.7794,34124.3595,36131.0095,4910.8565,48952.1921,44152.0661,54972.0526,-2805.8589,-3006.7116,22827.6551
52668.2138,25181.964,51572.755,38748.8008,34108.6686,36129.8025,4911.08,48939.7198,44136.107,54965.66,-2819.8957,-3017.9769,22824.3917
52658.8708,25178.6113,51573.6043,38746.7444,34104.2876,36128.5061,4911.6164,48933.953,44126.0934,54963.7824,-2826.2436,-3017.1275,22824.6599
52670.7172,25179.1924,51574.5431,38757.652,34125.3877,36136.6868,4912.5105,48956.2154,44142.0525,54974.0195,-2809.0328,-3005.2811,22829.3985
52686.3635,25189.9213,51576.4654,38778.2156,34154.7579,36146.8792,4921.0489,48977.8519,44151.3509,54977.9087,-2790.3914,-2993.7476,22833.243
52677.0204,25188.8037,51574.7219,38770.7502,34144.9231,36143.7052,4920.1101,48966.2737,44145.2712,54976.7464,-2796.8287,-3000.4531,22830.4267
52659.7649,25177.2702,51568.5081,38755.1039,34117.6987,36136.7762,4913.494,48932.1202,44129.7591,54966.7776,-2816.2748,-3018.0216,22822.2013
52658.2003,25174.1409,51563.9931,38753.3605,34120.3362,36137.0891,4913.494,48926.8005,44122.6959,54963.1119,-2821.7286,-3021.6426,22822.4248
52679.1215,25187.1049,51568.2399,38764.894,34144.4314,36140.576,4916.5785,48954.919,44141.1138,54971.8738,-2807.9152,-3005.6834,22826.2246
52687.5257,25191.7988,51566.1389,38765.7881,34153.8191,36145.5828,4915.4162,48968.0618,44150.5462,54973.2149,-2800.3156,-2997.9944,22828.0574
52690.6103,25185.9874,51563.2331,38760.6025,34137.6811,36142.0512,4914.7904,48964.2173,44142.1419,54970.3538,-2808.1387,-3004.5658,22823.3188
52680.0603,25179.7736,51562.3838,38750.4995,34116.3129,36134.8987,4912.287,48943.9666,44132.9777,54960.6085,-2823.472,-3019.4968,22819.519
52664.9952,25174.6774,51564.3954,38747.3702,34109.5179,36131.5459,4907.7272,48934.4001,44131.3237,54955.7358,-2832.6362,-3027.7669,22817.0604
52688.3304,25178.2984,51567.8376,38754.0758,34130.3945,36135.2116,4908.7107,48956.0366,44142.8125,54960.5191,-2818.0182,-3012.2995,22821.7542
52699.0592,25182.0982,51568.2399,38760.2895,34139.7375,36144.0629,4911.7953,48973.2027,44163.1526,54970.4432,-2803.3108,-2995.5357,22828.1021
52699.3275,25187.999,51574.7666,38764.6705,34141.5703,36145.4487,4915.9974,48980.8917,44161.1409,54971.5608,-2802.8637,-2996.2957,22829.7561
52687.794,25188.3119,51579.1923,38756.1768,34126.0582,36138.922,4916.3997,48967.4807,44152.692,54971.5161,-2816.4089,-3006.1752,22827.6998
52680.5073,25179.1924,51577.9406,38750.4995,34114.9271,36136.6868,4914.8351,48954.3825,44143.3936,54968.9233,-2821.9968,-3016.904,22823.7212
52687.7046,25179.4159,51578.2535,38757.2497,34131.2885,36142.7218,4916.1762,48975.2144,44156.0,54976.8806,-2806.6635,-3001.2578,22829.3538
52701.3391,25185.6744,51581.6063,38764.447,34143.582,36146.611,4918.1879,48993.8557,44177.4577,54981.6638,-2792.5372,-2985.7904,22834.8523
52704.5578,25189.206,51585.719,38764.894,34141.3468,36143.0347,4918.322,48984.5127,44183.2691,54981.0827,-2795.8006,-2991.6018,22832.8854
52685.0224,25184.0204,51583.7073,38748.8902,34124.2701,36134.854,4913.3599,48961.848,44164.0466,54973.2596,-2812.9667,-3004.4317,22828.8174
52676.484,25178.2984,51576.376,38737.7143,34105.4052,36130.2048,4910.9459,48945.2183,44155.1059,54968.4763,-2827.2271,-3014.043,22826.7163
52689.1351,25179.863,51573.3361,38739.3236,34113.9883,36132.7082,4909.7389,48955.8578,44166.4159,54974.3772,-2817.75,-3008.6786,22829.2197
52695.3936,25181.6958,51573.202,38744.8668,34129.0534,36137.3574,4910.1412,48969.8946,44177.2789,54982.7814,-2808.5858,-2999.3355,22830.9631
52693.1584,25176.9125,51570.9668,38743.5257,34123.6889,36131.2777,4908.0402,48969.8052,44173.4344,54980.0098,-2817.2135,-3003.2247,22830.4714
52675.9475,25170.4305,51568.1952,38735.7026,34108.2215,36125.958,4907.5931,48958.4506,44163.3761,54971.7396,-2830.8928,-3014.8029,22823.7212
52664.6376,25169.1341,51568.1952,38730.3382,34102.276,36126.3603,4906.4755,48945.8889,44158.1458,54969.5492,-2833.3962,-3020.6591,22819.4743
52680.9543,25173.6939,51571.6821,38738.6978,34119.1739,36129.0872,4905.045,48971.1463,44166.5053,54973.8407,-2815.5148,-3008.1868,22825.5093
52700.4004,25177.5384,51572.7997,38749.1584,34147.0242,36131.2777,4907.5037,48995.5097,44174.9096,54974.0642,-2800.9862,-3002.1518,22826.9845
52690.2527,25170.9223,51567.0776,38747.9961,34138.8881,36124.6616,4904.7321,48980.4,44168.8746,54967.5375,-2810.9998,-3010.6902,22821.8436
52682.206,25163.9038,51571.7715,38743.7046,34115.8211,36124.751,4905.6262,48966.3184,44162.0797,54971.1138,-2822.7568,-3014.4006,22822.7824
52678.6298,25161.4451,51572.9338,38738.5637,34107.3722,36127.4332,4905.2685,48964.9773,44158.4587,54966.5093,-2828.3447,-3015.5182,22822.2907
52692.9349,25171.4587,51573.6043,38745.0457,34127.8017,36132.3059,4909.6048,48981.2046,44174.5073,54971.7844,-2815.4701,-3004.9235,22827.968
52702.2332,25181.7405,51579.5052,38758.9484,34150.064,36139.1008,4915.9974,48995.7333,44185.9961,54983.7649,-2804.2048,-2992.4959,22834.6735
52698.1205,25182.9475,51580.9804,38757.5179,34139.3799,36144.0629,4913.7622,48987.9102,44180.0505,54982.7367,-2807.8705,-2997.2345,22833.5559
52675.5005,25171.5481,51576.5548,38738.7872,34115.5976,36136.0162,4904.3745,48968.8218,44161.3197,54971.7844,-2825.5731,-3014.5794,22826.8951
52663.6541,25165.7367,51577.0465,38726.4043,34104.3323,36130.1601,4902.1393,48966.0501,44156.8494,54974.0642,-2831.0269,-3023.7436,22826.3587
52689.8056,25179.2818,51583.5285,38745.448,34133.1661,36138.922,4909.7836,48991.397,44177.0554,54987.2965,-2812.475,-3008.6339,22832.036
52706.9271,25183.7969,51581.7851,38752.0194,34146.443,36140.5313,4907.2355,49003.0199,44181.2128,54987.5647,-2807.2894,-3001.6154,22829.935
52693.2478,25175.7056,51576.5995,38746.0291,34133.2555,36129.6237,4899.323,48992.157,44178.1282,54980.2333,-2818.7335,-3008.4103,22822.5142
52670.4043,25165.9602,51575.2137,38737.5802,34112.1554,36124.3486,4894.6291,48965.916,44162.3926,54972.9019,-2836.2125,-3020.5697,22815.5851
52664.1905,25160.9981,51570.9668,38733.2439,34104.4217,36125.1533,4890.9634,48952.7285,44153.4519,54968.1187,-2841.5322,-3024.0566,22812.0536
52682.4296,25171.7269,51570.8774,38744.1963,34126.55,36132.3506,4893.8245,48980.7576,44162.3926,54974.0642,-2822.7121,-3008.4997,22815.764
52696.1982,25177.1361,51571.8609,38757.0262,34149.2146,36139.369,4897.4901,49004.361,44168.8746,54977.1935,-2811.2233,-2999.559,22821.6201
52690.8338,25172.2187,51568.5081,38752.69,34138.1282,36134.7646,4894.495,48998.9966,44167.2653,54973.4831,-2818.8676,-3005.0576,22820.9496
52676.6181,25167.9718,51569.7151,38742.1846,34113.273,36134.7646,4895.9702,48988.4913,44157.6988,54974.0195,-2830.4905,-3018.2004,22818.4015
52672.9077,25162.6074,51569.1787,38736.3732,34107.998,36135.5692,4896.0596,48983.708,44158.3693,54973.349,-2832.368,-3021.3296,22818.7144
52688.5539,25165.5132,51570.6986,38746.3421,34131.512,36143.0794,4899.4571,49004.1375,44174.2837,54982.2003,-2816.7218,-3006.6222,22826.314
52701.205,25167.5248,51571.4139,38763.4188,34149.8852,36149.2485,4905.805,49023.9412,44187.1583,54988.9952,-2800.2262,-2989.1431,22836.9087
52698.1205,25167.8824,51570.2516,38763.1059,34139.1116,36148.5332,4908.4425,49024.0753,44184.9679,54984.5695,-2807.5576,-2991.1101,22834.9864
52682.1613,25168.8212,51572.0397,38750.5889,34120.2468,36145.1805,4908.4425,49003.3776,44177.3683,54977.864,-2823.1591,-3007.3375,22830.2926
52693.2478,25172.8445,51576.6889,38756.8474,34124.4936,36150.5449,4913.4493,48995.465,44177.8153,54980.9933,-2821.2816,-3006.1305,22831.9913
52715.6442,25183.8416,51576.823,38765.3857,34149.1699,36151.0366,4917.7408,49017.7274,44189.1253,54985.4636,-2805.8589,-2995.1781,22838.1604
52726.3284,25187.4626,51579.9075,38768.6938,34158.6471,36152.7354,4917.2044,49041.6437,44195.3838,54992.2585,-2798.7063,-2988.5173,22840.1273
52707.24,25177.4937,51576.9571,38756.758,34146.8006,36148.712,4913.0917,49025.5505,44187.6501,54984.8825,-2811.2233,-3000.0955,22833.1983
52678.3168,25165.3343,51573.3808,38739.9942,34123.8678,36139.6372,4905.358,49001.6341,44177.3683,54977.6852,-2827.54,-3016.0993,22828.7727
52676.931,25160.3276,51576.6889,38741.1118,34111.172,36139.816,4904.4639,48993.6769,44181.3469,54981.1721,-2827.8977,-3017.664,22829.5773
52690.3868,25164.4403,51576.5995,38750.276,34130.7074,36135.1222,4904.4639,49011.9159,44188.6336,54985.6424,-2811.8491,-3006.1305,22830.0691
52704.6919,25173.3363,51571.995,38755.4616,34147.9629,36136.4633,4904.151,49029.7526,44193.1933,54986.5812,-2806.5294,-2997.0109,22827.4316
52701.0262,25173.3363,51570.5198,38753.3158,34137.8599,36136.5527,4900.4406,49026.4893,44182.9115,54981.8426,-2818.3758,-3008.1868,22822.4248
52677.6016,25164.1721,51570.9221,38742.5423,34117.3857,36130.2048,4896.3279,49001.4553,44171.7356,54972.4549,-2832.7256,-3022.3578,22815.9875
52676.7075,25160.0593,51565.8259,38738.8766,34110.0544,36124.3933,4894.0927,48990.3241,44156.9388,54964.7659,-2836.0337,-3025.9788,22812.0089
52693.2478,25169.9835,51569.3575,38756.2215,34133.479,36137.2232,4900.8876,49017.9956,44166.1477,54975.0924,-2819.404,-3013.4618,22818.4909
52706.4353,25177.5831,51568.0611,38765.7434,34145.5489,36142.2747,4903.7039,49038.1569,44178.0388,54980.5015,-2808.6752,-3001.7942,22821.3966
52699.0145,25174.0068,51566.8541,38762.3459,34137.7258,36142.9006,4903.2122,49037.7545,44179.1117,54977.8193,-2812.5644,-3004.8341,22818.5803
52679.3003,25173.6045,51565.3342,38752.1982,34117.8775,36140.5313,4901.9158,49012.1394,44170.6628,54974.1536,-2823.6508,-3013.1936,22818.1332
52681.8037,25170.207,51566.4071,38750.5889,34115.1953,36143.3476,4903.7933,49005.121,44170.8863,54978.8475,-2827.1377,-3011.9866,22820.726
52694.0078,25178.5219,51570.9221,38761.0048,34139.2905,36147.9521,4905.4474,49033.8653,44180.4081,54983.5861,-2812.7879,-3002.286,22827.2974
52709.654,25185.6744,51570.0728,38766.8163,34152.3886,36150.0978,4905.2238,49057.5582,44193.4168,54983.7649,-2796.8287,-2990.6631,22831.4996
52706.4353,25185.9426,51571.548,38769.0067,34151.4051,36149.6061,4905.2685,49050.9421,44192.2098,54984.9719,-2801.4332,-2994.5523,22831.3655
52687.5705,25179.5053,51571.6821,38757.5626,34129.1428,36141.1124,4903.0334,49036.2793,44180.8552,54976.1206,-2815.2913,-3009.0362,22827.968
52679.7473,25170.2964,51568.2399,38747.5938,34111.172,36132.127,4901.2452,49023.6729,44176.6977,54977.9087,-2823.2932,-3014.2218,22827.208
52684.1283,25171.1458,51568.5081,38745.9397,34121.3644,36128.1484,4899.8147,49036.9946,44185.7278,54983.2284,-2814.3525,-3002.9565,22827.6551
52697.0476,25178.6113,51572.0844,38759.7978,34143.2244,36136.5527,4901.5582,49056.8429,44195.8308,54990.6045,-2804.786,-2995.5357,22828.3703
52694.4101,25178.3431,51570.1622,38756.3109,34136.5188,36138.1173,4900.977,49055.3677,44194.7579,54989.4422,-2814.4866,-3002.3754,22824.1682
52672.5501,25170.9223,51570.6986,38744.8668,34118.1457,36130.5177,4897.5348,49026.7128,44188.8571,54986.9835,-2834.1562,-3014.8476,22820.5472
52669.5997,25163.8591,51566.6306,38737.759,34109.4732,36125.5556,4891.2764,49018.4426,44188.1865,54980.278,-2842.6498,-3021.3296,22816.0769
52683.9048,25165.5579,51571.6374,38741.0223,34124.8065,36139.1008,4893.0198,49039.2745,44198.0213,54985.4189,-2828.3447,-3008.5891,22818.4015
52704.8707,25175.5714,51577.3594,38753.4052,34145.1466,36144.0629,4897.669,49060.6427,44207.6325,54991.7221,-2814.0396,-2999.2014,22821.2625
52699.0592,25177.9407,51577.8512,38757.205,34140.6316,36141.4254,4896.6408,49052.8196,44202.5363,54988.8164,-2816.2748,-3005.5046,22823.0059
52684.7541,25172.1293,51581.0698,38758.3226,34126.0582,36140.9336,4895.5232,49030.0655,44190.0641,54983.9884,-2822.8909,-3010.7349,22820.0108
52683.1001,25171.6822,51581.7851,38751.1253,34118.101,36138.8773,4894.5397,49016.6098,44188.9018,54983.899,-2820.2087,-3011.3161,22818.0885
52695.93,25175.3032,51582.2321,38752.2429,34134.5072,36142.3641,4897.4454,49034.7147,44196.0096,54988.4588,-2811.0445,-3000.9449,22822.246
52709.0281,25179.7736,51577.4935,38764.3129,34150.511,36145.4487,4902.8993,49057.4241,44206.6491,54993.3761,-2797.2758,-2988.9196,22826.9845
52698.1205,25177.2702,51573.3361,38759.8425,34146.3983,36140.2631,4902.0499,49053.7584,44196.6802,54989.0846,-2806.5741,-2996.7874,22824.3023
52687.034,25175.8397,51576.3313,38751.483,34128.5616,36138.2961,4904.598,49042.5825,44191.4946,54987.2518,-2817.0794,-3002.5095,22827.8786
52683.726,25180.1759,51580.8463,38750.5889,34120.1574,36143.8841,4905.3133,49042.7613,44194.6238,54989.621,-2816.5877,-2999.7826,22829.5326
52701.0709,25183.5287,51585.0484,38760.5131,34136.7424,36149.0697,4910.1412,49061.6709,44208.3478,54998.6511,-2800.2709,-2987.4891,22832.8854
52716.6724,25186.345,51586.2107,38772.0466,34153.5956,36155.8646,4914.4775,49077.5406,44218.1379,55003.8815,-2788.3351,-2976.2685,22837.624
52719.3546,25191.5306,51585.7637,38773.9688,34150.4663,36156.2222,4915.1033,49073.7855,44212.9076,55004.6414,-2791.062,-2979.3978,22838.5627
52703.9319,25188.8484,51586.7025,38767.0398,34133.3896,36153.2271,4912.8234,49057.6923,44202.0446,54999.5005,-2810.1057,-2997.9497,22835.7017
52697.5393,25188.5355,51587.9989,38759.2614,34120.4256,36149.3826,4913.9857,49051.5232,44206.0679,54998.9641,-2820.611,-3001.8389,22837.0875
52712.6044,25191.7988,51590.7705,38765.8775,34136.4741,36152.0201,4917.5173,49070.4328,44217.4673,55003.9709,-2809.2563,-2988.9196,22842.0496
52735.0008,25198.7278,51591.9775,38784.2059,34157.0377,36155.1046,4918.0537,49081.7875,44230.9231,55007.3236,-2797.991,-2979.1743,22843.0778
52730.5752,25197.8338,51599.4877,38777.7239,34150.9134,36152.9142,4918.8584,49082.1004,44225.8716,55010.8999,-2799.3321,-2980.1577,22843.0778
52706.48,25186.5685,51601.097,38765.4305,34129.5898,36148.4885,4917.4279,49061.1345,44214.9192,55009.4694,-2811.8044,-2993.6582,22840.6191
52696.9582,25185.0933,51597.5207,38756.7133,34119.9785,36140.2184,4910.4542,49039.185,44207.2302,55005.312,-2819.0911,-3002.5542,22837.5793
52711.8891,25188.6696,51594.7044,38763.8658,34138.6646,36139.1008,4909.7389,49057.4688,44219.166,55009.3353,-2808.6305,-2990.0372,22841.9602
52721.4557,25187.8649,51590.9046,38772.3595,34155.9201,36142.2747,4912.2423,49073.9644,44224.9328,55008.7094,-2800.1368,-2979.3084,22845.3577
52713.0514,25184.7357,51590.7705,38773.2983,34149.4381,36144.9122,4914.5222,49070.6563,44220.8201,55008.7094,-2803.2213,-2982.3482,22841.0661
52696.0194,25176.5996,51587.6859,38763.5976,34129.9474,36141.023,4911.7953,49052.5067,44210.7618,55003.4344,-2816.4536,-2995.3569,22835.6123
52695.0359,25176.5996,51582.858,38758.5014,34118.6821,36140.3525,4907.0567,49054.3395,44203.8327,54992.3927,-2822.5332,-3004.387,22830.7396
52705.7648,25178.9689,51578.8347,38762.6588,34135.3118,36144.5993,4903.5251,49072.0421,44213.2652,54993.9573,-2808.7646,-2995.491,22831.1419
52711.7103,25184.9592,51579.9075,38778.3051,34160.0329,36155.1493,4905.1344,49090.3705,44231.4595,55002.0933,-2792.4478,-2984.941,22834.7182
52703.3508,25177.6725,51579.5946,38781.3896,34147.9629,36155.1046,4907.1461,49078.0771,44223.3682,54998.07,-2796.2476,-2987.4891,22834.003
52682.7425,25168.9553,51575.1243,38768.2915,34121.0067,36146.4322,4907.0567,49052.0597,44201.1058,54986.3577,-2815.1125,-3003.8059,22828.0574
52674.7853,25167.1225,51575.5713,38764.0446,34112.6025,36139.4137,4906.4755,49040.5262,44197.2166,54985.9107,-2818.5993,-3008.4103,22826.5375
52701.8756,25179.6395,51582.0533,38776.2934,34132.9873,36147.818,4913.047,49070.0752,44217.2438,54998.7406,-2799.2874,-2987.6232,22836.3723
52715.7336,25185.8979,51581.6957,38781.8813,34154.4896,36150.9919,4911.08,49086.2578,44219.7472,55000.5734,-2792.716,-2982.3035,22839.9038
52710.1457,25177.2255,51578.8794,38784.7871,34154.0426,36148.5779,4910.4095,49079.15,44221.6694,54997.2653,-2796.4711,-2984.7175,22840.485
52687.3469,25171.7269,51581.4722,38776.8745,34134.9542,36142.6771,4909.0236,49055.4571,44209.9571,54997.8018,-2810.5527,-2991.2889,22838.2498
52689.4927,25170.3411,51585.6296,38769.1855,34118.3692,36145.0464,4908.4872,49049.6904,44209.9571,54999.1429,-2818.3758,-2995.0887,22840.1273
52709.0728,25175.7503,51584.3779,38777.6345,34137.3682,36148.6226,4908.0402,49068.2423,44223.9493,55003.9709,-2801.8802,-2986.7291,22843.3013
52719.757,25177.1808,51581.0251,38782.9989,34155.5178,36147.4603,4906.9226,49083.3968,44228.6432,55003.5238,-2790.9726,-2982.5717,22840.0826
52715.7336,25172.9339,51581.7404,38779.2885,34146.89,36146.7898,4901.9158,49079.3288,44220.0601,54996.9524,-2800.2709,-2991.9595,22833.0195
52700.3109,25168.553,51580.444,38766.5927,34119.8444,36137.4468,4893.8692,49061.7603,44206.2914,54989.1293,-2817.6606,-3008.3656,22827.5657
52690.4762,25165.0661,51577.1359,38756.2215,34108.4898,36134.8093,4888.7283,49052.8643,44195.8308,54984.659,-2828.4341,-3016.3676,22824.6152
52703.9319,25170.4752,51578.1194,38758.9931,34126.8182,36141.336,4888.013,49078.8817,44199.1836,54987.5647,-2822.1309,-3006.8457,22826.9845
52714.5267,25176.9125,51577.583,38768.4703,34139.3352,36146.0745,4887.1189,49087.4648,44207.5431,54991.9456,-2812.922,-2994.3287,22826.7163
52704.6025,25174.8115,51573.2914,38770.4819,34125.1642,36147.4156,4881.4416,49075.4396,44200.4353,54986.2236,-2818.644,-2999.559,22821.8436
52691.2808,25169.0,51570.0728,38756.0874,34103.8853,36142.2747,4880.324,49058.4522,44183.9397,54975.0477,-2829.7752,-3010.6008,22816.8368
52691.3255,25167.3013,51572.7997,38754.7016,34103.483,36144.5099,4881.978,49050.9421,44176.8318,54970.3985,-2827.3612,-3012.1654,22816.4792
52705.8095,25171.1011,51574.9007,38761.273,34123.4207,36150.8578,4886.8954,49062.252,44186.6219,54973.3937,-2811.1339,-2996.7427,22821.9777
52714.3031,25178.7454,51574.3643,38770.1243,34142.4644,36155.0152,4890.1141,49077.0042,44195.2497,54978.3111,-2798.3934,-2987.0421,22823.9894
52700.9815,25179.1477,51571.9503,38764.6705,34138.2623,36149.9637,4893.8692,49068.0188,44186.0855,54973.0808,-2805.6353,-2998.5309,22824.6599
52687.0787,25175.2585,51577.0912,38760.7366,34124.7618,36150.0084,4901.5582,49049.4221,44173.7026,54968.0293,-2817.4818,-3006.1752,22826.8057
52678.4062,25167.4354,51579.7287,38752.1982,34118.3692,36143.6158,4901.2452,49037.1287,44168.8746,54967.9846,-2823.7402,-3009.215,22826.314
52683.6812,25169.2235,51575.616,38752.4664,34129.6792,36140.3078,4899.5465,49050.048,44173.5685,54965.5259,-2811.6703,-3001.7048,22825.8669
52694.8571,25179.7736,51576.823,38760.6919,34147.5606,36143.3923,4903.7039,49057.6476,44178.5753,54972.4996,-2804.7413,-2993.6135,22830.5608
52681.6696,25176.7784,51578.7899,38756.8027,34140.5421,36144.5993,4906.3861,49037.3969,44166.103,54975.1818,-2806.7082,-2997.9944,22833.0195
52662.8494,25173.3363,51579.5946,38744.1963,34121.4985,36136.2398,4908.7107,49006.9985,44144.8241,54967.4034,-2818.5993,-3008.7233,22830.9184
52655.2498,25176.0632,51578.1194,38745.3139,34118.9951,36135.8374,4909.9177,48993.811,44138.0292,54967.0905,-2822.3544,-3010.1538,22826.8057
52666.2916,25186.2109,51582.3215,38753.8522,34138.3517,36137.6256,4914.2092,48995.2862,44144.243,54974.243,-2807.9599,-2995.3122,22834.0477
52678.5403,25192.7376,51581.6957,38760.7813,34150.8687,36140.6654,4916.6232,49009.5019,44157.2517,54980.9933,-2798.3487,-2985.5669,22840.1273
52666.2469,25195.5092,51574.7219,38759.2167,34143.1797,36139.3243,4916.802,49001.4553,44147.7746,54977.0594,-2798.2146,-2988.5173,22839.4121
52645.3257,25190.2342,51575.3478,38744.688,34119.8444,36128.2825,4915.4162,48966.0949,44131.5025,54971.8738,-2812.2514,-3001.4366,22835.2547
52631.7805,25187.8649,51572.8444,38734.585,34110.4567,36125.3768,4913.0023,48944.056,44123.5006,54968.9233,-2821.3263,-3009.2597,22834.0477
52645.1916,25190.6365,51572.3526,38749.2031,34126.6394,36128.4614,4917.7855,48953.712,44130.2955,54975.7183,-2809.9269,-2997.6815,22837.2663
52642.6435,25188.3566,51565.7812,38752.5111,34138.307,36127.3438,4913.6281,48958.4059,44126.6298,54975.8077,-2809.1222,-2993.1217,22835.0312
52622.9739,25179.5053,51559.5675,38745.5374,34121.1855,36121.13,4908.2637,48941.9103,44110.7601,54966.4646,-2822.4885,-3007.8739,22827.0739
52603.9749,25168.3295,51552.1467,38730.1594,34085.3333,36108.3001,4898.0266,48903.6888,44092.5211,54949.4326,-2844.2144,-3029.421,22814.4675
52600.9351,25166.1837,51551.789,38721.9787,34069.1507,36097.7501,4893.1092,48885.9862,44082.8204,54946.4375,-2848.8189,-3039.3898,22809.5055
52619.6212,25164.8873,51551.8337,38731.6346,34096.8221,36106.3331,4891.0081,48901.4983,44088.8107,54954.5735,-2833.4856,-3031.2985,22810.6678
52634.3286,25171.5034,51550.0903,38746.1185,34119.2633,36114.1115,4891.8575,48914.06,44094.4433,54953.2324,-2824.8578,-3021.3743,22812.2324
52626.3714,25171.5481,51552.2808,38744.5539,34109.6073,36115.095,4893.8245,48907.8909,44087.3802,54946.0351,-2826.9589,-3019.765,22812.3218
52613.9438,25170.0282,51560.3274,38739.5471,34097.3139,36113.7986,4898.0266,48882.3652,44079.7359,54943.04,-2832.8598,-3024.8165,22814.3334
52612.5133,25170.9223,51568.1058,38743.5257,34096.7774,36115.9891,4901.1111,48877.1349,44077.0984,54941.9224,-2831.3845,-3024.8165,22816.6133
52636.832,25180.6676,51574.4537,38760.5578,34116.0446,36124.9298,4907.6378,48893.9434,44095.2927,54951.0419,-2812.9667,-3005.7281,22824.0788
52654.4899,25191.8882,51578.7899,38772.7618,34128.1146,36131.4118,4917.0703,48916.0269,44113.6658,54959.4015,-2796.9182,-2988.4726,22832.036
52645.728,25184.7357,51577.0465,38765.8775,34112.5131,36125.5109,4915.7292,48907.2204,44107.5414,54954.8864,-2801.2097,-2991.9595,22831.4996
52636.6979,25181.964,51576.9571,38760.2001,34102.2313,36122.6499,4917.0703,48883.5275,44092.4317,54949.6114,-2808.5858,-3002.2413,22830.4714
52640.6318,25180.7123,51582.9027,38761.4518,34104.9135,36130.4283,4921.4512,48881.3818,44099.5842,54948.1362,-2803.1766,-3002.4648,22836.5511
52660.2119,25184.2439,51581.1145,38767.2633,34117.654,36131.6353,4922.3453,48891.44,44107.9885,54954.3947,-2792.6713,-2993.3006,22839.278
52668.5715,25184.1545,51577.9406,38769.5879,34125.7453,36131.3671,4920.423,48898.5479,44112.4141,54955.5123,-2788.2457,-2986.148,22838.9651
52657.6191,25179.2371,51575.6607,38766.2351,34114.8376,36130.6071,4919.529,48889.9201,44100.6124,54950.3267,-2793.7442,-2993.0323,22836.9981
52644.9233,25175.3479,51575.169,38753.1817,34093.1118,36122.337,4916.8915,48872.8881,44094.2198,54944.0682,-2807.4235,-3002.5095,22834.3606
52647.2479,25171.3246,51576.5548,38747.9961,34089.6696,36123.991,4916.1315,48864.8415,44091.18,54947.5551,-2811.1786,-3004.0294,22836.0593
52667.0963,25170.8329,51573.649,38753.6287,34109.3391,36126.4944,4916.3103,48886.3438,44097.7961,54947.9127,-2802.1485,-2992.7641,22836.417
52672.2819,25177.6725,51574.0067,38758.5014,34122.929,36125.4662,4915.9974,48896.8492,44109.6425,54948.8962,-2794.3701,-2983.1529,22839.2333
52668.9291,25179.5501,51574.4537,38759.6637,34116.447,36126.1368,4916.802,48886.2097,44107.1838,54946.7951,-2795.7559,-2986.2821,22842.8543
52656.9486,25174.3644,51568.1505,38746.7444,34085.7804,36118.0902,4911.3035,48864.6626,44083.4016,54939.5084,-2814.4419,-3003.0012,22834.8523
52657.2615,25181.1594,51564.9319,38745.5821,34083.1876,36121.3982,4909.2025,48866.9872,44084.1615,54943.2188,-2819.4934,-3008.1421,22832.796
52674.4723,25189.5636,51572.1291,38749.8289,34110.4567,36129.8919,4910.9012,48886.6568,44099.4948,54950.729,-2807.8705,-2996.7874,22833.7795
52693.9631,25191.7988,51573.8279,38758.2779,34123.5995,36133.8705,4913.0917,48911.4672,44107.4967,54955.0653,-2794.5042,-2986.3715,22836.7746
52681.3567,25192.0223,51572.2185,38755.2828,34115.3741,36134.3175,4913.3599,48905.5663,44113.5317,54960.1167,-2799.6451,-2990.3948,22836.104
52663.52,25177.6725,51573.7385,38743.0787,34088.552,36124.8404,4911.7059,48877.3137,44106.6027,54958.9992,-2815.6489,-3002.8671,22834.8523
52654.9369,25164.8873,51573.3808,38735.4791,34079.5666,36117.5984,4910.5883,48870.34,44106.0662,54961.592,-2823.5614,-3008.8127,22834.4053
52660.5248,25163.6356,51572.9785,38741.2459,34096.9563,36114.7821,4910.3647,48891.753,44114.9622,54966.867,-2813.4584,-3001.2131,22839.5909
52669.9573,25168.8659,51572.8891,38757.8756,34116.6705,36121.8452,4912.1976,48908.2038,44117.9574,54971.5161,-2801.4779,-2995.2675,22841.6026
52669.6444,25164.0826,51573.3808,38756.0427,34112.2448,36125.4662,4908.7554,48902.5265,44114.9622,54972.8572,-2804.8754,-2997.6815,22839.9485
52657.1721,25158.4947,51571.101,38746.6103,34096.1069,36120.9512,4904.8215,48873.2457,44108.5249,54963.1566,-2820.9686,-3012.1207,22834.0477
52656.1439,25161.1769,51571.995,38745.2692,34085.9145,36121.7111,4903.0781,48859.7006,44107.7203,54959.4909,-2828.1212,-3017.9769,22831.5443
52671.3431,25169.6706,51567.0776,38755.6851,34105.0476,36130.4283,4904.5533,48885.7627,44116.7951,54959.7591,-2813.4584,-3006.2199,22830.7843
52683.8601,25174.9456,51564.9319,38763.6423,34125.03,36135.3457,4905.7156,48909.3661,44123.8582,54957.3451,-2800.1368,-2993.4347,22834.6735
52681.1779,25179.5948,51568.9552,38764.7599,34120.515,36139.2796,4910.9012,48914.5964,44120.0137,54956.8981,-2799.511,-2991.5124,22836.6852
52666.1575,25184.9592,51574.2302,38763.4188,34106.1652,36138.3408,4916.6232,48900.649,44104.591,54953.3665,-2808.8093,-3000.0061,22832.796
52661.7765,25184.1098,51573.0679,38760.3343,34102.6783,36134.6304,4914.3434,48890.7695,44104.9486,54950.3267,-2808.1387,-3005.2364,22831.0525
52683.2789,25189.0272,51571.8609,38765.4752,34126.3711,36141.4254,4913.4046,48906.818,44120.0137,54953.143,-2794.2359,-2997.3239,22833.243
52704.2449,25194.1234,51572.3079,38776.8298,34145.1019,36151.1707,4916.8468,48923.6265,44131.8154,54957.3898,-2784.0883,-2985.6116,22837.1322
52699.7745,25203.824,51574.0514,38780.0485,34138.307,36151.6178,4919.0819,48935.7859,44128.0603,54953.5453,-2787.7092,-2983.4658,22836.7746
52684.5753,25202.5723,51574.4537,38772.583,34111.5743,36152.8695,4916.5785,48922.4643,44116.7951,54950.5055,-2798.6616,-2998.1285,22833.1089
52675.8134,25202.617,51576.6889,38770.0349,34104.0194,36161.0055,4917.8749,48911.2437,44122.9641,54954.9311,-2803.4002,-2997.1004,22838.4733
52690.5209,25205.7016,51573.4702,38779.2438,34127.3993,36167.3981,4923.7758,48932.7013,44136.7775,54966.6435,-2793.4313,-2982.3929,22844.553
52705.8095,25201.6783,51571.6821,38779.9591,34144.6996,36164.5371,4923.3288,48945.4865,44147.4617,54972.7231,-2788.0222,-2977.7437,22842.9884
52690.5656,25187.7755,51568.1952,38774.0135,34137.2788,36159.3515,4916.7126,48937.8422,44141.5608,54969.5492,-2790.9726,-2982.9293,22840.3062
52676.931,25184.0651,51565.0213,38762.2118,34113.1836,36150.9025,4912.3764,48921.9725,44130.4296,54964.6318,-2808.8987,-2999.6932,22834.1371
52669.5549,25187.0602,51568.5081,38761.5412,34112.5131,36149.6061,4911.7059,48921.4808,44124.037,54965.4365,-2817.0794,-3007.7845,22830.9184
52685.6929,25183.7522,51568.0164,38768.2021,34133.1661,36149.1591,4910.32,48943.5196,44134.9,54969.728,-2805.68,-3001.079,22834.5841
52692.1302,25183.171,51566.273,38764.5364,34136.6976,36143.3923,4908.4425,48957.2436,44137.3587,54974.2877,-2798.1699,-2997.4133,22834.0924
52687.1234,25177.5831,51568.3293,38755.3722,34124.2701,36138.2067,4904.151,48945.263,44131.9495,54968.968,-2808.3622,-3000.5872,22828.4597
52666.6492,25174.0515,51572.5762,38742.9893,34099.2808,36130.6518,4902.8099,48923.8501,44119.7902,54965.1235,-2825.0813,-3013.5512,22826.0905
52664.6823,25176.9572,51573.8279,38737.4014,34099.9067,36128.5955,4905.2685,48913.4789,44121.0419,54962.486,-2828.9258,-3021.2402,22823.4529
52679.5238,25180.2653,51572.1291,38743.794,34121.8561,36130.0707,4905.045,48930.6897,44134.2294,54970.5327,-2815.1125,-3010.8243,22824.5258
52690.1186,25182.7687,51570.0728,38753.0476,34137.5023,36127.6567,4906.2967,48937.3952,44137.8951,54975.9418,-2802.8637,-3001.5707,22827.8786
52686.0952,25184.7357,51569.2234,38749.0243,34128.1146,36125.0639,4910.0518,48931.092,44140.9796,54978.5346,-2805.5906,-3002.9565,22831.0078
52666.2022,25178.9242,51567.8823,38733.0651,34098.8785,36116.6596,4904.7321,48918.2174,44132.486,54975.1818,-2824.679,-3018.6474,22823.9447
52655.6075,25172.1293,51568.5529,38724.7503,34087.2109,36114.7821,4905.045,48920.989,44132.4413,54976.3888,-2833.3515,-3021.8214,22821.8883
52665.174,25179.4606,51568.5081,38731.6793,34110.5461,36115.5868,4906.3861,48943.7431,44147.3275,54982.7367,-2819.8063,-3009.0809,22827.3422
52681.1332,25185.6297,51566.4071,38741.0671,34130.2603,36119.6548,4909.2472,48961.3116,44157.2517,54983.7649,-2808.0046,-3000.9896,22834.003
52671.3878,25182.724,51562.6073,38733.4675,34120.6044,36114.3351,4904.8215,48948.5711,44147.9087,54979.6969,-2815.5595,-3006.4434,22831.2761
52662.9835,25182.3217,51565.96,38733.0651,34107.1486,36117.062,4909.6048,48930.2427,44142.6784,54979.5181,-2825.3496,-3012.836,22828.1021
52655.5628,25178.0301,51568.0164,38730.3829,34098.6103,36114.7374,4911.7059,48937.0823,44137.2246,54979.8757,-2827.0483,-3013.6406,22829.2197
52671.9242,25178.7901,51569.8493,38744.7327,34122.5713,36121.2641,4913.7622,48957.8247,44149.4733,54983.4073,-2810.2845,-3003.493,22831.6784
52689.7609,25183.9757,51569.0446,38755.5063,34141.615,36127.0308,4915.4609,48970.2523,44151.7979,54979.4734,-2805.9036,-2996.2957,22830.1138
52679.9709,25178.2537,51567.4353,38749.8289,34128.4722,36121.9347,4910.4095,48961.7586,44142.8572,54976.4782,-2814.6654,-3003.0012,22826.1352
52663.6988,25175.3479,51567.927,38744.0175,34114.6588,36122.7393,4911.0353,48940.6586,44128.8203,54972.589,-2820.2087,-3009.9303,22822.3801
52659.899,25176.0632,51569.0893,38744.241,34108.0874,36126.1815,4912.287,48925.6382,44130.072,54970.8456,-2820.6557,-3010.9137,22821.3072
52674.9194,25181.3382,51571.548,38753.0476,34129.6345,36133.2446,4912.4211,48952.0133,44139.8174,54976.0759,-2806.5741,-3000.4531,22825.6434
52689.1351,25188.5802,51573.2467,38762.8824,34147.0242,36136.5974,4914.3881,48975.4826,44152.6473,54983.4073,-2794.9512,-2988.3385,22828.6386
52683.3236,25185.9874,51570.5198,38761.4518,34137.2341,36134.0046,4913.3152,48961.8033,44146.5229,54975.8524,-2798.5275,-2992.4512,22826.001
52667.141,25179.7289,51570.7433,38750.3207,34115.8658,36135.1222,4910.8565,48940.3456,44128.0603,54965.2129,-2811.0445,-3006.5775,22824.0788
52656.9486,25173.2022,51572.6656,38742.8552,34108.5792,36133.1105,4910.1859,48932.1202,44127.4345,54965.1235,-2813.4584,-3010.2879,22828.4597
52665.3975,25175.8844,51574.3643,38753.8522,34129.9921,36140.2631,4915.3268,48946.6488,44144.5112,54971.1138,-2800.6285,-2995.9381,22832.5278
52675.3664,25178.2984,51574.5431,38762.9271,34145.5936,36145.5828,4917.3385,48963.6809,44155.7318,54979.3839,-2788.9609,-2987.9808,22835.8358
52676.4393,25176.8678,51575.5266,38764.134,34141.1233,36141.1124,4915.6845,48962.7421,44153.899,54981.6191,-2793.6548,-2992.183,22834.0924
52668.6162,25173.9174,51574.0067,38759.4402,34123.4654,36132.8423,4916.0868,48947.0512,44142.9913,54980.0098,-2804.5177,-3004.0741,22834.45
52659.0049,25167.9718,51569.4022,38752.2876,34113.7201,36131.5459,4913.1811,48930.8685,44139.3703,54979.9204,-2811.1339,-3006.4434,22834.003
52670.9408,25168.106,51569.8493,38757.2944,34132.1826,36133.647,4912.8681,48941.5079,44145.5841,54982.1109,-2803.7578,-2992.8088,22834.8076
52679.9709,25171.0564,51571.995,38761.0048,34143.8949,36139.2796,4914.8798,48950.0463,44160.9621,54985.1507,-2795.3982,-2983.5999,22834.7629
52672.6842,25170.0729,51572.3526,38752.2876,34127.8464,36132.3953,4911.84,48934.8471,44166.6394,54984.7484,-2805.0095,-2995.9828,22829.2197
52658.3791,25172.7998,51572.2185,38744.688,34110.6355,36128.059,4906.2967,48921.302,44144.1983,54977.5958,-2818.5993,-3010.9584,22823.2741
52655.2945,25172.621,51571.0115,38742.0505,34103.7959,36123.3205,4904.9556,48918.3068,44142.6784,54974.0195,-2816.4536,-3013.6406,22824.7941
52676.037,25176.689,51574.2749,38750.276,34123.1525,36133.0658,4909.2919,48934.9365,44152.7814,54979.9651,-2803.4896,-3001.8389,22827.7892
52686.3635,25175.6608,51574.5431,38754.2993,34133.8813,36136.3739,4910.1859,48956.4836,44158.9057,54985.5977,-2799.3768,-2993.9711,22829.7561
52681.4014,25174.7221,51575.6607,38754.5228,34131.2885,36134.3622,4910.4095,48944.2796,44157.3858,54982.8708,-2807.4235,-3000.5872,22829.4879
52668.7056,25173.1575,51579.8181,38749.6054,34116.0893,36130.2495,4910.6777,48934.0425,44149.965,54982.8261,-2817.3923,-3010.1985,22828.6386
52661.6424,25169.4471,51576.6889,38744.1069,34106.3887,36127.2097,4909.8283,48931.8073,44149.7415,54977.7299,-2822.8015,-3010.1091,22829.3538
52675.7687,25173.1128,51575.3478,38749.7842,34128.5169,36130.2048,4912.3764,48947.677,44168.6511,54980.8145,-2810.3739,-2993.3006,22831.2314
52683.3236,25174.275,51574.8113,38747.5491,34143.8055,36128.372,4907.2802,48961.848,44176.6083,54986.313,-2807.6917,-2990.5289,22829.8455
52683.4577,25176.5996,51576.7336,38760.379,34142.3303,36128.1931,4908.0402,48958.6741,44166.3712,54987.0729,-2805.233,-2994.7311,22828.9068
52674.6064,25168.7765,51577.4488,38749.6948,34120.1127,36123.2758,4907.6825,48935.92,44156.4918,54984.3907,-2818.3311,-3007.5163,22824.7494
52671.2537,25165.7814,51574.6325,38737.2673,34105.8075,36122.7393,4906.252,48927.2922,44153.3625,54978.7134,-2829.6858,-3015.5629,22822.4248
52684.4412,25175.0797,51572.5315,38743.8834,34126.4606,36135.5245,4905.4921,48946.6935,44161.9456,54982.5132,-2813.5031,-3002.0177,22827.521
52695.0806,25176.5102,51570.5645,38748.3537,34139.3352,36137.4468,4906.2967,48973.0239,44170.0369,54984.6143,-2802.7743,-2991.5124,22829.0856
52681.5355,25172.6657,51565.2895,38735.4791,34126.8629,36127.4332,4904.5533,48966.8101,44167.757,54981.932,-2810.0163,-3000.8107,22826.8057
52670.0467,25165.1108,51562.205,38727.5666,34109.4285,36119.6101,4903.3463,48948.2582,44153.4966,54975.3606,-2822.2203,-3015.697,22825.9563
52662.9388,25169.76,51563.3225,38733.691,34112.1107,36124.2592,4907.9508,48951.6109,44147.9534,54976.0312,-2820.8345,-3012.7913,22828.4597
52670.3596,25171.3246,51562.3391,38741.5141,34131.065,36129.8025,4909.5154,48972.2639,44160.2468,54979.3839,-2812.5644,-2997.5921,22833.1536
52684.0836,25172.4422,51566.9882,38754.1652,34148.2759,36139.6819,4913.0023,48991.4864,44175.5354,54985.2848,-2796.9629,-2986.0586,22839.1886
52678.7192,25167.1225,51569.6704,38751.7959,34143.4926,36137.4468,4912.3764,48987.9102,44172.3615,54983.6308,-2798.3934,-2991.5124,22836.9087
52662.5365,25166.6307,51570.8774,38743.0787,34125.2089,36136.0162,4911.84,48977.0025,44157.8329,54976.97,-2809.7034,-3004.7894,22833.9136
52660.1225,25168.0166,51568.8658,38735.4791,34119.3527,36134.9881,4912.1976,48974.4097,44161.275,54972.2314,-2818.1523,-3011.9866,22830.3373
52683.6365,25165.6026,51565.96,38746.3421,34139.7822,36141.4701,4912.5105,48980.6682,44171.9592,54976.8358,-2808.5411,-3001.8836,22830.829
52686.8105,25163.9038,51561.8473,38755.5957,34150.2428,36143.0347,4911.0353,48991.2629,44171.1545,54982.9602,-2801.7014,-2994.6864,22829.4879
52679.4791,25169.2683,51565.1107,38751.0359,34138.307,36136.0162,4911.08,48993.364,44172.5403,54984.1672,-2805.6353,-2999.9167,22825.1964
52654.4005,25162.9651,51562.0261,38740.5753,34117.4304,36125.0639,4903.5698,48969.8946,44155.5083,54973.3043,-2825.5731,-3015.8758,22818.8485
52645.2363,25154.0691,51558.1369,38736.7308,34108.445,36125.3321,4898.2054,48958.8976,44148.6239,54968.3422,-2832.4574,-3022.8049,22815.7192
52662.6706,25153.2644,51557.3323,38744.4645,34128.651,36131.0095,4897.9372,48978.6565,44164.449,54974.6007,-2823.472,-3010.1538,22819.6084
52675.277,25155.0525,51557.2876,38753.0923,34146.6665,36129.8472,4901.4241,48986.6585,44174.5967,54981.3956,-2809.7034,-2998.3073,22827.2974
52662.4024,25151.8339,51554.7842,38748.3984,34136.4741,36126.8073,4897.8031,48977.226,44167.6676,54974.5113,-2818.5099,-3005.8622,22824.6599
52643.9846,25144.4578,51553.6666,38738.4295,34107.5957,36121.0853,4893.8245,48964.0385,44157.7882,54972.2761,-2828.5682,-3018.8709,22819.6084
52641.0788,25138.4676,51551.6996,38730.7405,34095.2128,36117.0173,4891.7234,48957.4671,44150.0098,54970.3538,-2835.8996,-3022.626,22817.2839
52651.1371,25140.211,51548.9727,38736.1944,34107.6851,36121.8005,4892.5281,48971.2805,44161.9456,54972.6784,-2830.3564,-3009.975,22820.6813
52663.2071,25136.8135,51542.7142,38738.9213,34118.0563,36124.0357,4888.1024,48986.4349,44166.3712,54975.6289,-2817.9288,-3007.3822,22820.5025
52658.3791,25131.762,51539.2721,38738.206,34116.7599,36118.0007,4883.3638,48979.9082,44160.7386,54970.7115,-2821.9968,-3013.5065,22816.7474
52645.2363,25122.2849,51535.1146,38730.6064,34100.1749,36110.7588,4879.2511,48956.126,44147.864,54957.971,-2834.5585,-3026.3364,22810.5783
52624.0915,25112.7183,51530.4208,38717.6424,34086.2274,36105.0814,4872.5456,48944.4137,44136.1517,54951.7125,-2844.438,-3034.696,22805.9739
52642.0623,25115.7582,51531.4043,38730.517,34106.344,36110.8035,4873.9314,48967.2124,44150.9485,54960.2509,-2824.7237,-3018.7815,22813.4841
52654.8028,25119.0215,51535.8299,38736.6414,34122.8843,36110.8035,4877.5077,48977.1813,44168.9193,54967.9846,-2812.3409,-3007.8739,22817.5521
52650.556,25118.1722,51537.5733,38736.9543,34124.2254,36109.4624,4877.9547,48969.2688,44170.171,54964.1401,-2815.3807,-3010.8243,22815.8534
52638.8884,25113.6571,51538.6909,38730.1147,34103.7512,36110.4906,4876.8371,48951.3874,44154.4801,54959.2227,-2830.714,-3021.3296,22813.0817
52628.1148,25111.4219,51540.345,38719.1623,34088.6861,36110.0882,4876.8371,48947.677,44150.3227,54958.0604,-2837.956,-3027.8563,22810.5336
52646.2197,25120.1838,51539.3615,38727.8795,34104.5558,36115.5421,4876.256,48968.9559,44164.9854,54961.279,-2828.7917,-3016.904,22814.6911
52654.5793,25128.6328,51533.9524,38736.3732,34117.7434,36112.4575,4876.3901,48983.708,44170.6628,54966.4199,-2823.5167,-3006.4434,22818.8485
52645.1021,25117.4569,51528.0962,38722.5598,34099.4149,36101.5946,4869.014,48969.4923,44156.1341,54962.7095,-2833.8432,-3020.2121,22811.2489
52622.9292,25100.0226,51522.8212,38707.003,34074.7833,36093.995,4862.7555,48946.8724,44142.8572,54954.0371,-2853.5575,-3040.1498,22806.0633
52612.558,25090.2772,51518.0826,38700.6551,34063.7416,36090.7316,4857.0782,48939.3175,44133.2459,54945.3199,-2863.3028,-3047.66,22800.2518
52621.1858,25088.3549,51511.2877,38703.2479,34079.6113,36090.3293,4853.4572,48944.6372,44143.3489,54944.2023,-2853.2892,-3040.5521,22800.4307
52635.9379,25090.5454,51511.9582,38709.1488,34098.1632,36092.7433,4852.9655,48971.504,44154.5695,54951.8019,-2841.9793,-3030.0915,22802.6211
52630.4841,25083.527,51510.6171,38703.1138,34090.9213,36087.513,4847.8693,48968.3747,44142.6337,54950.3714,-2849.4,-3036.5288,22795.6921
52616.626,25074.9439,51505.6103,38696.6318,34076.3032,36083.8026,4842.0131,48946.2018,44122.83,54940.5813,-2862.8558,-3053.2032,22786.8408
52607.2383,25071.9488,51503.5093,38687.557,34060.21,36082.685,4838.1686,48932.7013,44117.4656,54933.7417,-2869.8295,-3057.9865,22781.6105
52626.8631,25085.7174,51508.7843,38698.4646,34083.3217,36092.028,4845.7682,48954.8296,44132.2178,54938.3461,-2853.8704,-3044.1731,22787.1984
52642.8223,25100.0673,51516.2945,38719.6541,34110.9484,36104.098,4856.7653,48978.6118,44150.1886,54951.8019,-2833.9326,-3028.4822,22798.419
52627.4443,25097.5639,51518.5297,38716.9272,34106.6122,36097.5713,4859.224,48975.4379,44154.5695,54951.4443,-2834.7373,-3027.7222,22802.8446
52624.5832,25098.0109,51521.5695,38716.9719,34086.7192,36098.9124,4863.3367,48967.6595,44153.0049,54950.5502,-2844.3038,-3033.4443,22800.8777
52621.4093,25102.3471,51524.7881,38712.9039,34080.7289,36101.5946,4865.9742,48968.5088,44157.1623,54956.1381,-2845.4214,-3034.6513,22804.3199
52635.3568,25109.2315,51524.2964,38722.1575,34098.4315,36104.2321,4870.3998,48982.814,44176.6977,54961.3237,-2834.5585,-3021.1955,22809.5502
52654.9369,25124.8777,51531.6725,38740.0389,34116.8046,36114.2904,4875.8537,49004.4504,44188.1418,54971.6502,-2820.8792,-3010.6455,22817.2839
52649.1255,25126.5764,51535.9193,38739.1895,34117.0281,36118.2243,4878.4912,49015.0005,44177.1895,54974.243,-2824.2767,-3016.2781,22819.9214
52639.7377,25124.1624,51539.3615,38728.6842,34103.7512,36115.5868,4879.2958,49006.3727,44164.0466,54971.2032,-2839.2076,-3024.146,22817.9097
52633.6581,25119.9603,51536.7687,38727.8795,34093.5141,36109.82,4876.1666,48994.3475,44163.7784,54967.6269,-2845.9579,-3029.0633,22817.3286
52645.9068,25127.2023,51535.4276,38734.9427,34117.8775,36115.4079,4877.2842,49007.8032,44182.4645,54974.6901,-2829.3729,-3016.4123,22820.5472
52660.0331,25129.5269,51533.4606,38740.0836,34129.5898,36119.3866,4877.2395,49026.6234,44190.7346,54980.3227,-2819.851,-3008.2762,22822.9165
52646.5774,25124.4754,51529.7502,38732.4393,34118.3245,36106.3778,4870.4892,49019.4261,44178.8882,54971.7844,-2831.9657,-3019.0945,22817.3733
52624.2256,25120.005,51523.8494,38713.485,34083.5899,36098.6441,4858.9557,48995.6439,44153.4519,54960.3403,-2857.402,-3040.6862,22806.8233
52613.8991,25113.2101,51523.0447,38706.1536,34067.0049,36097.2583,4854.396,48985.6303,44149.4733,54955.7805,-2861.2912,-3045.0672,22803.0682
52633.7922,25115.7135,51522.3742,38721.3081,34091.6365,36104.545,4855.0218,49008.0267,44165.2983,54959.6697,-2845.645,-3037.3335,22802.8446
52646.8456,25117.5463,51524.7434,38725.5549,34108.0427,36104.1427,4855.5136,49023.36,44173.2556,54963.0672,-2836.8831,-3033.7572,22805.1245
52641.4365,25123.3578,51533.5053,38722.9174,34108.8474,36104.6791,4859.8945,49018.9791,44176.0719,54974.243,-2840.3252,-3035.8583,22807.4491
52634.0157,25129.348,51535.1146,38720.5034,34089.0884,36104.0533,4862.8896,48997.2085,44171.4227,54972.4996,-2850.2494,-3045.3801,22805.9739
52633.8369,25128.6328,51538.378,38721.8446,34081.1312,36109.9541,4867.7176,48994.1239,44167.1759,54970.8903,-2854.6751,-3049.7611,22804.4093
52651.2712,25138.1546,51541.2837,38734.8086,34106.344,36116.302,4873.082,49023.8965,44176.966,54975.0477,-2836.6148,-3028.3928,22809.1031
52667.0963,25151.4763,51542.0437,38746.7891,34122.929,36121.4876,4878.4018,49043.119,44182.4198,54977.1488,-2814.6207,-3012.7466,22814.6464
52664.3246,25152.7727,51545.1729,38749.963,34126.9523,36124.3486,4883.0509,49041.2414,44182.1963,54975.4053,-2815.9618,-3011.9866,22816.7027
52651.0924,25147.3188,51546.827,38747.102,34112.9601,36123.2758,4887.4766,49020.1861,44176.1613,54973.349,-2827.1824,-3022.2237,22813.8417
52652.0312,25148.9282,51547.6316,38745.1351,34107.551,36124.4828,4886.7166,49014.8216,44179.1564,54971.382,-2831.2951,-3025.8447,22814.6911
52675.0535,25159.5229,51551.8785,38755.1486,34131.2885,36131.6353,4888.9518,49034.8488,44193.998,54978.7134,-2814.9784,-3011.7184,22823.6765
52687.481,25162.8757,51552.2808,38760.7813,34143.4479,36136.6868,4890.0694,49049.8245,44199.3177,54986.6706,-2804.6519,-3003.6718,22827.3422
52683.2342,25156.3936,51549.6433,38757.5626,34136.0718,36134.0046,4888.4153,49046.6952,44194.0427,54988.8164,-2807.3341,-3007.8739,22829.5326
52665.5763,25150.2246,51546.7823,38746.6997,34118.6374,36128.1484,4886.3143,49028.635,44181.2128,54980.4121,-2823.7402,-3019.0051,22827.1186
52647.3373,25145.8883,51538.0204,38732.6628,34106.7463,36121.8005,4881.3969,49014.1064,44178.1282,54972.2761,-2836.3019,-3028.214,22817.8203
52667.4986,25152.5491,51538.825,38749.1584,34125.4324,36127.165,4883.5874,49035.43,44192.7463,54975.1371,-2821.3263,-3018.2451,22820.6813
52680.2838,25153.3538,51539.8979,38759.6637,34142.6432,36130.3836,4887.5213,49051.5232,44201.7317,54983.7649,-2805.1436,-3008.8574,22824.2576
52673.0418,25144.9943,51540.3897,38748.1302,34137.0106,36122.784,4885.1073,49036.1005,44197.5743,54984.7931,-2813.5478,-3015.5182,22819.4743
52659.2731,25139.0487,51537.7522,38725.6444,34105.9864,36116.749,4881.0393,49013.1229,44186.4431,54974.1983,-2832.5021,-3026.4705,22813.1264
52653.7299,25141.418,51542.6695,38727.1643,34096.5986,36117.6431,4883.7662,49002.6623,44175.0884,54966.0176,-2834.6032,-3027.5881,22814.0205
52672.1925,25144.9943,51544.9047,38742.8552,34123.6889,36125.1086,4886.5825,49021.4378,44190.0194,54975.5394,-2817.7947,-3011.3161,22819.4296
52686.8552,25155.8125,51548.7492,38755.1486,34142.0174,36133.7364,4889.1306,49043.2531,44203.1622,54988.0564,-2809.6586,-3000.0061,22824.9282
52679.0768,25154.6949,51549.5986,38752.5111,34133.479,36127.5226,4887.4319,49041.8673,44198.2448,54992.3033,-2812.7879,-3003.6271,22826.1352
52660.5248,25152.5939,51551.4761,38741.2906,34116.447,36117.6431,4885.9119,49028.0092,44186.3984,54989.8893,-2827.093,-3014.7135,22822.1118
52657.3509,25150.2246,51555.41,38740.3965,34118.5033,36119.0289,4885.599,49016.1628,44187.1583,54987.4753,-2830.7587,-3018.6921,22819.2955
52679.8368,25158.2265,51559.478,38752.1088,34139.6034,36129.8025,4886.8507,49038.9615,44201.1952,54990.6045,-2816.8112,-3005.147,22822.5142
52691.8173,25165.0214,51559.8357,38762.4353,34152.6121,36131.6353,4886.8507,49066.9459,44211.0747,54999.5005,-2809.6586,-2996.3404,22824.3023
52680.0603,25166.7202,51558.7181,38758.6802,34147.1136,36132.1718,4887.9683,49068.287,44204.4139,54997.31,-2813.369,-3002.8671,22820.9943
52662.2236,25160.2829,51559.6122,38748.8902,34128.0252,36127.0308,4889.3988,49055.2783,44200.7482,54990.6045,-2825.439,-3012.9254,22818.4015
52659.2731,25160.3276,51563.7696,38748.6666,34123.1078,36129.4895,4892.4387,49053.8031,44199.4071,54989.6657,-2827.2271,-3012.6125,22818.0885
52672.1478,25157.8242,51559.1651,38754.8357,34136.9659,36133.1105,4890.2482,49064.8896,44202.0446,54988.0117,-2815.5148,-3009.1256,22815.4957
52689.448,25160.9534,51557.4664,38762.4353,34149.1699,36134.2281,4890.2929,49069.8516,44205.6209,54984.1672,-2807.4682,-3004.1635,22816.8368
52682.7872,25154.6949,51555.3206,38755.8639,34140.6763,36127.3438,4888.2365,49057.737,44199.0495,54980.5462,-2815.336,-3008.1868,22814.0652
52662.6259,25147.8553,51558.7181,38749.0243,34119.755,36123.0075,4888.6389,49035.6535,44186.6666,54980.725,-2827.3165,-3017.9322,22811.1148
52659.4967,25144.9496,51558.6287,38746.5209,34114.48,36126.7626,4887.3872,49024.12,44184.8338,54981.3062,-2825.2602,-3019.0945,22816.0322
52683.6812,25153.7114,51559.5227,38755.5957,34132.272,36135.9715,4892.2598,49053.4902,44199.3624,54988.6823,-2806.9764,-3002.9118,22824.0788
52691.5044,25163.9485,51560.5062,38763.7764,34146.1301,36138.3408,4893.3774,49074.2773,44204.7268,54993.7785,-2801.612,-2996.251,22827.208
52677.8251,25167.7483,51561.1768,38759.3061,34139.514,36130.6071,4890.1141,49071.9527,44201.4635,54993.8232,-2807.9152,-3000.4978,22825.8669
52666.9174,25164.3062,51562.7414,38752.1535,34118.3245,36129.7131,4887.8342,49054.8313,44201.9552,54991.2751,-2815.5148,-3007.1586,22822.2907
52657.1721,25157.3771,51558.6287,38743.6599,34103.5724,36125.4662,4879.4299,49050.8527,44196.2332,54986.0895,-2821.7733,-3012.2101,22821.039
52676.931,25165.7814,51560.5956,38751.5724,34122.6608,36132.3953,4878.4465,49069.4493,44208.0349,54988.2352,-2814.7101,-3003.4482,22829.8903
52694.276,25176.0632,51565.6024,38767.4421,34140.0057,36140.3972,4880.1005,49084.7826,44213.2652,54995.3431,-2801.7461,-2992.5406,22834.6735
52689.3586,25171.5481,51563.859,38758.6355,34131.6909,36142.1406,4879.2958,49080.5805,44211.03,54995.5219,-2805.4565,-2999.9167,22830.8737
52674.2041,25155.8572,51563.2778,38749.9183,34111.3955,36141.3807,4877.3736,49063.459,44202.8493,54989.4869,-2821.1027,-3011.182,22827.4316
52660.0331,25145.5307,51555.6335,38738.1166,34095.4363,36132.7082,4871.7409,49045.1306,44193.9086,54983.3626,-2833.7985,-3019.4968,22818.9379
52675.8134,25152.9068,51557.4217,38746.2974,34118.861,36139.6372,4873.2162,49060.151,44196.3673,54986.313,-2821.1921,-3003.0906,22819.7426
52683.4577,25150.9398,51553.5772,38747.7279,34130.7968,36136.2845,4873.2609,49064.219,44195.4732,54989.4422,-2816.4089,-2998.4415,22819.832
52677.2439,25142.2226,51546.514,38740.4412,34124.3148,36128.7296,4870.5786,49055.8594,44177.8153,54982.9602,-2824.4555,-3007.9186,22812.4559
52651.1371,25129.7504,51541.6861,38723.0068,34095.3916,36116.6596,4864.946,49017.4145,44149.5627,54971.6502,-2842.7392,-3031.3879,22803.8728
52641.2129,25127.4258,51542.1331,38719.7435,34088.5073,36106.0649,4866.3765,48998.9519,44143.0807,54969.9068,-2847.8801,-3033.936,22802.9341
52639.4695,25128.3199,51538.7803,38723.9009,34101.7842,36107.9425,4865.9295,49006.6856,44147.0593,54969.9962,-2832.368,-3020.7932,22803.5152
52650.9136,25136.2771,51536.724,38730.2488,34118.7716,36110.267,4869.8187,49018.6214,44144.69,54968.2528,-2820.7451,-3014.7135,22806.7786
52645.8621,25138.9146,51537.5286,38732.1264,34118.9951,36104.7238,4875.7195,49001.3212,44141.3373,54968.9233,-2822.7568,-3018.0216,22809.4161
52623.6445,25138.4676,51539.0038,38721.3975,34100.8008,36101.371,4876.256,48978.5224,44118.0915,54961.9496,-2837.4195,-3030.4492,22806.3315
52607.5959,25135.3383,51539.6297,38714.4685,34091.2342,36097.7948,4873.4397,48968.0171,44113.7999,54959.8485,-2846.7625,-3035.2771,22802.3082
52622.8845,25151.6551,51547.5869,38729.0418,34116.2235,36106.2437,4883.7215,48982.7693,44130.5637,54972.4102,-2823.2485,-3018.6474,22812.4559
52637.4578,25164.3062,51551.9679,38738.966,34135.5354,36113.1728,4893.5115,48996.3144,44131.0555,54981.1721,-2807.1553,-3004.387,22824.2129
52630.8864,25174.588,51556.0359,38739.2342,34131.825,36112.994,4900.0829,48981.294,44123.8135,54981.7085,-2816.1854,-3004.5658,22826.5822
52612.111,25175.9738,51560.5062,38728.8183,34110.3673,36107.7189,4903.0781,48953.3097,44113.0847,54975.6289,-2824.3214,-3014.5347,22825.8669
52610.9934,25181.3382,51565.4236,38725.0632,34106.8804,36109.82,4908.8001,48949.6887,44117.0186,54976.1206,-2828.0318,-3014.9817,22829.9797
52629.7241,25199.7113,51570.5198,38735.7473,34130.8415,36116.5255,4914.9692,48965.469,44132.1731,54982.0662,-2809.7034,-3001.1237,22836.9981
52640.5424,25205.5675,51574.2302,38746.655,34148.2759,36126.3156,4916.3103,48976.5108,44135.3023,54987.0282,-2796.6052,-2992.3618,22842.9884
52636.6085,25198.7278,51571.4139,38742.6317,34134.9989,36117.8666,4911.2588,48961.0434,44120.3713,54981.6191,-2807.1105,-2997.5474,22834.1818
52611.8875,25185.0933,51564.0825,38727.9689,34097.8056,36108.3895,4903.7933,48923.9842,44094.3539,54968.6551,-2829.6858,-3013.283,22823.14
52606.8807,25182.6793,51563.1884,38728.0583,34089.8484,36107.5848,4905.045,48905.3875,44089.66,54961.279,-2834.5138,-3021.732,22821.6648
52622.6163,25187.1943,51562.5179,38736.6861,34107.3722,36113.9327,4903.6145,48915.0882,44102.177,54965.3918,-2820.0746,-3012.2101,22822.9165
52633.2557,25189.4295,51565.6471,38743.794,34123.1078,36117.4196,4903.7933,48921.1231,44106.2003,54972.589,-2811.3127,-3003.0459,22826.0905
52619.6659,25183.6181,51563.7249,38735.4344,34110.1438,36114.6033,4901.0217,48907.2204,44097.9749,54960.5191,-2821.9521,-3010.422,22820.0108
52602.7679,25181.6511,51561.5344,38732.7969,34089.9825,36111.0717,4902.0946,48875.8385,44084.5191,54947.3315,-2831.921,-3023.833,22815.0487
52597.8059,25178.7454,51558.4499,38731.724,34088.7308,36109.1048,4903.4357,48869.7588,44081.8369,54947.5551,-2835.8549,-3027.0517,22816.0322
52615.3296,25179.3712,51556.6617,38740.9329,34104.0641,36115.6762,4907.1461,48885.5392,44083.5804,54953.59,-2821.1921,-3018.2898,22820.1449
52629.903,25188.8931,51560.5956,38755.7298,34127.3546,36122.2476,4909.1578,48900.2019,44089.2577,54962.3519,-2803.1319,-3005.7281,22824.5258
52627.8913,25189.9213,51560.4168,38750.9465,34115.0165,36118.4925,4910.6777,48895.3739,44091.8952,54960.072,-2805.1883,-3004.8341,22825.3305
52610.144,25181.3829,51560.2827,38746.3421,34091.9495,36119.1183,4912.6893,48878.5207,44078.4395,54955.3335,-2813.7714,-3008.6786,22826.7163
52607.0148,25172.7104,51561.9367,38744.0175,34088.1497,36122.9628,4913.5834,48868.5071,44075.8914,54950.6843,-2818.197,-3008.4103,22828.5939
52618.9506,25176.689,51561.2662,38748.7113,34108.445,36123.0522,4914.2092,48886.8356,44094.5774,54960.5191,-2803.7578,-2994.4628,22833.1089
52636.9214,25179.5948,51561.6238,38755.8639,34118.861,36122.0688,4913.9857,48900.8278,44104.1887,54965.7047,-2790.7938,-2984.4493,22839.5909
52635.8932,25177.2255,51559.7463,38756.8474,34116.6258,36121.8005,4915.9974,48890.8589,44098.869,54960.2062,-2797.5887,-2987.2656,22840.8426
52625.2091,25171.4587,51563.5014,38746.3868,34095.4363,36113.5304,4912.9128,48858.7618,44087.3802,54956.0487,-2815.5148,-3004.1635,22831.9913
52625.7455,25164.9767,51561.2215,38731.6793,34083.7687,36104.1427,4909.2919,48839.5393,44083.6251,54950.2373,-2826.0201,-3009.4385,22827.3869
52643.9399,25171.3693,51558.8969,38737.7143,34106.2993,36108.4342,4910.5883,48856.9289,44092.5658,54953.5453,-2813.7267,-2999.8273,22828.1915
52652.8358,25170.207,51559.3439,38746.9232,34117.2516,36106.7355,4909.8283,48870.4741,44099.2713,54959.4015,-2806.887,-2993.6135,22828.1021
52645.281,25161.3557,51558.9863,38741.6929,34105.8075,36100.7899,4905.6262,48860.1476,44094.8904,54956.4064,-2813.2796,-2997.905,22826.1352
52628.5619,25160.1487,51555.8124,38734.9427,34086.138,36099.4488,4904.598,48840.8357,44081.1217,54950.8184,-2821.2816,-3007.9633,22823.4529
52625.075,25157.5112,51552.2361,38729.6677,34074.5151,36098.6441,4901.2005,48831.448,44068.4259,54945.454,-2823.1591,-3011.6737,22818.5803
52638.9778,25156.5725,51546.7823,38739.2789,34091.9495,36104.5897,4899.0101,48840.9698,44082.2393,54948.0468,-2814.4419,-3002.5542,22819.4743
52651.2265,25160.0593,51547.4081,38748.6219,34107.4616,36108.9259,4902.6757,48852.6821,44094.4433,54952.8748,-2803.9366,-2993.1664,22823.2294
52649.5725,25161.2216,51548.3022,38744.1069,34106.5675,36109.82,4907.6825,48861.7122,44083.1333,54951.2208,-2809.9269,-2996.1169,22821.7542
52639.5142,25159.0759,51547.9445,38731.8581,34092.173,36104.8579,4903.6145,48857.376,44070.3928,54944.4258,-2827.5847,-3010.9584,22820.5025
52627.7572,25153.8455,51550.1797,38725.6891,34084.5287,36100.477,4902.7652,48846.3342,44073.1198,54944.7834,-2830.8928,-3014.5347,22820.9496
52636.2509,25154.829,51554.0242,38733.4675,34095.8387,36098.9124,4902.631,48859.1641,44093.2363,54956.4958,-2816.6324,-3002.0177,22824.7494
52643.8504,25155.8572,51550.9844,38740.7541,34105.0923,36096.5878,4899.6359,48872.2622,44101.9088,54959.0439,-2808.3175,-2994.7311,22823.9894
52647.6949,25155.9019,51553.6666,38743.6599,34099.9961,36098.0183,4903.1675,48871.8152,44096.3209,54957.8369,-2811.268,-2999.6037,22823.9894
52626.8184,25150.761,51553.0854,38733.1545,34081.8912,36095.202,4904.8215,48848.6141,44086.6202,54951.3996,-2825.9754,-3010.6008,22822.0671
52615.5084,25151.6998,51550.6268,38724.3479,34071.5647,36090.0611,4901.7817,48831.2691,44085.592,54950.5502,-2833.2621,-3016.0099,22819.3849
52636.8767,25152.7727,51553.3537,38726.896,34090.1613,36095.202,4900.1724,48849.4188,44101.0594,54959.178,-2820.5216,-3003.2247,22821.7989
52647.8738,25159.2994,51554.2477,38734.6298,34102.9018,36103.1592,4902.7205,48871.1894,44112.1906,54959.8485,-2810.8656,-2997.9944,22825.2858
52639.5142,25156.9301,51551.6549,38736.1944,34100.6666,36100.7899,4899.8594,48868.5519,44102.177,54956.5852,-2816.7218,-3001.2131,22820.6366
52624.0915,25146.7824,51548.5257,38727.8795,34084.1711,36098.1971,4895.1656,48850.894,44087.4249,54948.6279,-2827.9871,-3013.1936,22813.9311
52616.6707,25141.9544,51547.0058,38725.8232,34078.0467,36099.7617,4892.6175,48841.9533,44090.9564,54941.0731,-2831.921,-3020.4803,22807.6279
52627.2207,25149.4199,51547.5422,38742.8105,34098.6103,36103.3827,4895.255,48858.3148,44101.4618,54945.9904,-2815.6042,-3008.6786,22812.6347
52642.3305,25151.0739,51546.067,38750.723,34107.3275,36101.5499,4892.7516,48867.5237,44104.0546,54950.1032,-2808.7199,-3002.8671,22814.5123
52639.3801,25146.8718,51538.7803,38741.4247,34101.069,36094.7996,4884.9732,48862.2487,44093.4598,54941.833,-2820.0299,-3011.7631,22805.9739
52624.0021,25140.5239,51535.7852,38733.8251,34084.6628,36095.649,4884.8838,48852.995,44081.3899,54935.2169,-2832.0104,-3018.3792,22800.7436
52615.2402,25135.1148,51534.5335,38729.5336,34071.6988,36100.3429,4884.4814,48847.9882,44078.9312,54929.4502,-2836.5701,-3023.4754,22801.4141
52628.0254,25144.4578,51533.2818,38742.4976,34089.0437,36110.7141,4885.2414,48868.8648,44094.2198,54934.5911,-2822.1309,-3013.1936,22807.8961
52644.521,25150.314,51530.4208,38750.9465,34103.7512,36112.4128,4885.4649,48881.0688,44104.591,54941.9671,-2811.715,-3003.6718,22809.1031
52633.4792,25137.7076,51525.2799,38738.3848,34095.9728,36108.0766,4878.8041,48866.9872,44097.1702,54938.0332,-2822.5332,-3013.0148,22805.6163
52620.0682,25131.0915,51524.3858,38730.83,34079.2984,36107.3166,4877.2395,48856.616,44087.0225,54931.1489,-2834.4691,-3028.0799,22803.6046
52611.798,25122.7319,51521.793,38720.9952,34067.452,36103.0698,4874.7361,48852.6821,44084.4744,54928.5114,-2839.6994,-3032.9525,22803.1576
52626.6843,25125.4588,51522.4189,38720.9505,34088.3285,36100.3429,4875.7643,48877.0008,44095.6056,54936.2898,-2828.2553,-3020.6591,22807.8514
52629.7688,25127.3811,51522.5083,38723.2751,34107.1039,36093.5479,4877.3736,48887.9085,44106.5133,54945.007,-2819.1805,-3008.2762,22813.1711
52620.6493,25117.7698,51520.7201,38719.8776,34094.7211,36084.4284,4875.9878,48878.7442,44105.3957,54945.1411,-2825.0366,-3014.5347,22810.2654
52607.1489,25106.5493,51517.9932,38704.2314,34063.8757,36079.6452,4873.7079,48858.6277,44094.8457,54941.386,-2840.2358,-3027.5881,22804.1857
52599.9963,25100.9166,51511.8241,38692.3403,34053.6386,36074.5937,4868.9246,48836.2759,44087.6037,54938.972,-2851.0541,-3032.1479,22796.8544
52613.2733,25101.9448,51511.3771,38697.1682,34076.9738,36070.3915,4869.1034,48850.7599,44095.695,54942.7271,-2842.8733,-3025.2188,22795.1109
52623.0633,25106.281,51508.9631,38699.5822,34092.4859,36068.3799,4865.7507,48870.0271,44099.6736,54948.7621,-2837.2854,-3019.6756,22798.8213
52611.1275,25097.6533,51507.622,38698.3305,34082.3829,36062.5237,4866.6894,48864.6626,44092.2976,54941.6542,-2843.0969,-3027.007,22795.1556
52594.5425,25091.9312,51511.8688,38691.0439,34057.8407,36062.1214,4866.2424,48838.9134,44080.8982,54934.904,-2854.6751,-3040.5968,22790.3277
52585.2442,25092.1994,51515.4898,38684.7854,34047.7824,36062.1661,4868.9246,48826.7541,44075.2208,54933.8311,-2859.0113,-3040.8651,22790.0147
52611.3063,25101.2295,51519.7814,38700.0293,34080.3266,36074.2807,4878.2229,48854.3808,44094.5327,54943.8447,-2833.7091,-3019.8991,22801.0565
52631.557,25100.6931,51516.7862,38710.2664,34107.551,36074.7725,4879.9217,48880.9794,44104.4122,54948.4938,-2824.0979,-3014.6688,22797.7484
52622.3034,25101.7213,51515.758,38703.5608,34105.9417,36069.1845,4878.7594,48879.2807,44097.9749,54951.8913,-2830.4905,-3018.4686,22796.5862
52595.973,25094.7922,51514.8193,38691.178,34081.8018,36069.2292,4876.8818,48867.5684,44088.7213,54946.5716,-2843.5439,-3026.2917,22796.0944
52590.0275,25098.7262,51514.9534,38693.9496,34081.1759,36077.6335,4879.564,48860.9076,44088.1848,54941.9224,-2840.1911,-3024.0119,22798.7766
52598.4317,25103.5094,51511.5112,38706.243,34093.2459,36081.7909,4880.5028,48877.7161,44098.869,54944.247,-2830.0434,-3016.2334,22800.6542
52610.3228,25103.5988,51510.1254,38710.2664,34107.1039,36083.5791,4879.1617,48888.1767,44108.7484,54948.4938,-2821.3263,-3006.801,22803.8728
52603.0809,25098.7709,51509.9466,38703.8291,34098.0738,36076.1136,4874.6467,48885.271,44101.0147,54946.7057,-2833.2621,-3016.1887,22801.0565
52580.595,25091.4842,51506.9962,38689.658,34072.1458,36064.0883,4867.4941,48857.0631,44085.592,54941.9671,-2855.2562,-3032.4161,22792.2052
52569.9109,25090.7242,51506.6385,38681.6114,34063.6075,36061.8085,4865.1695,48842.8473,44084.5639,54938.4803,-2860.0842,-3036.9312,22789.3889
52589.2675,25104.4035,51509.6337,38690.9544,34085.3333,36070.2574,4866.0189,48866.9872,44099.8077,54942.5483,-2848.9083,-3027.454,22791.9817
52606.6571,25110.7514,51510.1701,38701.1468,34103.6618,36076.2924,4866.2871,48886.5674,44100.2101,54944.8729,-2841.6216,-3021.7767,22794.0828
52599.2811,25109.3656,51511.5559,38698.1517,34091.2342,36071.822,4865.8401,48878.0737,44097.5726,54948.0468,-2843.4098,-3026.0682,22791.0876
52579.0751,25108.5609,51514.864,38691.8932,34073.0399,36068.6034,4866.4659,48864.8415,44084.7874,54943.2635,-2855.1668,-3035.9924,22785.9467
52576.4376,25106.5046,51515.0428,38690.5074,34062.9816,36073.6549,4869.0587,48859.477,44085.3238,54941.3413,-2859.9948,-3035.903,22784.0692
52598.4764,25119.8262,51517.9038,38703.5161,34083.6346,36084.9202,4873.5291,48878.0737,44092.7446,54944.7834,-2846.8072,-3026.0682,22789.97
52620.8729,25128.141,51521.1672,38719.1176,34102.5889,36092.6092,4876.3901,48900.8278,44108.5249,54956.8981,-2828.5682,-3012.0313,22793.591
52612.7815,25133.3266,51521.793,38716.7037,34102.5442,36091.5363,4874.4231,48899.0396,44104.1887,54959.4015,-2827.2718,-3014.7135,22794.6192
52596.5989,25124.833,51519.9602,38704.8572,34082.8747,36084.1602,4875.5854,48875.2127,44088.5425,54952.0254,-2844.125,-3031.6114,22791.8476
52594.8107,25121.0332,51520.2731,38701.3257,34065.5297,36082.7297,4877.7312,48867.6578,44082.1499,54947.5551,-2851.4117,-3032.7737,22791.177
52606.9701,25128.901,51520.5413,38721.8446,34090.7425,36096.856,4879.2958,48892.7364,44098.4666,54956.2722,-2831.8763,-3017.9769,22800.2518
52619.8447,25128.7222,51517.5462,38724.795,34108.2215,36097.0348,4875.5407,48896.1339,44112.3247,54957.2557,-2824.7684,-3013.9536,22800.4307
52610.3675,25127.1576,51519.6919,38718.76,34092.6647,36092.6986,4871.2492,48888.8919,44107.0944,54956.3169,-2837.4642,-3020.8826,22796.452
52594.6766,25120.3179,51525.0564,38709.4617,34073.5763,36086.0378,4870.7128,48873.0222,44097.9302,54956.4064,-2851.6799,-3031.075,22796.5862
52594.6766,25114.3724,51523.3576,38699.8504,34065.1274,36082.1486,4871.2939,48867.5237,44096.455,54952.7854,-2854.8986,-3035.6795,22795.1109
52617.7436,25126.3529,51523.8047,38709.864,34091.1895,36087.4683,4876.8371,48896.4021,44110.6707,54958.5521,-2838.7606,-3024.8165,22799.7154
52626.3267,25129.1245,51521.033,38715.2284,34107.0145,36089.5246,4874.602,48907.3098,44123.0088,54968.1187,-2832.6809,-3020.1226,22798.5084
52618.8165,25122.2402,51522.3742,38708.0312,34099.9514,36086.5742,4872.1433,48908.0697,44113.5317,54967.1799,-2849.5789,-3032.282,22791.2217
52599.3258,25117.2781,51523.9388,38697.9282,34073.0399,36080.6286,4870.8916,48888.9366,44102.937,54962.0837,-2862.7664,-3042.4744,22785.5891
52599.5046,25116.2499,51523.8494,38702.2197,34070.5365,36082.3721,4873.7079,48879.5936,44100.3889,54960.9661,-2866.4321,-3042.3403,22785.7679
52619.487,25129.5716,51528.3644,38716.7484,34092.8882,36093.4585,4878.4465,48904.9852,44117.6444,54965.1235,-2848.6848,-3027.7669,22790.6853
52642.2411,25147.6318,51534.7123,38725.6444,34110.0544,36104.6344,4885.0179,48929.2145,44138.2974,54974.4666,-2827.853,-3013.1936,22798.7766
52644.4763,25147.8553,51538.8697,38723.2304,34106.6569,36101.5499,4886.1355,48928.3204,44134.6765,54978.8475,-2828.0318,-3015.4735,22800.4307
52629.4559,25137.5288,51533.1477,38705.9301,34085.5569,36092.7433,4881.0393,48905.924,44123.8135,54970.7562,-2846.539,-3031.4773,22796.6309
52620.2917,25136.4112,51531.9854,38701.281,34076.035,36086.3507,4880.8157,48903.1971,44125.8252,54968.6998,-2852.6187,-3035.6795,22797.3461
52627.5337,25139.8534,51532.656,38712.7697,34091.2342,36093.2797,4881.1734,48923.403,44137.9398,54977.0594,-2837.0619,-3024.2801,22802.9788
52640.3636,25141.5968,51530.9125,38713.932,34106.2993,36099.2253,4878.1335,48933.6848,44148.7581,54981.2168,-2825.7966,-3014.3112,22803.2023
52642.107,25144.4131,51529.3032,38713.932,34107.7745,36093.3244,4879.2511,48923.403,44137.6716,54974.4666,-2836.7937,-3020.4356,22796.5862
52628.2042,25142.0438,51536.3216,38705.4384,34088.0156,36088.2282,4880.6369,48916.5634,44129.312,54973.7066,-2848.5507,-3032.5949,22794.7086
52619.9788,25134.6678,51536.2769,38695.7377,34072.414,36087.7365,4877.5524,48914.4176,44120.6396,54971.1138,-2861.2018,-3040.7757,22791.7582
52633.8816,25139.0934,51538.1545,38710.3558,34100.309,36095.0679,4880.2793,48933.1484,44138.2974,54980.0545,-2844.5274,-3024.146,22796.452
52647.4267,25142.4909,51535.8746,38722.0681,34117.2963,36096.3196,4883.6768,48957.8247,44158.2799,54985.553,-2832.9492,-3014.2218,22800.6542
52644.0293,25144.279,51535.7852,38713.2615,34104.8688,36088.8988,4881.084,48949.0628,44152.692,54980.3227,-2842.6498,-3024.4589,22797.3908
52625.2091,25137.2606,51534.0865,38696.0506,34083.9922,36083.2214,4874.8255,48923.6712,44133.6036,54972.6784,-2862.8111,-3042.6085,22789.3442
52623.1974,25133.1031,51535.0252,38704.3208,34084.2158,36085.9036,4877.3289,48921.0337,44127.2557,54972.589,-2862.0958,-3040.3733,22789.523
52644.2081,25144.9496,51543.2507,38720.8611,34108.445,36100.2088,4886.4484,48956.3942,44142.0972,54983.139,-2836.8384,-3019.5862,22797.8379
52661.553,25159.6123,51553.1301,38728.9077,34129.4557,36111.7423,4893.0645,48984.1104,44158.6822,54992.5715,-2820.5216,-3005.2364,22807.1809
52661.0613,25160.3276,51553.3984,38728.6395,34134.9542,36110.7588,4891.4999,48982.9928,44155.9106,54988.2352,-2820.6557,-3008.8127,22811.8747
52644.8786,25152.2362,51546.2905,38730.0253,34117.0728,36110.267,4892.6175,48955.0531,44143.0807,54984.1672,-2831.3845,-3019.5415,22810.8913
52634.9097,25146.7824,51543.8765,38726.002,34102.3207,36110.7141,4895.0315,48944.9054,44145.003,54982.8261,-2835.9443,-3020.5697,22809.6396
52648.8572,25149.4646,51547.5422,38742.4082,34128.204,36118.8501,4899.9041,48966.5866,44161.4985,54986.2683,-2817.3923,-3009.4832,22816.9262
52662.6706,25151.4316,51549.8221,38752.2876,34147.8735,36125.3768,4903.6592,48991.1288,44171.7803,54987.6094,-2805.3671,-2999.2014,22822.5142
52656.5015,25155.1419,51548.8833,38746.2527,34136.2953,36122.8734,4900.0829,48987.2396,44169.9922,54986.0001,-2812.6538,-3003.9847,22820.5919
52640.0954,25159.2994,51550.0456,38735.3003,34109.205,36119.2077,4898.563,48973.0239,44152.692,54980.3227,-2829.8199,-3015.5182,22813.3947
52635.7144,25155.8572,51549.2409,38732.3499,34098.6997,36113.888,4894.3162,48959.5234,44145.4053,54976.1653,-2839.9229,-3020.972,22807.4044
52651.003,25158.7629,51551.5208,38740.5753,34121.9902,36119.163,4892.4834,48977.6731,44159.0399,54985.4636,-2826.1989,-3012.6572,22809.1478
52667.0963,25161.5793,51552.4596,38745.1798,34138.307,36121.0406,4887.8342,48991.4864,44167.2206,54989.0399,-2822.265,-3009.7067,22807.315
52661.5977,25154.8737,51551.3867,38741.9611,34130.3498,36119.6548,4886.806,48987.8207,44160.2021,54985.9107,-2830.3117,-3017.664,22803.1129
52635.7591,25146.7824,51553.9795,38726.2255,34099.9514,36112.5916,4884.6602,48972.9345,44148.0875,54980.1886,-2846.6284,-3031.7008,22797.212
52633.5686,25144.5919,51551.9232,38722.3363,34091.6812,36110.2223,4880.9052,48965.5137,44146.1653,54978.9369,-2855.3009,-3036.6182,22794.3063
52655.3392,25149.6881,51551.8337,38733.3781,34117.654,36113.5751,4881.1287,48984.7362,44157.6093,54983.6755,-2842.2922,-3026.7835,22795.6921
52669.7785,25152.3256,51554.3818,38741.0223,34130.8415,36114.3351,4884.3026,49002.8411,44166.9077,54988.1905,-2826.3777,-3015.6523,22799.8495
52663.7882,25153.4879,51554.2477,38736.1944,34122.6161,36120.0124,4887.566,49003.5564,44162.9291,54991.3645,-2829.5964,-3016.457,22800.6989
52651.003,25154.9631,51555.3206,38727.4772,34105.3158,36120.4147,4888.5942,48984.1104,44157.7882,54991.588,-2845.1979,-3024.6377,22799.3578
52648.4102,25151.208,51552.4149,38723.4539,34095.6151,36118.4478,4886.0013,48974.1415,44156.5812,54990.0234,-2849.9812,-3027.0517,22798.4637
52667.5433,25152.1021,51553.7113,38734.6298,34115.1953,36120.1465,4887.6107,48989.9218,44169.6346,54993.6891,-2837.3748,-3013.7748,22805.6163
52679.6579,25154.5608,51550.9844,38745.6715,34128.5616,36122.784,4889.3094,49003.7799,44177.9941,54990.4704,-2828.7917,-3007.3375,22807.1809
52677.6016,25148.2129,51550.8503,38741.5588,34125.1642,36120.9959,4885.8225,48994.7498,44172.8979,54985.2401,-2833.4409,-3015.3394,22806.5103
52659.3626,25144.3237,51551.5655,38726.8513,34104.6453,36116.3467,4883.3191,48977.1366,44172.0486,54983.4073,-2846.5837,-3027.4093,22803.1576
52647.8738,25148.0341,51552.8619,38723.4539,34092.7094,36119.6101,4887.0295,48971.4593,44166.7736,54979.6522,-2845.7344,-3022.7602,22803.8281
52670.7172,25154.4714,51554.3371,38734.8533,34122.0796,36129.266,4888.8177,48991.7994,44172.0486,54985.2848,-2828.2106,-3008.1868,22808.8349
52680.999,25154.4267,51558.6734,38744.4198,34132.8084,36132.6188,4890.874,49010.396,44180.3634,54993.3314,-2820.5216,-2999.4249,22813.7076
52675.724,25151.8339,51556.7064,38744.6433,34135.2671,36130.3389,4893.7351,49006.6409,44177.2789,54991.0069,-2829.3282,-3002.0624,22814.1546
52661.9554,25148.3023,51554.3371,38739.2342,34117.5646,36129.3554,4894.7632,48993.7216,44168.1594,54985.5083,-2842.2922,-3009.8855,22809.2372
52656.1886,25141.418,51557.5111,38734.3615,34104.0194,36126.0027,4889.6223,48985.3621,44171.2439,54988.5035,-2847.6566,-3016.904,22809.3266
52672.9077,25145.2178,51558.1369,38745.3139,34125.9688,36124.1251,4890.4717,49000.5165,44184.8338,54997.3994,-2834.4691,-3007.3822,22811.0701
52687.1234,25144.9943,51559.2545,38751.3936,34142.1962,36130.9648,4897.2219,49018.7556,44194.445,55002.3168,-2821.058,-2997.458,22813.037
52681.2226,25140.1663,51561.0427,38747.5491,34131.4673,36131.5459,4895.255,49011.9159,44191.0028,54999.0982,-2826.1989,-3001.6601,22811.9195
52657.7532,25131.762,51560.5062,38733.0651,34106.4781,36122.4264,4888.2365,48988.0443,44178.3965,54989.4422,-2847.8354,-3017.2616,22805.7504
52647.6502,25127.5152,51554.2477,38721.9787,34085.2439,36114.8715,4878.8041,48984.8703,44167.1312,54984.346,-2858.2066,-3027.7669,22797.1673
52655.3839,25133.7737,51551.2079,38728.5948,34103.3041,36118.1796,4874.2443,49001.0977,44173.8367,54986.9388,-2848.8636,-3021.4638,22799.179
52663.6988,25139.4957,51548.8386,38734.6298,34123.3313,36118.1349,4875.7195,49015.9392,44184.8338,54990.6492,-2836.2572,-3013.3277,22801.28
52649.7513,25130.555,51547.9445,38728.9524,34119.3974,36112.994,4873.395,49024.4776,44181.3916,54989.0399,-2838.6265,-3017.5745,22799.1343
52629.9477,25125.28,51544.6365,38718.76,34091.7706,36105.1261,4871.6515,48999.6225,44164.2702,54980.9039,-2851.9481,-3034.2042,22797.1673
52626.4161,25125.7271,51543.5189,38719.6094,34084.4393,36106.6908,4872.7244,48987.2396,44158.6822,54978.0428,-2858.6537,-3038.3617,22797.0332
52648.3655,25137.35,51548.7492,38732.1711,34106.791,36111.1611,4874.6467,49006.9091,44177.7259,54987.2965,-2845.5555,-3024.0566,22800.6095
52667.6327,25142.4909,51548.5704,38740.2624,34121.2749,36116.9279,4875.4066,49032.3901,44189.1253,54993.3761,-2833.3515,-3012.4336,22804.5434
52663.6094,25140.4792,51545.9329,38736.0603,34118.548,36115.5421,4875.3172,49025.3717,44186.4431,54991.8115,-2834.2009,-3017.6193,22804.1857
52644.1187,25135.1595,51544.2789,38726.2255,34095.0787,36110.7588,4872.8585,49003.0199,44173.345,54984.346,-2846.9861,-3027.454,22797.7931
52638.2178,25134.0866,51544.3236,38726.6725,34086.3168,36112.8151,4874.0655,48997.1638,44170.4392,54984.9719,-2852.1717,-3028.4822,22799.0448
52652.7017,25138.2887,51541.2837,38737.1778,34106.6122,36116.3914,4874.9596,49012.6312,44180.9446,54986.5365,-2843.0969,-3019.0945,22800.386
52665.6657,25144.0555,51539.1827,38743.7046,34126.1476,36118.7607,4872.5009,49025.2823,44189.17,54986.2683,-2832.2786,-3011.182,22798.6872
52656.5462,25140.2557,51538.5568,38742.4529,34121.6326,36115.5868,4869.1481,49022.5554,44183.5374,54984.2566,-2839.8782,-3018.2004,22791.177
52634.418,25135.9195,51536.8134,38730.6958,34096.1963,36112.3681,4866.0636,49007.8926,44166.2818,54977.1488,-2855.3456,-3028.6163,22785.3209
52627.7125,25133.1478,51534.0865,38723.141,34080.6842,36108.5236,4866.913,48990.5924,44167.5335,54978.177,-2861.3806,-3033.5784,22782.9516
52639.5142,25135.3383,51534.6676,38730.4723,34099.9961,36111.6976,4868.567,49005.3445,44182.1963,54983.6308,-2847.6119,-3026.4705,22789.4783
52648.0973,25143.7426,51539.8532,38737.9825,34116.9834,36113.0387,4871.6962,49026.3104,44185.1914,54983.8543,-2836.3466,-3017.2616,22793.9039
52646.6668,25143.1167,51542.3566,38734.2721,34110.4567,36108.3448,4872.8585,49020.3649,44183.4033,54982.5132,-2842.6051,-3021.3743,22793.4569
52638.1731,25139.8981,51544.3683,38730.6064,34099.4149,36108.0319,4877.5524,49004.1822,44173.8814,54985.6424,-2851.4564,-3025.2188,22794.3063
52637.1449,25142.625,51548.7492,38728.0136,34094.0058,36110.9376,4882.4251,49003.467,44173.1662,54991.1857,-2848.4166,-3025.1294,22800.5201
52658.1109,25149.2411,51551.9232,38732.6181,34108.8474,36113.8433,4885.6884,49018.9344,44188.723,54998.6511,-2836.2572,-3010.6455,22804.1857
52673.7124,25153.3538,51547.4081,38736.0603,34124.2254,36115.8997,4885.7778,49036.7711,44198.9154,55000.8416,-2825.6625,-3000.1402,22804.2752
52665.8893,25151.6551,51546.6034,38731.8581,34117.7434,36117.1961,4886.0013,49039.8109,44196.6802,54997.9806,-2831.6081,-3007.6057,22805.4821
52654.4899,25149.0176,51552.6831,38723.6327,34099.3255,36115.6762,4889.3541,49025.9081,44189.4382,54995.3431,-2847.2543,-3019.2286,22806.3315
52652.3441,25150.1799,51551.5655,38720.7717,34088.3732,36112.4575,4889.3988,49015.7157,44187.4713,54992.8397,-2849.8024,-3021.4638,22807.0915
52666.2916,25156.3489,51549.4645,38730.83,34110.2779,36115.0056,4886.2696,49034.1783,44193.238,54999.2323,-2839.9676,-3009.3938,22807.0021
52678.2721,25158.5841,51548.6598,38740.173,34130.2156,36122.8287,4888.1471,49052.6408,44202.4916,55005.4908,-2831.3398,-3000.2743,22807.2703
52677.1992,25158.8076,51551.9232,38737.7143,34128.2487,36119.7889,4888.46,49045.3541,44199.5859,55002.2274,-2833.6197,-3008.9468,22804.901
52659.1837,25154.5608,51549.4198,38730.3382,34106.7463,36113.1728,4885.5543,49024.6564,44189.7511,54993.7785,-2850.6964,-3025.4871,22798.0167
52659.2284,25153.0409,51549.4198,38729.3994,34097.8056,36114.4245,4888.1918,49024.567,44192.6569,54993.9126,-2855.7032,-3030.628,22796.5862
52668.6609,25151.0739,51546.5587,38734.2721,34112.7813,36114.648,4886.4484,49040.9732,44201.1952,54998.2041,-2844.7956,-3017.7534,22796.8991
52673.3547,25154.829,51546.514,38746.7891,34131.825,36121.13,4886.4931,49044.6389,44207.5878,55003.2556,-2829.6858,-3008.3209,22799.2684
52670.9855,25148.6599,51546.3352,38742.274,34121.4538,36116.1232,4883.6768,49035.3853,44198.3789,54995.1643,-2836.3913,-3017.7981,22795.7815
52655.5181,25146.3354,51548.5257,38733.9145,34098.0738,36111.9658,4881.3522,49014.9558,44186.309,54989.934,-2849.3553,-3028.8398,22791.1323
52642.8223,25146.2907,51545.0835,38726.3596,34089.3567,36106.7802,4877.0607,49010.843,44175.8484,54984.8378,-2858.609,-3035.2324,22786.8408
52657.1274,25151.8786,51545.5753,38741.4694,34113.8095,36113.6645,4882.1121,49027.9198,44191.9863,54988.5035,-2841.9346,-3022.2684,22794.351
52668.348,25145.2625,51548.1681,38745.5821,34123.0631,36117.2408,4884.9285,49040.9732,44206.8279,54994.2255,-2830.9375,-3013.6853,22799.0896
52654.7134,25144.1002,51547.2293,38742.6764,34115.4635,36112.9493,4885.2414,49042.5378,44208.4819,54996.9524,-2831.9657,-3016.6358,22800.0283
52635.0439,25144.5919,51548.4363,38732.1264,34099.9961,36110.9823,4886.7166,49025.1482,44196.5014,54992.2585,-2842.7839,-3024.146,22797.8379
52628.6066,25143.832,51550.0009,38725.6891,34094.274,36113.3516,4888.2812,49029.5738,44187.0689,54994.0467,-2845.8685,-3028.8398,22798.9554
52649.2596,25152.4597,51551.6549,38741.7823,34120.6938,36128.4167,4891.0528,49060.598,44206.3361,55003.8815,-2830.7587,-3014.4006,22804.454
52665.7999,25152.9962,51548.5704,38753.9417,34136.8318,36135.1222,4889.98,49076.8701,44218.8084,55004.5073,-2817.6606,-3001.9283,22807.9408
52663.3412,25150.6269,51551.6996,38750.5889,34126.5947,36132.1718,4891.8575,49078.2112,44211.8794,55004.1944,-2821.818,-3005.7281,22808.075
52645.7727,25146.3354,51555.4994,38742.7658,34104.7347,36123.2758,4892.7069,49049.288,44200.0777,55000.6181,-2834.8267,-3017.7534,22808.6561
52630.8417,25136.6794,51552.8619,38729.2206,34094.9446,36116.5702,4887.9236,49035.0276,44193.5509,54995.3878,-2844.3485,-3026.8282,22805.661
52652.97,25136.0536,51551.9679,38735.1215,34116.2235,36116.1232,4888.5942,49054.1607,44199.4071,54998.07,-2829.1494,-3015.6076,22806.6891
52675.2323,25138.3781,51551.0738,38739.6365,34128.2487,36116.9279,4885.8225,49061.6709,44203.1175,55002.1827,-2828.2106,-3008.1868,22804.2752
52664.6823,25130.4656,51548.5257,38729.2653,34115.8658,36115.4079,4882.6933,49047.4552,44191.3605,54995.9242,-2839.0735,-3013.1936,22800.6989
52640.6765,25129.3033,51549.2857,38717.6424,34097.0457,36114.4245,4883.8556,49033.7759,44181.8386,54990.1128,-2853.1551,-3025.2188,22798.4637
52641.7494,25135.0254,51548.8386,38727.656,34091.9048,36116.0785,4884.9285,49035.3853,44185.5937,54987.3412,-2852.4399,-3024.7271,22799.8942
52658.1556,25142.2673,51541.1496,38731.277,34103.4383,36118.7607,4881.9333,49058.497,44196.0543,54990.5598,-2841.9793,-3019.3627,22798.6425
52679.0321,25150.761,51544.6812,38736.7308,34124.136,36126.852,4884.4814,49075.0819,44209.9124,54994.3149,-2828.4788,-3008.7233,22803.7834
52674.83,25150.1799,51544.413,38741.4247,34122.169,36126.9414,4883.9003,49063.012,44206.7385,54992.5715,-2831.4739,-3010.5114,22803.3811
52658.2897,25148.347,51542.4907,38734.4956,34100.9796,36121.8899,4882.6486,49039.6768,44189.2147,54988.1011,-2846.3155,-3022.8049,22801.28
52650.8242,25149.4199,51542.6248,38729.1312,34093.9611,36123.2311,4881.4863,49037.2628,44183.7609,54985.106,-2851.0094,-3027.1411,22798.7319
52669.6891,25159.8358,51546.3352,38739.9942,34113.8095,36129.9366,4879.564,49056.3959,44197.8872,54991.9009,-2835.1843,-3012.4784,22804.0963
52679.7473,25160.8193,51549.9562,38741.7823,34129.5898,36130.1154,4880.9499,49063.5484,44210.8959,54995.4772,-2829.1047,-3006.041,22802.6211
52677.0204,25155.8125,51549.4645,38741.0671,34123.3313,36126.5838,4882.2016,49057.3347,44204.3692,54991.141,-2834.5138,-3018.0216,22800.5201
52658.7367,25150.0905,51551.9679,38730.2488,34098.6103,36125.0639,4885.3308,49045.0859,44195.3838,54991.9009,-2846.9861,-3029.5551,22803.3811
52653.6852,25150.5375,51555.1418,38722.2916,34087.7026,36126.9414,4887.6107,49040.7497,44186.5325,54988.5035,-2848.0142,-3028.0352,22802.9341
52669.4208,25146.4248,51558.9863,38729.1312,34108.4898,36123.4993,4890.3376,49059.7934,44184.4314,54987.7882,-2833.3515,-3018.0216,22806.7338
52680.999,25143.832,51560.0145,38738.4742,34119.8444,36128.9978,4895.0762,49068.5105,44194.892,54989.2187,-2821.1921,-3005.4599,22810.7572
52675.8581,25148.9729,51563.0543,38740.3071,34118.2798,36128.1037,4900.3065,49061.2239,44192.1651,54992.9291,-2821.2368,-3006.2199,22810.4442
52655.0263,25145.1731,51561.445,38727.2984,34097.4927,36119.7889,4897.4901,49031.8537,44178.0835,54986.2236,-2833.6197,-3020.3909,22807.7173
52632.1828,25144.726,51557.5111,38714.0661,34088.105,36115.7209,4895.6126,49007.4009,44169.0981,54980.7698,-2846.6731,-3027.8563,22802.6658
52634.6862,25145.8883,51556.4382,38723.0963,34102.276,36118.4925,4897.0431,49020.052,44170.1263,54986.76,-2838.1348,-3013.0595,22803.8281
52646.0409,25152.0127,51558.3158,38732.3946,34115.1059,36117.3749,4901.3346,49019.6943,44166.7289,54992.9291,-2825.4837,-3001.3472,22809.1031
52635.7144,25152.1468,51557.1088,38720.9952,34104.5111,36102.4439,4898.9207,49000.2036,44155.2401,54986.1342,-2834.9161,-3010.9584,22807.6726
52606.5677,25143.2061,51554.7395,38701.9962,34087.9261,36091.6257,4895.5232,48969.1347,44142.276,54976.97,-2848.4613,-3027.6328,22801.3247
52608.1324,25146.4248,51554.5607,38706.3771,34084.3052,36088.0494,4898.2054,48956.1707,44129.1332,54974.7348,-2850.92,-3029.7339,22800.7883
52625.4326,25156.036,51556.1253,38721.9787,34101.2925,36095.9619,4901.2452,48968.0618,44135.0341,54980.7698,-2835.5867,-3020.7038,22804.5881
52626.5949,25162.2498,51551.5208,38726.1361,34115.8658,36092.3856,4900.3512,48969.0006,44143.483,54982.6026,-2831.7869,-3016.9487,22806.108
52608.4006,25158.3159,51546.2011,38721.174,34109.5626,36085.9931,4899.4571,48953.8014,44134.4082,54972.8572,-2837.0619,-3020.3462,22801.3247
52584.7524,25154.8737,51543.9659,38708.4782,34088.2391,36083.7132,4895.4785,48928.231,44114.247,54961.592,-2846.8072,-3033.4443,22796.5862
52572.3249,25149.4646,51540.4791,38705.349,34075.0962,36086.6636,4891.9469,48911.6013,44098.6902,54955.7358,-2851.2776,-3041.8932,22793.7251
52596.2859,25157.2877,51548.0787,38718.0895,34098.2974,36097.0795,4899.77,48922.7772,44113.7999,54965.9729,-2835.4526,-3030.1809,22796.7203
52609.0264,25160.9981,51547.721,38724.3032,34108.1321,36097.8395,4895.255,48922.8666,44116.9739,54960.6085,-2831.3398,-3022.4919,22796.452
52598.6105,25163.5462,51544.1895,38719.4306,34091.5024,36091.5363,4892.9304,48914.507,44109.1061,54957.3004,-2839.2971,-3031.8797,22790.4171
52575.5882,25158.4947,51541.4625,38705.1255,34070.8047,36083.2661,4887.1636,48889.786,44093.9069,54947.7786,-2852.127,-3047.8388,22786.6173
52566.6475,25148.1235,51536.3663,38696.6318,34058.1983,36082.2827,4880.0111,48869.58,44085.7261,54941.1625,-2862.0958,-3054.7678,22779.9118
52582.7408,25144.4131,51533.4606,38708.5676,34073.7998,36082.5956,4879.9664,48882.4099,44093.281,54943.8894,-2851.7693,-3046.6318,22781.2529
52597.4929,25154.6055,51540.9261,38722.3363,34086.3615,36090.0611,4886.2249,48900.2019,44103.7863,54949.9691,-2834.4691,-3032.9973,22788.4054
52598.6105,25153.6667,51542.8483,38722.0681,34082.7852,36090.821,4888.9071,48893.1388,44101.5959,54952.2489,-2836.5254,-3031.8797,22792.2499
52590.4745,25150.2693,51543.1613,38719.207,34062.8922,36089.5693,4888.9071,48871.5023,44089.7048,54948.6727,-2846.0026,-3040.3286,22792.2946
52581.3997,25147.3188,51546.7376,38712.9486,34052.8786,36089.7928,4889.3988,48866.8531,44085.592,54945.7669,-2852.8422,-3042.8767,22794.351
52598.7446,25154.0244,51549.1068,38727.7007,34075.3645,36095.1126,4891.3658,48885.6733,44097.7961,54953.9477,-2833.9326,-3027.5434,22799.5813
52616.4025,25156.9301,51554.0242,38737.6249,34093.067,36102.6675,4896.0149,48900.649,44106.9156,54959.7591,-2815.8277,-3014.3112,22803.2917
52605.0031,25151.5657,51552.0573,38726.7172,34078.0467,36099.0465,4895.702,48887.9085,44095.9185,54951.7572,-2828.5235,-3018.0216,22798.3743
52591.4133,25147.14,51549.7327,38717.0613,34059.5394,36087.7365,4891.2317,48867.9707,44083.4463,54944.5599,-2844.3933,-3030.4939,22792.4734
52592.2179,25149.1964,51549.9562,38709.7746,34051.8057,36085.0096,4887.9236,48855.0961,44077.8136,54940.6707,-2849.4895,-3036.4394,22791.8923
52611.0828,25149.6434,51549.1068,38717.9554,34063.2945,36090.3293,4889.5776,48864.4838,44091.5823,54946.6163,-2834.7373,-3023.1625,22796.7203
52625.9691,25150.1352,51549.6433,38728.5948,34084.4393,36095.7831,4892.5728,48881.8735,44099.8524,54952.9195,-2821.2816,-3008.8127,22800.9224
52626.0138,25147.8106,51556.1253,38724.3479,34089.0884,36094.2185,4894.0927,48875.615,44103.8311,54960.8767,-2824.5002,-3010.6455,22805.3927
52608.5794,25135.383,51551.7443,38711.1604,34064.9486,36083.8473,4887.6554,48852.0116,44087.8719,54948.5385,-2843.0074,-3032.3267,22796.005
52601.4268,25133.3714,51547.6763,38701.4598,34052.6998,36081.9697,4886.7613,48837.8406,44086.9778,54943.2188,-2851.6799,-3039.2557,22793.4569
52616.6707,25144.5472,51548.3916,38712.0098,34069.2401,36088.1835,4892.7516,48855.2749,44096.6785,54950.6843,-2835.9443,-3023.8777,22798.5084
52632.7193,25152.0574,51550.895,38725.7785,34083.8581,36093.0562,4897.1772,48876.9561,44103.4287,54958.7756,-2824.8131,-3015.1606,22800.4307
52623.108,25145.4413,51549.7774,38720.1905,34073.7998,36084.6519,4893.8245,48872.7093,44097.7067,54956.4064,-2832.8151,-3022.1343,22795.558
52608.6688,25140.6133,51548.6598,38707.45,34060.8805,36077.0971,4888.5942,48849.4188,44086.7543,54950.6843,-2846.4049,-3036.1265,22790.6406
52607.73,25139.8534,51543.6977,38699.0458,34052.3869,36079.9134,4885.8225,48837.2594,44088.0507,54946.1246,-2851.9034,-3040.2392,22789.3889
52619.9788,25143.7426,51538.5121,38703.2926,34072.3693,36081.6568,4887.8789,48859.477,44090.1071,54948.7174,-2844.9744,-3029.8233,22791.7582
52635.6697,25155.9913,51543.6083,38708.7911,34084.3946,36090.4634,4894.7185,48886.3438,44102.1323,54962.6201,-2830.8928,-3011.8525,22800.386
52633.9263,25151.4763,51548.6151,38714.3791,34087.345,36090.8657,4897.4007,48887.372,44103.5628,54969.8621,-2832.0104,-3012.7466,22803.1129
52622.7057,25147.9,51554.6948,38711.071,34069.3742,36090.5528,4897.9819,48871.7705,44095.4268,54969.5492,-2844.5274,-3023.1625,22802.1741
52622.5716,25148.5705,51555.9912,38702.7562,34057.8407,36085.3225,4895.6126,48858.9853,44091.1353,54965.2129,-2848.8636,-3026.3811,22800.6095
52644.4316,25158.0477,51557.2429,38713.1274,34076.7503,36089.3011,4899.9935,48882.9017,44107.9885,54972.0079,-2833.7985,-3009.6173,22806.6891
52651.4947,25155.9466,51553.3984,38722.5151,34085.5569,36090.374,4897.3113,48896.6256,44121.3101,54974.5113,-2824.8578,-3003.0459,22805.7504
52651.4053,25155.1419,51554.3371,38724.6609,34082.3382,36089.0776,4894.0927,48887.1932,44114.9175,54969.4598,-2825.886,-3008.455,22803.9622
52639.246,25150.0458,51555.8571,38715.3178,34069.106,36083.892,4890.0247,48870.6976,44098.3325,54963.8271,-2845.0191,-3023.6542,22798.419
52620.4258,25144.5472,51553.7113,38708.4782,34057.796,36084.8755,4882.738,48857.5995,44090.7329,54959.5356,-2851.3223,-3029.9127,22790.7747
52627.8466,25155.4102,51553.9348,38712.9486,34076.7056,36086.6189,4885.4202,48872.8434,44100.4783,54967.8952,-2839.0288,-3021.1508,22793.4569
52644.8786,25165.4238,51556.6617,38726.1808,34099.0126,36094.1291,4891.634,48896.4915,44121.2654,54975.0477,-2826.6907,-3010.7796,22797.7037
52645.3257,25160.417,51554.203,38732.2605,34097.5374,36088.4964,4894.1821,48902.0795,44123.7241,54972.8125,-2830.8928,-3014.6688,22799.3578
52626.1926,25156.7066,51550.3138,38723.1857,34077.9573,36079.1087,4891.0975,48882.6334,44115.7669,54965.5706,-2847.5672,-3035.5453,22794.351
52617.2519,25155.4549,51551.0291,38719.0729,34069.6871,36081.3439,4886.2249,48875.0786,44113.4423,54963.9612,-2850.1153,-3041.5803,22792.1158
52631.3335,25161.6687,51552.8172,38726.002,34086.7639,36088.9435,4885.8672,48879.4595,44118.4491,54965.2129,-2840.057,-3028.5269,22790.8641
52650.0195,25174.7221,51551.789,38735.6132,34107.6851,36100.4323,4889.7564,48898.3691,44128.1497,54970.8903,-2827.6742,-3019.1839,22795.6027
52656.4568,25173.7386,51549.3751,38732.484,34107.0145,36104.5003,4888.9071,48898.2797,44127.2557,54969.3704,-2831.4739,-3023.2519,22795.3792
52635.1333,25164.0826,51550.2691,38718.1789,34083.6793,36101.9075,4880.1005,48885.8968,44112.8612,54959.2674,-2847.8801,-3037.0206,22786.2597
52616.4919,25157.4665,51547.5422,38701.9962,34062.1769,36098.6441,4873.0373,48872.7093,44104.0099,54949.6114,-2860.4418,-3048.2858,22778.6601
52645.9068,25167.6589,51549.4645,38721.8893,34087.792,36110.58,4881.084,48897.6091,44111.2965,54955.0205,-2844.9297,-3031.6114,22787.109
52659.1837,25167.5248,51551.342,38734.2721,34113.8095,36118.9395,4886.6272,48919.0668,44121.3995,54957.5239,-2830.8928,-3021.7767,22791.8029
52651.1371,25169.8047,51548.6151,38723.3645,34106.0311,36113.5751,4884.0344,48911.199,44121.8913,54956.9428,-2836.0784,-3026.8729,22788.4948
52639.4248,25165.4685,51547.8104,38709.5958,34087.7026,36103.3827,4882.6933,48895.9104,44115.141,54955.2441,-2850.7411,-3035.8583,22784.4268
52629.6347,25154.1585,51543.8765,38705.5278,34079.0749,36094.2632,4884.4814,48895.3739,44107.8991,54953.2324,-2854.4962,-3038.0934,22785.2762
52641.9282,25162.2945,51543.1166,38712.9039,34098.6997,36101.684,4885.7778,48918.2621,44116.8845,54959.625,-2843.1863,-3026.7388,22788.763
52647.0691,25163.0992,51541.7308,38718.0895,34107.5957,36103.1592,4885.2414,48930.3321,44126.9428,54965.5259,-2837.2407,-3021.3296,22790.1042
52646.5774,25158.4053,51542.1778,38719.9223,34106.3887,36103.7403,4889.0412,48934.3107,44127.8815,54965.3023,-2837.2854,-3024.1013,22791.8923
52634.865,25155.9019,51546.514,38715.7202,34094.3635,36092.9668,4891.634,48906.4157,44118.315,54962.3966,-2846.8072,-3029.7339,22790.9982
52619.6212,25160.3276,51549.5986,38711.5628,34085.1545,36090.5975,4895.6573,48894.614,44118.1362,54959.6697,-2850.5176,-3027.7222,22792.4734
52623.5104,25163.5909,51547.3187,38711.7863,34099.9067,36091.7151,4896.4173,48911.9142,44129.1779,54963.7824,-2840.7723,-3021.1508,22791.177
52638.6201,25165.3343,51544.1447,38719.5647,34121.2749,36092.7433,4897.6243,48930.1533,44136.7328,54970.2197,-2830.8928,-3014.2218,22791.6688
52636.072,25159.657,51544.2789,38717.7318,34115.2847,36090.7316,4897.5348,48926.3088,44135.5705,54968.9233,-2834.4691,-3020.2568,22792.0711
52617.5201,25151.0292,51545.2176,38708.7464,34095.5704,36086.5742,4892.7516,48913.8812,44124.5288,54966.9564,-2850.2494,-3033.7125,22791.0876
52607.5959,25146.5142,51544.3683,38703.9632,34086.7639,36077.7229,4889.8011,48904.8958,44117.5997,54963.7824,-2857.5808,-3041.4462,22789.3889
52621.9904,25146.8718,51546.2011,38715.0496,34100.5325,36082.685,4894.8973,48913.6577,44134.9,54970.4432,-2842.8286,-3028.5716,22793.2334
52638.0837,25148.8835,51546.4693,38725.0632,34115.6423,36088.3623,4895.6573,48931.8967,44145.7182,54976.0312,-2832.9492,-3020.0332,22793.9934
52628.1595,25144.8601,51548.1681,38719.7435,34108.2215,36085.0543,4894.3162,48927.471,44142.2313,54974.0195,-2838.7606,-3024.4142,22794.5745
52614.3461,25144.0555,51550.6268,38715.8096,34092.4412,36087.2,4893.9586,48910.9308,44129.0885,54972.2314,-2849.4895,-3031.4326,22791.8923
52607.9983,25147.0506,51549.9562,38718.0895,34081.3547,36091.6704,4893.4221,48907.3992,44125.1993,54975.8524,-2851.7693,-3036.5735,22790.6853
52620.7387,25143.072,51544.86,38723.0963,34097.5374,36087.3789,4891.9469,48914.9094,44130.5637,54972.142,-2843.3651,-3028.7504,22791.2217
52634.5968,25143.519,51543.3848,38718.3577,34110.0544,36086.3507,4888.8624,48924.5206,44138.2527,54971.4714,-2836.9278,-3019.765,22793.0099
52635.0439,25150.001,51547.9892,38719.1176,34109.2497,36087.2895,4894.2268,48919.6032,44137.5375,54974.9583,-2837.4642,-3020.0332,22794.9768
52624.315,25149.4199,51550.4926,38713.1274,34092.6647,36089.0776,4895.255,48899.3526,44134.3635,54973.2596,-2855.1668,-3032.3714,22791.6688
52618.593,25140.6133,51546.067,38701.4151,34078.6725,36082.0144,4888.9518,48894.3905,44131.3237,54963.7824,-2864.9122,-3041.6697,22784.7397
52626.8631,25142.9826,51545.1729,38707.3159,34093.6482,36082.238,4888.3706,48913.4341,44138.5657,54962.5307,-2853.334,-3035.8136,22783.7116
52631.0652,25143.2508,51541.3284,38718.4024,34112.2895,36091.134,4887.7001,48926.8899,44140.5773,54964.9,-2838.9841,-3027.0517,22788.2266
52627.8913,25134.2207,51534.9805,38715.4967,34106.0758,36084.7861,4883.3191,48921.8831,44130.4296,54960.4744,-2845.0191,-3029.4657,22789.3889
52612.8709,25133.9972,51537.6627,38707.5394,34085.7357,36078.9746,4883.0062,48903.957,44127.1663,54957.6581,-2860.3524,-3038.004,22789.076
52607.4171,25134.5783,51538.0651,38703.2479,34080.103,36084.0708,4884.8838,48896.6256,44124.1711,54956.7193,-2867.4155,-3046.4083,22787.109
52626.1926,25140.7474,51543.9659,38713.5744,34101.8289,36093.0562,4887.566,48910.439,44136.6881,54966.4646,-2854.5409,-3032.282,22792.2946
52643.0458,25143.3402,51550.4926,38727.1643,34122.6608,36100.477,4894.6291,48932.4331,44152.9155,54981.6191,-2839.0288,-3017.1722,22799.0448
52638.6648,25142.0438,51552.0126,38727.5219,34120.8726,36102.9804,4898.4289,48928.7227,44154.6142,54981.8873,-2840.9958,-3023.7883,22798.9554
52619.487,25131.5385,51549.688,38719.967,34096.1069,36094.0397,4894.0927,48903.1076,44138.6998,54966.4199,-2853.9598,-3037.8252,22795.1109
52613.318,25128.4987,51549.688,38715.0943,34086.3615,36090.7763,4890.2482,48897.1174,44132.7542,54957.0769,-2860.4865,-3042.5638,22790.3277
52630.4394,25136.143,51548.9727,38720.2799,34101.3372,36096.4537,4890.427,48919.2903,44142.276,54961.9943,-2850.4729,-3031.1644,22791.9817
52645.9068,25145.3966,51549.1962,38726.9855,34117.8775,36096.9007,4890.3823,48938.8257,44146.0758,54969.4151,-2840.6829,-3025.4871,22794.0381
52638.5307,25147.6765,51550.135,38731.3664,34115.5976,36097.2136,4894.3609,48929.3933,44145.0477,54967.6716,-2837.196,-3026.1576,22793.6804
52620.7387,25136.7241,51545.0835,38712.0545,34095.1681,36087.4683,4889.2647,48905.6557,44134.8106,54961.1896,-2855.0774,-3040.9098,22785.2762
52610.0099,25129.2139,51545.8435,38696.453,34078.5384,36081.7015,4883.3638,48899.1737,44124.8864,54962.2178,-2866.4321,-3049.9846,22781.9681
52633.7028,25140.9709,51548.6151,38708.2547,34100.5325,36089.7034,4888.7283,48925.3253,44138.5657,54967.3587,-2852.4399,-3034.7854,22786.1255
52663.1624,25154.2479,51553.6666,38728.103,34128.0699,36098.6441,4896.5067,48944.816,44156.6259,54975.9418,-2836.1678,-3018.2451,22793.5463
52652.4335,25149.5987,51550.5821,38724.3032,34114.7482,36095.0679,4895.255,48944.8607,44153.4072,54973.8854,-2840.2805,-3024.6824,22790.3277
52633.5686,25143.072,51551.1185,38712.8145,34095.2575,36089.0329,4895.255,48923.6265,44141.7396,54971.8738,-2855.0774,-3037.1547,22787.3325
52622.8398,25141.8203,51548.4363,38702.0856,34085.3333,36090.9551,4893.7798,48904.717,44135.7046,54970.0409,-2865.5827,-3045.5142,22785.2762
52640.7212,25148.8835,51553.4431,38713.038,34108.2662,36099.0912,4893.4221,48926.2193,44151.7532,54978.4005,-2849.5789,-3030.1809,22790.283
52660.9272,25156.0807,51557.2429,38722.5151,34120.7385,36102.8016,4893.4221,48951.6556,44162.3032,54985.6871,-2838.1795,-3019.2286,22794.5745
52649.2149,25153.4879,51553.9795,38717.5977,34104.6453,36095.649,4889.4882,48939.8539,44160.5598,54983.7202,-2845.8685,-3025.1741,22790.6853
52624.0021,25144.1449,51543.7871,38700.2975,34083.2323,36083.8026,4884.0344,48912.1377,44146.8358,54976.0312,-2865.2251,-3042.5638,22782.1469
52622.7504,25142.7591,51541.5072,38695.3354,34074.7386,36082.5062,4881.1734,48912.2272,44132.0837,54968.5657,-2875.1045,-3047.9729,22780.3141
52639.9612,25148.5705,51546.8717,38705.3043,34096.7774,36091.6704,4886.6719,48940.5245,44144.7347,54979.6075,-2861.1124,-3030.4044,22788.8077
