FC3,FCz,FC4,C5,C3,C1,Cz,C2,C4,C6,CP3,CPz,CP4
56401.6253,27965.2923,53862.4674,42024.5379,36618.8586,39148.5393,5945.3845,50349.1759,44242.2777,55946.4544,301.2568,-795.1409,25860.2053
56404.3075,27962.6995,53864.8367,42027.1307,36618.9033,39147.9135,5945.608,50351.6346,44248.8045,55951.9976,303.3578,-787.4966,25860.2053
56415.6175,27968.4663,53864.7026,42034.2833,36639.2881,39153.2332,5948.4243,50379.3061,44260.2485,55953.607,320.3005,-777.3489,25860.5182
56415.3939,27968.2428,53863.138,42036.5185,36643.222,39154.0378,5946.4574,50381.0942,44262.6178,55954.3669,321.9098,-776.6783,25859.803
56405.5145,27964.7112,53859.8299,42033.6127,36630.4368,39152.2497,5942.7023,50362.0058,44253.7218,55948.4661,311.628,-781.0593,25856.182
56386.3814,27954.3847,53855.6725,42018.7265,36606.5651,39142.7726,5935.1921,50333.8426,44236.8686,55934.4739,288.561,-804.0369,25843.3521
56391.0753,27951.1213,53852.0962,42016.8936,36606.9227,39143.756,5933.3146,50325.349,44228.5538,55931.7917,285.0741,-809.8036,25839.6417
56402.4299,27954.8317,53850.4422,42025.3426,36634.4601,39149.8357,5932.7334,50354.1827,44243.2612,55935.815,305.5483,-791.8775,25845.5873
56402.6535,27954.6976,53848.967,42031.4223,36650.5533,39152.3838,5935.9968,50369.3819,44254.0348,55938.1396,308.2305,-781.9533,25847.4648
56397.7361,27951.8366,53852.9903,42027.4884,36629.8109,39147.2429,5939.886,50364.1963,44244.96,55933.7139,297.904,-789.1953,25844.7826
56380.3017,27944.0582,53855.136,42016.9383,36607.2804,39144.963,5939.7072,50343.0963,44230.476,55928.126,284.7165,-798.8513,25839.15
56387.946,27953.4012,53858.2206,42020.9616,36615.4164,39155.7366,5942.4788,50345.9126,44242.9483,55936.5749,294.283,-791.7434,25844.8273
56409.2696,27962.5207,53862.4674,42036.1608,36641.9703,39168.2088,5949.8101,50367.9514,44266.5517,55950.3436,316.0983,-776.723,25855.422
56416.1986,27962.2078,53866.9825,42042.5087,36655.3366,39172.5898,5955.2193,50388.9173,44269.0104,55951.5953,325.3967,-769.5258,25860.3394
56407.9285,27962.1631,53867.6083,42037.8596,36637.8129,39164.1855,5954.0123,50379.3955,44264.5401,55953.7411,318.9147,-776.8124,25862.8428
56384.638,27952.8201,53866.2672,42028.6059,36610.5437,39156.9436,5948.6032,50349.0418,44242.993,55945.3368,298.8875,-788.8824,25859.3112
56389.7341,27954.2506,53868.0106,42033.6127,36618.4115,39163.8279,5951.5536,50353.9145,44244.6023,55948.4214,303.3578,-783.9203,25863.2451
56409.359,27963.8618,53868.3236,42045.8168,36641.9703,39170.3993,5954.1017,50379.8425,44261.6343,55955.0375,327.2742,-770.7775,25868.7437
56404.3522,27961.4925,53867.2954,42045.6827,36648.6311,39160.5645,5949.5419,50392.9406,44260.5615,55951.2377,330.2693,-767.4694,25868.0284
56385.3085,27954.6976,53862.8697,42033.4786,36625.7876,39149.6569,5944.8481,50368.2643,44247.6422,55940.7324,312.5221,-783.0709,25858.9536
56369.6623,27943.3429,53856.4771,42019.7994,36601.3795,39143.4878,5940.8247,50330.7581,44233.6947,55932.2834,293.9701,-803.411,25848.493
56380.4358,27951.0766,53855.449,42026.1472,36608.398,39146.1253,5944.401,50335.5861,44230.7889,55930.3612,299.6027,-799.1642,25849.1635
56405.8721,27951.479,53855.2701,42038.9324,36637.5893,39153.2332,5943.8199,50368.7561,44244.8258,55936.4408,315.5172,-784.5461,25856.4949
56416.3327,27950.6296,53856.4771,42045.9956,36642.2832,39153.6802,5943.4175,50376.1768,44258.7286,55945.8733,323.1168,-779.3605,25858.596
56395.3668,27952.5071,53856.9242,42037.7702,36630.4368,39152.3391,5942.3894,50357.2226,44254.2583,55941.6264,310.3763,-791.8328,25853.0527
56374.1773,27941.9124,53857.3712,42017.6536,36611.6613,39143.4431,5941.3612,50343.4092,44243.9765,55934.608,289.3209,-804.2157,25847.7777
56387.2308,27942.1806,53861.3945,42019.3076,36610.9908,39141.2526,5943.0152,50351.6346,44253.1407,55937.1114,289.0527,-802.7405,25850.7282
56406.8556,27950.3614,53863.4509,42028.2483,36641.2997,39148.3605,5946.1892,50368.5772,44272.2738,55942.0735,309.7951,-785.7978,25858.4172
56417.4056,27962.5207,53866.6695,42035.535,36649.3016,39154.2166,5951.0618,50379.3955,44278.0852,55949.8072,320.7922,-777.5724,25865.7038
56414.4105,27964.6665,53872.6598,42033.2551,36632.5378,39154.8872,5955.264,50376.7133,44276.8335,55959.6419,314.7572,-779.6735,25868.9672
56403.1005,27964.1747,53877.1749,42030.707,36619.3503,39154.3508,5955.7557,50361.1118,44272.7208,55955.6186,303.939,-788.0777,25868.1625
56407.0344,27965.4264,53872.1234,42031.6011,36623.3736,39153.3673,5957.2309,50360.6647,44267.5799,55953.4729,307.2917,-786.826,25865.8379
56428.5368,27966.6334,53870.2905,42037.3231,36650.5533,39156.5412,5959.1532,50389.4538,44282.9132,55961.6089,325.3073,-769.6152,25868.5201
56431.8448,27964.2195,53866.7589,42034.5962,36654.532,39156.0048,5958.4826,50399.1544,44282.0191,55962.9947,322.5356,-771.8056,25864.9439
56412.8458,27957.4692,53862.2439,42020.6934,36627.7099,39140.5374,5953.0735,50386.2351,44268.3846,55960.5807,305.9059,-787.3178,25856.7631
56386.3814,27946.651,53859.5617,42006.7012,36598.1162,39132.1331,5947.1726,50365.3139,44251.6655,55951.0142,284.5824,-805.378,25849.0741
56382.4922,27938.8279,53858.8911,42009.1152,36605.984,39138.1681,5944.8481,50368.2643,44245.5411,55944.6663,290.3491,-804.7074,25846.1684
56398.7195,27939.7219,53856.656,42025.5661,36633.566,39138.5257,5944.5798,50393.4771,44258.2369,55949.0472,306.8,-794.0233,25848.6271
56404.2628,27946.7851,53853.8843,42024.8061,36637.947,39138.8834,5941.7188,50399.6462,44269.0104,55950.3883,308.1411,-791.8328,25847.8671
56391.4329,27945.891,53850.5763,42011.8868,36620.9149,39130.9261,5936.7567,50388.2915,44258.9074,55942.0735,292.7184,-805.9144,25842.6368
56377.843,27944.4158,53857.55,42004.2425,36595.1657,39131.8202,5936.265,50364.688,44253.3642,55937.8266,276.1781,-813.2905,25840.5805
56385.8896,27948.5732,53865.1049,42008.7576,36602.363,39142.9961,5941.1824,50370.4101,44260.0697,55945.4709,287.0858,-804.618,25843.665
56411.7283,27957.0669,53868.7706,42025.3426,36634.4601,39154.2614,5944.6692,50401.7472,44266.7753,55949.9413,308.9458,-784.9038,25853.1868
56423.4853,27967.5275,53872.7492,42032.8081,36652.2968,39160.7881,5951.3301,50419.2263,44277.5935,55956.6021,322.6697,-775.7843,25859.043
56411.2365,27967.4381,53876.102,42029.1424,36636.2035,39160.6987,5957.365,50410.822,44283.852,55965.2299,316.143,-781.0146,25860.5182
56392.1034,27956.7093,53873.5092,42016.3125,36604.6876,39153.6802,5952.5818,50388.515,44268.6081,55955.3057,300.2733,-798.896,25856.3161
56408.3308,27962.7442,53874.5821,42022.8839,36617.7857,39157.3906,5954.5934,50390.169,44267.0882,55954.3222,307.6047,-793.6209,25861.5464
56429.3414,27975.2612,53876.8619,42048.0072,36654.4425,39171.4722,5959.0638,50423.2049,44283.1367,55967.1074,329.0623,-776.0525,25868.6543
56431.8001,27974.8142,53870.2458,42050.6448,36662.3551,39175.1826,5956.1133,50430.5363,44289.7081,55967.8674,334.7397,-773.2809,25867.179
56416.0198,27970.2097,53868.3683,42038.4407,36644.2502,39170.8016,5950.5254,50409.5256,44282.1085,55959.329,320.3005,-783.3838,25861.01
56393.221,27951.4343,53862.6909,42021.1852,36612.6895,39153.0544,5937.4273,50390.9737,44270.2621,55947.125,293.389,-803.0087,25849.0294
56386.6943,27944.3264,53855.2254,42014.7479,36606.3416,39139.7327,5930.6771,50393.1642,44265.4788,55943.9063,287.0411,-808.4178,25845.3637
56400.5971,27950.5402,53851.068,42029.8129,36631.465,39149.1205,5930.99,50406.754,44282.7791,55947.5273,300.4968,-798.2254,25847.4648
56410.566,27954.3847,53854.1079,42041.3017,36648.0947,39150.8192,5934.7898,50422.7132,44287.16,55952.847,309.661,-785.7531,25850.594
56407.3026,27947.0086,53857.0583,42034.4621,36632.8061,39147.6452,5933.3146,50410.8667,44275.5818,55951.0142,300.0945,-793.6656,25847.9118
56385.6661,27937.1738,53858.9358,42019.0394,36604.9111,39145.7677,5931.8393,50399.1991,44262.439,55941.7158,285.4764,-810.0718,25843.2627
56389.8236,27946.0251,53857.103,42018.6818,36607.2804,39142.549,5931.8393,50408.9445,44271.8267,55942.9675,287.4434,-805.2886,25845.5873
56411.013,27953.8929,53862.1098,42036.1608,36629.2745,39152.7861,5938.5896,50428.0329,44295.9219,55956.2892,309.2587,-787.4966,25856.7184
56417.0033,27956.9328,53867.7424,42042.4193,36644.9207,39158.9552,5942.3,50438.0018,44304.9073,55965.9898,321.9992,-776.5889,25865.4803
56402.564,27950.8978,53866.0437,42033.7915,36633.7895,39158.7317,5939.126,50424.1437,44292.7033,55963.7994,302.1061,-787.4519,25863.0216
56394.0704,27941.5995,53864.9708,42021.5875,36618.5457,39153.412,5937.3379,50404.8765,44280.7674,55957.7644,286.3705,-799.1642,25857.0313
56399.9712,27940.4819,53864.4344,42018.6371,36614.6117,39151.0427,5930.7665,50407.3352,44275.0454,55952.2659,288.6057,-797.1078,25852.2034
56409.7166,27937.8891,53862.2886,42033.8362,36638.4834,39155.5578,5926.6984,50428.7481,44284.5672,55949.8072,306.1742,-787.5413,25853.1421
56409.6719,27933.9999,53855.896,42039.0666,36643.0432,39149.4334,5922.5857,50433.3973,44286.5342,55945.8286,309.974,-787.3178,25847.286
56392.4611,27934.4916,53853.6161,42031.6905,36622.256,39138.7492,5922.3622,50418.6004,44276.4759,55938.4078,297.6805,-800.1924,25837.2724
56382.671,27926.8473,53850.3975,42021.6322,36598.6526,39139.8668,5918.6518,50391.2866,44266.5517,55930.227,278.6815,-814.0057,25832.1762
56385.1297,27931.0048,53848.5199,42018.95,36603.57,39139.9562,5918.473,50393.3877,44267.4905,55930.4953,276.8934,-812.9776,25829.047
56404.4416,27936.7268,53848.2964,42026.5049,36634.9071,39145.5442,5923.1669,50415.2477,44278.264,55936.2173,292.629,-798.3595,25833.2938
56411.013,27933.1505,53847.0447,42034.328,36643.1773,39147.6899,5924.5974,50426.5577,44277.3253,55938.9442,299.5133,-795.1856,25833.0703
56402.877,27932.1223,53852.0068,42029.3659,36628.738,39145.9912,5926.9667,50420.9697,44270.888,55939.7042,293.2101,-801.6229,25834.7243
56396.3503,27932.5247,53855.8513,42016.6254,36606.6098,39142.2808,5929.2018,50407.3352,44267.5799,55937.8266,283.8224,-803.5004,25836.736
56400.1054,27934.8046,53856.9689,42023.7333,36614.6564,39151.5791,5931.6605,50418.6898,44275.2689,55940.1065,291.2432,-798.3595,25842.5921
56411.5047,27938.1573,53855.5384,42028.6059,36634.1025,39155.513,5929.023,50432.1456,44291.8986,55943.9063,309.0352,-786.5131,25846.526
56412.98,27945.3993,53857.1924,42032.0928,36640.4057,39156.3624,5928.0396,50440.5499,44295.8325,55944.9345,312.835,-782.4898,25844.3803
56401.7594,27943.6111,53859.517,42026.9519,36628.5145,39155.3789,5929.5148,50435.7219,44290.3787,55948.1531,299.7816,-792.2351,25843.0392
56383.878,27936.0563,53859.8299,42020.5593,36601.3795,39149.031,5924.7315,50419.3157,44277.37,55941.8947,282.3919,-807.7472,25834.6349
56391.0753,27932.0776,53858.9805,42018.7265,36601.9607,39152.1603,5922.5857,50419.6286,44279.6052,55937.6031,280.3355,-806.0932,25836.0207
56406.2297,27933.1505,53858.1759,42025.879,36624.4018,39151.4897,5924.0609,50437.8229,44292.7033,55945.1133,293.2101,-793.3527,25838.3453
56410.6554,27937.8444,53854.4208,42031.1093,36634.5942,39145.4548,5922.1387,50452.1728,44289.3505,55947.2144,299.2004,-791.1623,25838.0324
56401.0888,27933.5976,53848.9223,42020.4252,36614.9694,39139.9562,5914.3156,50431.8327,44274.0172,55939.6148,282.9283,-800.997,25831.9527
56377.7536,27924.2992,53845.3907,42004.2425,36588.192,39129.9874,5906.0454,50411.1797,44262.5731,55927.0978,264.5552,-816.3303,25824.8448
56380.8829,27929.306,53846.0612,42017.0724,36593.0647,39138.0787,5910.0688,50420.6568,44272.2738,55930.4506,273.8535,-809.3119,25828.8234
56403.8157,27936.9056,53843.9155,42031.467,36611.3037,39145.8571,5911.4099,50440.7734,44292.1221,55938.5419,287.2646,-798.4936,25829.494
56407.6602,27939.0514,53844.8095,42030.8411,36619.4397,39144.2031,5908.3253,50446.1378,44292.6586,55938.6313,293.5678,-798.1807,25827.9294
56392.5952,27930.4236,53845.4354,42025.7896,36603.7935,39140.4927,5905.9113,50427.9882,44276.4759,55932.4175,280.425,-810.9659,25824.1743
56382.1793,27917.9513,53845.3907,42015.5525,36581.9335,39134.6365,5902.9162,50403.5354,44265.0765,55927.366,259.5931,-824.064,25817.0217
56384.8168,27917.549,53844.2731,42013.3621,36590.7401,39135.4412,5903.542,50411.1797,44264.093,55930.0929,258.6544,-820.5771,25815.323
56406.9003,27927.4285,53845.3013,42027.2648,36618.8139,39144.2031,5908.5935,50440.1028,44278.1746,55936.1726,282.3919,-809.1778,25823.1014
56415.6175,27934.134,53845.7483,42038.2172,36634.2366,39147.2429,5908.3253,50461.3817,44282.2874,55943.4593,289.5892,-803.6345,25823.012
56396.3056,27924.4334,53841.7697,42028.2483,36611.6166,39139.5092,5905.3302,50443.545,44267.6693,55932.6857,273.7194,-816.6879,25818.6758
56381.7322,27921.5276,53848.0282,42020.2017,36587.4767,39134.6812,5907.2524,50420.1651,44259.4886,55930.0035,260.8001,-829.339,25819.0781
56387.3649,27924.4781,53852.3644,42025.9237,36597.4456,39139.8668,5913.2874,50425.3507,44266.4623,55942.0735,266.7904,-821.963,25826.6777
56407.6155,27932.8823,53855.136,42037.9937,36629.8109,39148.5393,5918.2048,50454.7656,44280.8121,55945.918,283.9118,-807.5237,25829.6281
56413.874,27941.4207,53858.3994,42045.4592,36643.2667,39156.0942,5923.301,50467.4166,44289.5293,55951.1036,296.6523,-798.3148,25833.562
56410.9236,27940.9736,53859.2488,42037.8596,36626.3688,39157.48,5924.1951,50458.9677,44277.1465,55946.0074,290.215,-803.0981,25834.0538
56400.2842,27936.5033,53858.8017,42031.2881,36603.3912,39154.7978,5925.1338,50434.202,44274.7325,55941.7605,277.3851,-810.5636,25833.6514
56404.4416,27939.9455,53861.3945,42031.1093,36611.1696,39154.619,5927.4584,50427.2729,44288.8141,55945.3368,281.5425,-804.0816,25835.1266
56423.3959,27943.8794,53863.4062,42042.9558,36638.9751,39164.0961,5928.3078,50453.8715,44295.5196,55952.3553,297.8146,-791.5646,25838.1218
56424.6923,27944.1029,53861.1263,42047.0238,36647.0665,39161.0563,5923.6586,50468.8472,44292.4798,55949.8072,302.1061,-793.6656,25835.8866
56408.7331,27938.6491,53856.8348,42036.4738,36626.2794,39150.8192,5919.233,50450.7422,44279.6946,55943.6381,290.9303,-806.9426,25832.3103
56390.2706,27934.7599,53860.9475,42029.6788,36603.8829,39140.9844,5912.3933,50423.6519,44264.5848,55937.8713,275.2841,-820.3983,25826.3648
56396.4844,27938.5149,53857.6841,42032.7187,36608.7109,39141.9232,5913.1086,50419.8968,44267.3564,55939.2571,275.0158,-815.7939,25823.2355
56413.6952,27942.4936,53850.9339,42043.2687,36628.0675,39149.2099,5911.3204,50449.58,44286.3107,55946.9908,286.7728,-802.1593,25824.8895
56419.5514,27942.7618,53848.7881,42047.4708,36640.0033,39152.2497,5908.5488,50469.473,44296.7266,55946.6779,296.4735,-798.0913,25823.5484
56405.8274,27941.7336,53846.8212,42038.0384,36632.7167,39150.9086,5908.6382,50458.7442,44289.4846,55942.9675,285.8341,-810.5189,25822.6991
56381.5087,27935.6092,53841.9932,42024.4485,36608.3533,39144.7842,5902.3798,50435.6772,44262.886,55932.954,260.9342,-830.3672,25813.5349
56386.8731,27928.099,53844.3625,42028.5612,36615.6846,39149.1205,5904.8384,50442.785,44270.7092,55935.1444,267.0139,-822.4994,25815.4571
56396.9761,27935.6539,53841.1438,42037.2784,36637.4552,39154.0378,5907.6101,50470.0541,44285.953,55936.709,287.1305,-808.9542,25822.1626
56399.4795,27942.4489,53841.9038,42040.8994,36638.0364,39151.9815,5909.3982,50473.6304,44290.1552,55945.8286,289.9915,-802.7405,25825.2025
56388.4825,27937.3527,53844.3625,42034.8197,36613.2706,39143.5772,5905.9113,50453.7374,44280.0969,55939.436,275.9993,-813.067,25821.0003
56378.5136,27927.3838,53840.4733,42025.432,36589.3543,39139.3751,5902.0668,50421.4168,44272.2291,55926.5614,257.9838,-825.1816,25814.8313
56385.2191,27926.5791,53844.4966,42029.4106,36602.6759,39143.9348,5905.1514,50431.3856,44275.1348,55929.4671,267.0586,-821.3818,25820.4192
56406.1403,27935.9221,53850.3975,42047.1132,36635.0859,39153.2332,5912.1698,50460.8452,44290.6022,55939.436,293.5678,-802.0252,25830.2093
56422.5912,27941.5995,53853.5714,42052.9246,36642.9985,39158.3294,5915.6567,50480.5595,44296.4137,55942.297,296.2053,-794.3362,25831.8186
56411.2812,27939.8113,53854.3761,42047.0685,36629.2745,39154.1272,5916.6849,50462.9016,44288.1882,55936.3067,283.0625,-804.4839,25829.047
56392.1481,27943.1641,53855.2254,42037.2784,36604.9111,39153.5014,5914.405,50453.0668,44277.0123,55935.8597,272.423,-818.029,25827.3035
56396.7526,27945.9804,53856.7454,42033.2998,36603.2571,39154.3061,5911.5887,50454.542,44280.9016,55935.815,274.2112,-815.2127,25830.0751
56416.7351,27954.2506,53856.8348,42042.464,36620.9149,39161.0563,5911.7228,50481.0512,44293.5973,55941.8052,290.7515,-804.3945,25836.2442
56422.6806,27956.2622,53858.3547,42050.8236,36636.0247,39169.9076,5910.1582,50481.6771,44297.3971,55943.8616,295.043,-800.0135,25836.6466
56409.8507,27944.3264,53852.4091,42037.7702,36620.7361,39164.4537,5901.2622,50459.2359,44287.3836,55935.9938,279.5756,-812.9776,25830.6116
56389.6894,27933.4188,53849.4587,42025.2979,36595.9704,39153.9037,5897.4177,50435.6325,44260.6956,55924.2368,261.426,-826.0757,25825.6495
56389.9577,27935.1175,53844.4966,42020.5593,36597.8926,39152.7414,5896.7471,50441.3098,44254.9288,55919.1406,266.4775,-824.9581,25825.7836
56409.0461,27936.7268,53845.8377,42030.4835,36622.3902,39162.3974,5900.5916,50468.713,44279.9181,55929.4671,281.6319,-808.5072,25830.3881
56416.9139,27939.2749,53851.6492,42039.6477,36641.1209,39163.4703,5907.7442,50479.3972,44281.7062,55931.9258,290.3044,-800.0582,25834.9031
56400.8653,27936.3245,53854.6443,42035.982,36632.5378,39157.7035,5912.2145,50467.5061,44272.0503,55928.9753,287.1752,-803.411,25835.6631
56379.81,27929.7084,53861.0816,42030.9305,36615.0141,39156.2283,5918.6965,50450.8764,44257.9687,55934.608,275.7311,-811.3235,25837.2724
56382.0004,27928.3673,53861.7969,42032.4951,36618.5457,39157.4353,5923.301,50447.0319,44258.6392,55936.1279,282.1237,-807.6131,25839.0158
56405.4251,27938.5149,53858.7123,42041.4358,36643.0879,39161.101,5926.4749,50467.0143,44273.5702,55946.5885,301.2121,-790.8046,25843.8438
56406.3191,27945.5334,53856.6113,42045.0121,36652.8779,39157.0777,5931.9735,50471.887,44275.7607,55949.2707,308.7223,-785.3508,25843.0839
56389.913,27944.7287,53854.1079,42036.1608,36632.0014,39152.6073,5933.4934,50451.7257,44258.6839,55943.951,296.7864,-793.8892,25840.0887
56372.568,27942.9853,53859.2488,42019.2629,36615.5505,39147.8688,5934.8792,50424.5907,44239.1485,55937.6478,280.6932,-805.8697,25837.4512
56367.0695,27943.2982,53859.1594,42018.1006,36626.4135,39141.2079,5937.8743,50411.7161,44239.6849,55940.7771,282.0343,-802.4722,25837.6747
56384.2356,27957.0222,53858.3547,42030.4835,36652.7438,39150.3274,5945.161,50422.0873,44250.4138,55943.4593,301.6144,-790.894,25842.458
56396.3503,27973.786,53861.3498,42038.1725,36663.6068,39156.1836,5950.0337,50432.9503,44255.6888,55946.4544,315.2937,-782.758,25849.7447
56378.0665,27975.6635,53859.8746,42024.225,36645.9489,39150.7298,5951.5536,50409.7939,44241.8754,55939.9724,306.7106,-791.9669,25847.4648
56360.2746,27978.3458,53861.0816,42018.6371,36618.7692,39148.8075,5955.9792,50371.93,44222.0718,55933.3563,291.5561,-808.1049,25844.6932
56366.3989,27986.4371,53859.8299,42024.1356,36623.8207,39148.3605,5960.2261,50358.5637,44218.7637,55930.227,294.7748,-805.4227,25846.3472
56386.4708,27994.886,53859.1146,42030.8411,36648.1841,39152.6073,5960.3602,50368.3537,44227.8832,55937.2455,311.3598,-788.8377,25848.3142
56379.9441,27997.9259,53859.1594,42026.7284,36654.8449,39146.3488,5957.1415,50366.0291,44220.4177,55934.0715,307.7388,-787.4966,25847.0625
56365.9519,27996.0483,53858.4441,42021.0063,36641.1656,39142.9514,5954.9063,50340.2799,44210.1359,55930.3612,296.3841,-797.376,25844.4697
56348.0705,27987.2417,53855.5831,42019.6205,36618.4562,39144.2031,5953.9676,50314.6648,44192.791,55921.331,285.7894,-807.8367,25842.7709
56349.948,27981.8326,53852.1409,42025.5661,36623.463,39143.9795,5951.1513,50303.9807,44190.0641,55915.9666,289.4104,-806.8085,25842.5474
56372.7915,27986.303,53854.9125,42037.9937,36646.4853,39152.7861,5952.6265,50318.8223,44195.6967,55918.0677,311.4045,-791.5199,25845.8108
56375.0267,27987.8229,53850.6657,42041.0782,36653.5932,39156.4071,5950.3913,50314.039,44191.2264,55916.1454,313.0585,-789.2847,25841.9663
56356.9665,27985.8559,53849.1905,42035.1774,36637.0082,39154.1719,5947.7538,50290.0779,44175.0437,55909.887,299.0216,-800.0135,25838.39
56334.3912,27978.7034,53847.8941,42020.9169,36610.499,39150.7745,5948.022,50265.8933,44160.6492,55899.9628,287.3987,-812.8881,25837.4065
56339.9792,27969.6733,53849.7716,42024.9403,36615.5505,39149.7016,5952.0453,50263.2111,44176.6977,55904.3437,296.5182,-805.4674,25843.5756
56363.3144,27975.3059,53853.5714,42042.7322,36642.7302,39157.2565,5959.2873,50282.523,44191.2264,55914.0444,314.0867,-785.5743,25848.5377
56365.7731,27975.7977,53852.0515,42045.2356,36653.9061,39160.0281,5958.6167,50278.7232,44199.1389,55914.6255,319.9428,-784.2779,25846.8837
56343.466,27967.7063,53850.6657,42031.3776,36630.9732,39149.9251,5952.3135,50261.1548,44187.8289,55906.5789,306.9341,-798.4936,25841.251
56324.2435,27964.7559,53854.7784,42018.19,36605.4922,39141.5209,5948.8267,50240.8147,44171.1545,55902.4662,293.3443,-808.4178,25836.6019
56335.5535,27963.4595,53857.9971,42019.5311,36607.1463,39138.7939,5945.9209,50248.3696,44172.2274,55902.7344,294.4171,-805.3333,25837.5406
56365.7731,27967.6169,53859.0252,42035.4009,36635.8459,39145.7677,5951.7771,50262.8088,44184.2973,55904.9696,307.6047,-793.2186,25840.6252
56375.0267,27974.3671,53866.446,42041.0782,36644.6972,39153.3673,5960.1814,50268.0391,44197.0825,55919.3194,315.8301,-782.2216,25849.387
56368.947,27970.9697,53868.5471,42038.7536,36630.5709,39154.8872,5958.3038,50256.8632,44194.445,55913.8209,310.421,-792.1457,25847.4648
56356.0277,27965.7841,53865.6414,42029.9023,36606.4757,39151.5791,5954.2358,50234.9138,44183.0009,55898.9793,297.5017,-808.9542,25840.8934
56360.051,27965.5606,53861.171,42028.6953,36611.3037,39150.4616,5952.6265,50235.0032,44181.481,55897.5488,297.8593,-809.2672,25841.251
56377.0831,27962.6548,53861.0369,42033.4786,36630.9732,39155.4683,5956.2027,50253.9575,44191.8075,55903.3155,312.8797,-797.2419,25844.5591
56397.8702,27968.8686,53862.6462,42039.9606,36634.326,39156.72,5955.711,50263.2111,44198.513,55911.541,320.3452,-787.4966,25846.6154
56389.8683,27962.4313,53862.0651,42029.8129,36620.155,39153.1438,5956.6945,50248.0119,44187.6948,55911.4516,313.5502,-792.4587,25847.5095
56373.9091,27952.0154,53859.9193,42013.2726,36596.9986,39144.4266,5953.7441,50225.1685,44182.4645,55905.1931,303.492,-805.4227,25847.3307
56380.1229,27950.272,53859.1146,42011.8421,36603.7041,39139.6433,5952.0453,50220.5193,44185.9514,55908.4117,303.8943,-801.6229,25847.733
56390.9858,27953.6694,53857.4606,42024.3144,36631.5097,39148.8522,5950.6595,50248.5037,44200.1671,55915.2961,316.9924,-789.1059,25852.1587
56385.5767,27959.9726,53850.4422,42019.9335,36634.4154,39147.7793,5946.0998,50262.9876,44203.2069,55914.7596,316.2324,-787.0495,25848.3589
56385.532,27963.7724,53854.1079,42023.2415,36631.1073,39150.3721,5951.8665,50261.87,44200.7482,55919.0959,310.868,-790.9387,25849.1635
56374.5797,27957.7821,53855.3596,42008.8023,36603.7935,39151.7133,5951.7771,50244.6145,44187.203,55912.7927,299.2898,-802.1146,25845.0508
56378.0665,27951.3001,53849.5034,42011.1716,36599.8149,39147.9135,5950.883,50247.7884,44187.2925,55905.9083,301.9273,-799.6112,25842.905
56397.1102,27959.6597,53857.4606,42028.4271,36626.2347,39155.513,5956.6945,50273.0012,44198.2448,55922.3145,317.4841,-784.7697,25851.2646
56396.6632,27959.7044,53860.5005,42026.0131,36638.1258,39156.6306,5959.332,50289.005,44209.7783,55927.366,320.0322,-781.8192,25856.0479
56378.5136,27954.5635,53860.0534,42018.2347,36625.1618,39146.3041,5958.9744,50272.9118,44201.9105,55924.7732,308.3199,-790.6258,25856.4502
56361.4815,27949.6461,53857.3265,42015.776,36609.4261,39144.1584,5956.471,50251.1412,44186.756,55915.2067,295.3112,-801.1311,25852.2481
56370.6905,27953.0883,53862.1992,42019.7546,36607.9509,39157.4353,5957.1862,50255.3433,44190.7793,55916.4137,306.1742,-795.7667,25855.9585
56407.5708,27961.1349,53868.2342,42031.0646,36627.9334,39169.0135,5960.7625,50280.3773,44209.5101,55925.5332,323.7873,-780.8357,25863.8263
56416.1092,27968.1087,53868.86,42034.9538,36635.8459,39171.5616,5962.193,50296.0682,44212.9076,55923.745,323.5638,-776.6336,25865.078
56401.4912,27967.8851,53872.3022,42034.5515,36634.2366,39166.2419,5963.5341,50292.7601,44206.5597,55921.1075,316.6795,-789.24,25861.6358
56376.189,27962.8336,53867.4295,42024.3144,36618.5009,39157.9717,5960.0025,50277.1586,44194.6685,55918.2912,296.9205,-804.3945,25847.9565
56364.2979,27959.2574,53859.6064,42018.2794,36617.3387,39151.2662,5953.3417,50277.6057,44203.2069,55919.1406,294.283,-803.5898,25840.4911
56383.3863,27967.5722,53852.6326,42026.7731,36630.3027,39151.6685,5946.5915,50290.3461,44205.308,55917.1736,302.8214,-798.4936,25835.976
56385.2638,27965.6947,53852.1856,42027.3542,36629.8556,39149.6122,5942.3894,50295.7553,44205.3974,55916.2349,304.0731,-796.4373,25832.9362
56380.0782,27959.2574,53848.5646,42022.7498,36613.673,39143.3984,5932.3311,50287.3063,44201.4188,55908.1435,286.594,-807.7472,25826.5883
56366.6672,27955.994,53843.6025,42012.2445,36594.7634,39139.3751,5927.4137,50270.1849,44188.8571,55895.0901,270.4561,-826.478,25820.6874
56368.0083,27954.8764,53842.8426,42012.9597,36596.5515,39143.3984,5928.7548,50269.0673,44188.2759,55892.9443,279.1286,-824.064,25823.012
56400.7312,27966.0076,53846.9553,42024.225,36620.0209,39160.0281,5937.7849,50307.11,44206.9173,55902.645,303.492,-799.7006,25833.6961
56417.495,27977.2729,53847.9835,42037.4125,36631.4203,39171.3381,5942.3894,50323.5161,44220.8648,55912.9268,311.6727,-790.0894,25842.905
56411.2812,27976.6917,53846.3742,42034.7303,36623.0607,39170.0417,5940.5565,50312.8767,44217.3332,55914.0891,301.2568,-798.4042,25842.3239
56395.0539,27966.1417,53850.5316,42025.6108,36602.81,39161.9503,5941.4506,50300.3597,44207.2302,55912.2562,288.6951,-805.378,25840.8487
56399.0772,27965.7841,53857.3712,42029.8129,36611.4378,39161.4139,5943.1493,50307.8252,44218.1379,55913.9997,295.5794,-801.8464,25844.3356
56419.8643,27974.5907,53861.5733,42046.2191,36637.4105,39171.1593,5948.2902,50340.5929,44239.5061,55928.8859,319.4511,-785.1273,25852.1587
56423.6194,27976.6917,53865.0602,42056.1433,36648.497,39172.8133,5950.1231,50349.5783,44245.407,55937.8266,327.0954,-777.7065,25858.1936
56404.7545,27967.8851,53865.5519,42041.0782,36635.98,39163.8279,5946.368,50330.1322,44236.2875,55934.3845,312.5668,-792.5481,25854.6621
56375.742,27953.8035,53859.3829,42022.4369,36609.7391,39148.8075,5939.0366,50301.0303,44220.686,55924.7285,291.4667,-813.4246,25843.665
56376.5466,27956.1728,53856.656,42021.8557,36609.3814,39143.5772,5937.8743,50302.3267,44222.2953,55925.3544,291.5114,-813.6928,25843.9332
56392.7293,27959.5256,53852.0515,42025.1191,36629.4086,39139.8668,5937.4273,50324.1867,44232.7112,55928.7965,303.939,-803.6345,25842.5474
56388.7507,27952.9095,53849.1458,42022.4369,36631.9567,39134.4577,5935.1027,50320.9233,44238.3885,55930.4506,308.7223,-803.1428,25839.2394
56369.6623,27942.7618,53845.4801,42011.261,36612.1978,39121.7619,5932.0182,50299.1527,44218.9425,55929.1095,291.4667,-817.0456,25830.3881
56344.7177,27930.4236,53840.1157,41995.5254,36586.3144,39108.7979,5925.9832,50279.4832,44202.7599,55917.9336,270.4561,-828.9814,25821.9391
56351.915,27930.5577,53842.8426,41999.504,36599.4126,39115.3246,5929.8277,50286.904,44213.7569,55923.0745,279.218,-818.5655,25824.5766
56377.7536,27938.5597,53840.2051,42013.0938,36626.1899,39124.31,5935.4603,50311.4462,44235.6169,55928.3048,297.9487,-800.2371,25831.3268
56389.8683,27944.4605,53845.8377,42021.0958,36642.462,39133.3401,5940.4224,50328.97,44245.1835,55931.434,303.179,-792.7716,25837.5406
56370.2434,27946.7851,53846.6424,42015.3737,36629.9897,39127.5287,5941.7188,50322.6221,44234.6781,55932.3728,294.7301,-801.1311,25840.8487
56354.2843,27942.8065,53848.2964,42005.4495,36606.8333,39124.3547,5944.5351,50305.4559,44219.3002,55926.4272,286.1917,-812.3517,25840.6699
56357.8606,27939.2749,53851.7833,42008.9364,36612.1978,39132.1331,5952.9841,50317.9729,44230.2972,55928.9306,296.6076,-802.9193,25848.1801
56385.2638,27943.4323,53853.3479,42018.4135,36642.6408,39140.0456,5953.6546,50346.0467,44251.9784,55940.5982,310.6445,-785.4402,25854.0362
56393.0422,27951.5684,53854.1526,42022.7051,36647.6029,39143.1749,5951.5089,50359.1895,44259.9356,55945.8286,315.3384,-784.5908,25855.4667
56369.1258,27944.1923,53849.1011,42008.8917,36622.4349,39134.8153,5947.3068,50337.0613,44245.9881,55937.4243,303.0896,-796.8843,25848.6271
56344.3601,27936.0563,53847.3576,41997.7158,36603.1229,39124.7571,5946.368,50306.2159,44232.5771,55926.3378,285.6106,-813.7375,25840.9381
56343.3319,27933.687,53846.6424,42000.2192,36607.3698,39125.9193,5940.8695,50310.2392,44224.9775,55924.8179,285.1635,-810.4742,25840.8934
56363.0462,27936.2798,53845.033,42014.9267,36632.2249,39136.5141,5938.5896,50331.2051,44234.3652,55928.126,300.8544,-797.9125,25845.5873
56366.2648,27936.6821,53837.7017,42015.9101,36637.187,39136.6482,5935.1921,50341.4422,44235.8851,55923.6109,300.765,-797.1525,25842.9497
56356.1618,27931.5859,53836.8076,42012.2445,36620.7808,39131.7755,5933.0463,50325.349,44226.4527,55918.5594,291.2879,-806.9426,25837.8536
56342.6614,27926.9367,53842.3955,42008.3106,36597.1327,39130.8814,5937.1144,50299.3762,44208.7501,55913.1503,282.7495,-816.2409,25833.8749
56346.0141,27935.5198,53845.793,42012.8703,36606.0287,39138.8834,5942.8364,50306.0818,44217.6908,55915.0726,294.283,-804.9309,25839.6864
56371.6739,27938.962,53849.6375,42025.7896,36642.4173,39145.1865,5946.0551,50330.4452,44234.3205,55923.5215,315.0254,-783.965,25846.4813
56381.9557,27939.6325,53850.9786,42036.9655,36660.9246,39156.72,5951.643,50340.8164,44243.9765,55927.4554,329.1965,-777.5277,25852.1587
56365.9072,27931.4965,53847.3576,42031.9587,36637.9023,39154.0378,5948.2902,50329.5511,44229.3584,55921.1969,314.936,-789.2847,25847.8224
56342.6614,27923.5393,53846.5083,42013.0491,36605.6263,39143.6219,5942.0317,50306.0818,44211.7006,55911.7645,291.6902,-805.2886,25840.2228
56337.6099,27924.3886,53849.7716,42010.9481,36608.4874,39143.8454,5943.3728,50305.6794,44218.6743,55911.0045,291.3326,-802.5169,25840.4464
56354.8207,27926.892,53848.8328,42016.536,36627.084,39147.6005,5940.2436,50327.5841,44233.7841,55923.0298,303.5814,-794.9173,25844.112
56364.0296,27924.9251,53842.932,42016.4913,36633.6107,39142.9514,5935.9074,50337.1507,44227.3468,55926.159,306.04,-799.1642,25839.9546
56349.5904,27913.481,53834.5277,42000.8451,36610.4096,39127.0816,5928.5313,50312.2509,44214.5616,55917.0395,290.3938,-813.7375,25830.8351
56322.0978,27897.343,53825.6317,41982.919,36583.3193,39114.7435,5919.4565,50274.1635,44199.9882,55903.7179,265.941,-829.4731,25823.8167
56325.1823,27888.8047,53820.8038,41977.2863,36580.6818,39111.4354,5916.2378,50266.0722,44195.6967,55898.8005,264.1976,-828.2214,25823.8167
56354.3737,27895.242,53821.0273,41991.502,36610.5437,39117.9174,5919.3671,50296.2917,44214.6063,55912.3009,287.4434,-811.547,25830.2987
56347.2211,27890.7269,53816.6016,41991.9491,36608.1744,39113.7153,5914.852,50304.8748,44217.9143,55912.8374,290.6621,-806.8979,25827.1247
56332.6031,27885.4966,53815.1711,41984.6624,36589.1755,39111.8824,5915.2991,50287.5745,44208.4819,55907.5624,281.1402,-817.0456,25825.1578
56317.2698,27883.3956,53813.1148,41976.7499,36576.0773,39111.4354,5914.0474,50270.6766,44192.1204,55902.8238,270.8584,-824.5111,25821.358
56324.2435,27888.447,53812.3548,41986.3611,36586.3591,39114.2517,5917.8025,50278.0527,44200.7035,55906.3107,284.8059,-811.86,25828.734
56347.5341,27891.4422,53815.1264,41999.1463,36616.2211,39119.8397,5921.9152,50309.211,44216.8862,55912.4351,305.9506,-796.5267,25834.6349
56358.5758,27887.8212,53817.2722,42001.8286,36631.2861,39122.0748,5922.8092,50320.8339,44220.1495,55914.6255,307.6047,-794.6044,25830.5669
56345.4777,27883.6191,53817.898,41993.8266,36615.9976,39114.2964,5918.473,50301.4326,44205.4421,55913.1503,289.6339,-809.0883,25827.2141
56323.3048,27877.003,53812.6677,41978.9404,36591.053,39102.003,5914.6732,50278.5891,44185.7725,55907.92,269.1597,-827.1933,25817.737
56321.5613,27875.6618,53808.9573,41971.0279,36589.8907,39100.9748,5910.5605,50276.801,44191.4499,55904.0755,269.2491,-829.4284,25817.6923
56334.8383,27879.1487,53810.8349,41978.9404,36611.7507,39104.3276,5909.0406,50295.2635,44209.7783,55905.6848,286.4599,-817.4479,25821.7603
56336.4029,27877.8523,53813.5618,41980.5497,36612.4213,39103.1206,5908.6382,50306.6629,44212.6393,55914.7596,287.8904,-816.2856,25825.8283
56317.2698,27864.3519,53805.0681,41967.6751,36583.4087,39090.5142,5901.888,50292.0449,44196.099,55908.2329,270.9478,-831.753,25815.9041
56298.4496,27856.3499,53799.4802,41959.2708,36557.3466,39084.4792,5894.3778,50263.8817,44185.9066,55894.3748,252.6194,-844.27,25805.6223
56300.3719,27854.9194,53800.6872,41960.5225,36559.2688,39087.519,5895.1378,50269.6484,44191.7628,55897.0571,257.3133,-839.3973,25806.3376
56317.4039,27871.4597,53802.6094,41975.2747,36584.0346,39093.8222,5899.474,50301.4326,44211.7006,55906.8471,276.7146,-822.0524,25815.0995
56329.4739,27877.003,53803.0565,41982.3825,36597.8032,39098.9184,5900.9939,50311.0439,44220.1495,55907.3389,282.8389,-817.6267,25820.3298
56318.7897,27865.2459,53802.6989,41978.1804,36589.6225,39097.7561,5898.267,50290.7038,44208.9289,55902.7791,274.5241,-822.9464,25818.0946
56296.0356,27860.5074,53803.1459,41967.988,36562.8898,39098.4714,5897.2389,50272.3753,44190.5558,55896.8335,265.2705,-833.0941,25817.1111
56305.1552,27863.7707,53808.1974,41978.091,36569.193,39109.3791,5903.0503,50280.1985,44200.7482,55905.1931,275.0158,-826.1651,25820.3298
56330.5467,27871.0127,53809.8514,41993.916,36599.3232,39117.9621,5908.5041,50308.8534,44218.3614,55912.8374,290.9303,-811.0106,25824.5766
56341.0074,27871.415,53808.1974,41997.9841,36612.2425,39120.1079,5908.1465,50325.2149,44224.3069,55914.5808,292.9866,-807.3449,25823.8167
56322.0531,27870.6998,53807.9292,41996.9559,36592.8859,39118.7668,5906.9395,50321.5045,44214.6957,55910.4681,284.0012,-822.0524,25819.9275
56305.781,27865.8718,53804.2635,41988.0152,36570.6235,39109.7367,5902.4692,50303.2207,44207.0961,55901.6168,268.802,-837.6986,25813.0431
56298.852,27865.4248,53799.2567,41982.3378,36571.2941,39104.9534,5901.0386,50299.868,44203.5198,55899.5605,266.9245,-839.4867,25812.8196
56313.5594,27869.9845,53794.2499,41988.6857,36596.8645,39108.0827,5901.3069,50324.6784,44219.6131,55906.1319,282.079,-827.0591,25816.3512
56321.606,27870.6551,53792.7747,42000.1745,36603.57,39106.1157,5897.9988,50333.8873,44229.2243,55907.5624,285.4317,-824.1981,25813.4007
56315.3923,27865.2012,53790.2713,41994.6313,36583.811,39102.0477,5889.371,50315.693,44210.8512,55899.2028,268.8468,-833.407,25809.2433
56300.8636,27858.0934,53794.0711,41987.2105,36569.193,39099.6337,5889.4604,50293.2072,44202.3575,55898.3088,255.9721,-840.9619,25806.4717
56303.4117,27862.4743,53800.6872,41989.3563,36581.9782,39104.104,5893.4391,50309.6581,44210.0912,55909.2611,261.2025,-838.0115,25807.8128
56317.8509,27873.1138,53802.3859,42003.7955,36602.0948,39109.5579,5896.9706,50337.2401,44223.994,55916.4584,277.251,-822.41,25812.5514
56330.5467,27882.9485,53805.9622,42014.5243,36605.671,39115.5034,5903.542,50354.6298,44230.1631,55918.6488,286.9517,-815.4362,25818.4969
56324.1094,27886.0778,53810.1643,42008.6235,36597.7585,39115.5034,5903.4079,50337.0166,44223.8599,55917.3971,277.0722,-821.2477,25816.977
56314.5876,27882.1886,53806.8563,41997.9393,36581.71,39112.3742,5898.3117,50316.0954,44214.651,55912.3904,264.3764,-834.3458,25811.3444
56327.194,27893.6774,53812.176,42006.6118,36586.8062,39127.3052,5908.7276,50332.0545,44229.1349,55919.0512,271.4396,-820.8901,25820.1063
56352.4961,27905.0767,53818.5239,42019.1288,36622.7031,39142.0573,5917.4895,50368.0408,44251.7549,55931.2552,290.6173,-802.3381,25826.4989
56364.7449,27909.1895,53818.8815,42020.7381,36633.4319,39140.8056,5918.6518,50388.1574,44261.2767,55931.1211,294.9983,-800.2371,25822.6544
56356.5195,27910.0835,53824.38,42015.6866,36617.6963,39135.9329,5916.5061,50373.4946,44252.6042,55923.7003,286.7728,-808.3284,25819.6592
56345.1201,27908.653,53828.8504,42008.0423,36594.1375,39135.62,5916.4613,50349.4442,44235.0358,55919.0512,272.1995,-818.6549,25820.5533
56348.1152,27912.4975,53828.1798,42006.2542,36595.881,39133.2507,5917.0872,50354.9427,44239.1485,55922.1804,272.5124,-815.0786,25821.9391
56368.3212,27921.3935,53831.3538,42016.8489,36629.9897,39137.8999,5920.8423,50384.894,44258.8627,55931.3446,289.768,-796.7055,25827.3482
56368.8576,27923.9863,53832.2479,42026.0131,36641.7021,39138.2128,5921.5575,50399.1991,44262.3943,55936.4855,292.8972,-791.654,25828.1976
56359.8275,27922.2876,53831.5326,42020.8275,36624.6253,39134.3236,5918.2495,50382.033,44248.7597,55928.126,282.6601,-802.4722,25826.9459
56342.7061,27916.4761,53828.9398,42006.7906,36593.6458,39131.9543,5913.8685,50355.4344,44231.3254,55920.2135,269.7408,-819.5043,25821.805
56353.3455,27926.1321,53836.3606,42010.8587,36602.2736,39135.9776,5920.6635,50367.5491,44251.7996,55938.8995,280.5591,-808.0602,25830.2093
56383.0733,27938.3808,53844.4072,42034.2833,36636.8741,39144.516,5930.9453,50403.9377,44275.7159,55952.6235,305.6824,-784.6355,25842.905
56399.5242,27946.1592,53851.5598,42045.325,36654.4425,39151.1321,5935.8627,50430.7151,44282.0638,55954.9928,317.3053,-776.8124,25846.526
56390.4941,27942.3147,53852.275,42040.7206,36639.6904,39149.1205,5934.5216,50408.8104,44277.4594,55945.0239,307.247,-788.2565,25843.9332
56366.3542,27932.7482,53848.3858,42022.3475,36609.5155,39140.2692,5926.922,50389.8114,44271.2456,55935.4126,288.5163,-802.3828,25839.3288
56372.121,27937.7103,53848.207,42027.7566,36619.9315,39150.5957,5928.576,50398.1709,44274.1066,55937.916,293.3443,-795.1409,25842.2345
56391.7011,27942.0912,53841.278,42037.3231,36643.5796,39155.3342,5932.2417,50422.5791,44283.3602,55937.9607,301.8379,-789.7764,25841.9663
56383.5204,27933.5082,53830.5938,42035.4009,36648.8546,39145.6783,5920.9317,50426.1553,44271.335,55935.2785,294.9536,-799.79,25831.148
56357.637,27921.8405,53826.9281,42028.0248,36622.5243,39139.0175,5910.4264,50408.1845,44255.1523,55926.2484,283.0178,-815.3468,25819.9722
56320.8461,27901.1428,53817.8533,42004.2425,36582.5593,39119.8844,5898.267,50370.723,44230.0737,55908.9482,258.9673,-837.028,25802.5825
56317.8062,27899.4888,53808.9126,42001.3368,36580.3689,39115.4587,5889.1922,50364.688,44225.3351,55903.2261,253.4688,-842.6607,25798.291
56346.9976,27911.6035,53810.8349,42015.2843,36609.6497,39122.9689,5889.684,50393.6112,44244.3788,55915.9666,272.4677,-828.2214,25803.6554
56358.3076,27914.8221,53816.0205,42017.3854,36617.9198,39124.5335,5890.0863,50409.615,44246.7481,55917.9336,280.5144,-825.9863,25804.3706
56350.3951,27914.7774,53822.9048,42013.0938,36606.8333,39127.2157,5895.8977,50407.1563,44237.3157,55920.5711,275.8205,-830.9484,25806.3376
56335.0171,27911.2458,53825.8106,42005.8966,36585.8227,39126.0087,5900.7704,50390.169,44233.7841,55916.2796,258.5649,-836.4469,25809.3774
56337.4758,27912.5422,53828.4034,42013.2279,36594.0034,39132.9825,5903.8103,50388.1574,44248.1339,55914.7596,263.6164,-823.8852,25815.5018
56365.5496,27921.0359,53832.4267,42026.9519,36625.0724,39146.5724,5914.8967,50417.6617,44269.9492,55932.0152,285.387,-800.3265,25825.3813
56375.4737,27930.2448,53839.6686,42035.0879,36640.5398,39148.6734,5922.6751,50437.7782,44276.9229,55944.3086,293.3443,-793.4868,25829.8516
56363.9849,27929.8425,53842.8426,42031.7352,36623.7313,39140.4927,5922.094,50417.8405,44268.8763,55940.7771,282.1237,-803.7686,25827.1247
56346.2824,27920.41,53842.2167,42019.6652,36597.6691,39136.9164,5918.8306,50398.4392,44252.9172,55933.4904,262.0518,-818.0737,25819.7933
56353.6137,27921.3041,53844.2284,42019.2629,36601.1113,39140.0903,5921.6917,50410.7773,44258.5945,55939.9724,271.4843,-811.5023,25826.2753
56382.6263,27934.581,53845.9271,42042.3299,36634.1919,39156.9436,5931.7052,50437.1971,44279.7393,55944.5322,297.3229,-791.4305,25834.1879
56392.1034,27940.2584,53846.7318,42052.4776,36645.323,39164.1855,5933.3146,50450.2952,44291.3622,55949.8966,305.593,-781.104,25834.8584
56378.8265,27941.6889,53847.3576,42039.2007,36627.9334,39160.4304,5932.9569,50440.5499,44280.1416,55947.0356,291.422,-794.2468,25832.9362
56354.9995,27934.134,53843.5578,42018.5924,36599.2785,39148.584,5930.0512,50414.3983,44253.0513,55935.7703,268.3997,-815.3468,25826.2753
56380.9723,27936.5927,53844.1837,42035.0432,36618.7245,39159.134,5937.2485,50420.8356,44262.0814,55938.8548,281.9002,-802.6063,25829.8963
56403.2793,27939.9902,53847.5364,42046.9791,36648.9887,39163.1126,5940.4224,50446.0931,44287.7859,55946.9014,302.9555,-785.9319,25837.8088
56408.6437,27946.4275,53850.4422,42048.2308,36655.0237,39162.7103,5939.3048,50455.6149,44292.5692,55952.5788,309.1693,-783.3391,25842.7262
56402.5193,27943.2535,53849.7716,42040.1841,36634.7283,39161.101,5936.9802,50440.7734,44278.8899,55949.0025,296.5182,-794.6938,25837.6747
56371.1375,27933.3293,53843.6025,42020.1123,36607.1016,39148.4499,5931.0794,50410.8667,44263.646,55940.9559,275.6417,-812.2623,25828.734
56370.1093,27937.6209,53847.4023,42024.4485,36614.4776,39151.4897,5935.7285,50412.789,44270.6645,55946.0521,279.4415,-804.3051,25833.1597
56391.0306,27943.9241,53852.2303,42036.5185,36637.7234,39158.7317,5938.2319,50442.6509,44287.8753,55958.3902,297.0994,-787.1389,25840.5358
56393.8469,27944.0582,53854.7337,42036.2949,36649.4805,39159.7152,5933.8957,50457.0901,44297.4865,55955.4845,301.5697,-783.0262,25839.2394
56379.8994,27933.1058,53854.9572,42029.5,36630.2133,39155.066,5929.9618,50429.4187,44286.7577,55955.4845,290.0809,-793.7998,25836.1995
56362.2415,27923.2711,53852.9009,42023.1521,36603.1229,39148.4052,5926.2514,50406.3964,44270.2621,55952.3553,275.2393,-808.3284,25831.5504
56363.0909,27922.824,53849.0564,42026.4602,36606.3863,39148.0476,5925.3573,50418.1534,44272.2291,55949.0025,277.8769,-806.9426,25830.2987
56384.9062,27930.3342,53846.6424,42041.9276,36636.1141,39158.3741,5925.7597,50451.4575,44288.367,55953.9646,295.6241,-792.6375,25832.2656
56394.4727,27932.8823,53844.586,42047.5602,36650.7769,39159.9834,5927.1455,50476.1338,44293.195,55954.6351,300.3627,-788.9271,25830.0304
56382.9839,27922.4217,53842.172,42041.4358,36636.4717,39153.5908,5924.2845,50458.6995,44286.8471,55946.7673,286.7728,-801.0417,25823.3249
56358.7993,27911.7823,53839.4898,42032.5845,36610.052,39143.6666,5920.2611,50427.4964,44268.6528,55934.9656,270.3667,-819.7278,25815.9935
56366.6224,27916.2526,53840.7862,42032.8975,36609.7391,39143.1302,5921.9599,50425.6189,44271.4691,55936.6643,274.8817,-816.7773,25820.6427
56390.7176,27921.3488,53842.7085,42043.4922,36632.3143,39147.6899,5922.8092,50445.3778,44280.2757,55947.8849,286.5493,-798.8065,25827.9741
56396.5291,27922.2876,53846.8212,42049.3931,36640.7186,39149.791,5921.9599,50455.8384,44284.7013,55947.6614,291.3773,-795.7667,25830.9692
56383.3416,27919.203,53852.4091,42044.8333,36622.7925,39148.5393,5922.094,50439.2982,44282.645,55948.4214,286.2811,-805.5568,25832.355
56364.432,27915.2244,53853.5267,42031.6905,36606.6992,39146.7512,5922.0046,50420.0757,44264.2272,55939.3913,268.8468,-814.8104,25831.0586
56372.7915,27920.3653,53855.2701,42040.1394,36616.6234,39156.1836,5926.8326,50428.4352,44276.0289,55939.436,279.0838,-801.5782,25832.4891
56393.9363,27931.9882,53854.9125,42047.9178,36637.947,39164.2302,5928.0396,50452.5304,44301.331,55943.9957,299.6922,-785.0826,25836.736
56404.531,27944.7734,53856.8348,42057.2609,36652.1627,39169.9076,5930.23,50466.5226,44304.1027,55943.2358,310.0634,-781.1934,25838.9711
56391.567,27939.9902,53854.5102,42051.7176,36636.2035,39168.2088,5924.7315,50463.438,44286.1319,55935.0103,295.8477,-795.0962,25831.1927
56373.8197,27933.3293,53850.1292,42035.7138,36601.1113,39157.5247,5917.9366,50440.2816,44264.5401,55931.747,273.63,-814.8998,25824.2637
56370.0199,27936.101,53844.4072,42030.6176,36598.4738,39159.2681,5915.5226,50436.8842,44264.5401,55928.5283,276.4463,-813.3799,25821.5368
56396.0373,27944.2817,53844.8095,42041.2123,36626.7264,39169.9523,5917.6236,50457.3584,44285.2378,55935.815,293.7019,-800.0582,25829.6728
56402.9664,27942.4489,53848.1623,42047.6049,36638.7516,39177.8648,5914.7626,50466.3885,44289.9764,55944.6663,300.4521,-796.4373,25834.2326
56386.1132,27933.7764,53844.9436,42035.7585,36614.7459,39171.8298,5912.7063,50453.8268,44280.0969,55939.1677,288.7845,-807.7025,25829.4046
56364.5214,27928.099,53842.3955,42026.0578,36597.5797,39160.4304,5913.1086,50433.5761,44264.3613,55934.0268,272.8254,-816.1515,25829.4493
56373.2386,27928.6802,53849.2352,42030.8411,36604.8217,39158.5976,5923.2116,50436.1689,44265.4341,55938.0502,282.6601,-802.2934,25839.1947
56392.0587,27936.3692,53850.7551,42044.1628,36639.3775,39166.0184,5929.8277,50469.92,44276.2524,55947.8849,302.2403,-786.2449,25846.4366
56394.0257,27944.1923,53854.5549,42052.2541,36659.807,39169.5052,5933.4487,50477.922,44285.6848,55955.5292,310.3763,-776.4548,25851.0411
56367.1142,27937.8444,53855.3596,42041.5699,36638.2152,39162.755,5937.025,50446.6742,44277.0123,55955.3951,300.5415,-786.6025,25847.8671
56341.4991,27931.7647,53854.242,42025.9237,36619.2609,39155.0213,5938.5449,50410.5538,44253.8559,55948.1084,280.4697,-801.4441,25842.458
56345.433,27933.5529,53854.242,42024.3144,36625.6088,39153.4567,5942.1659,50412.1631,44247.9998,55945.8286,284.8059,-802.5169,25842.7709
56362.6438,27942.4042,53851.828,42031.3776,36658.6894,39153.6355,5944.5798,50434.1573,44259.2651,55949.3601,301.5697,-790.4023,25845.0955
56371.0034,27953.8482,53853.9737,42038.2172,36673.4415,39154.0378,5948.6479,50445.2437,44255.1076,55954.2775,313.6843,-780.344,25847.3307
56355.4019,27954.8764,53856.3877,42029.5894,36653.8167,39148.137,5950.1231,50418.6898,44239.2826,55947.6614,307.6941,-789.2847,25846.6154
56331.6643,27948.7967,53853.1244,42007.8188,36624.8935,39141.4762,5947.2173,50380.2896,44216.4838,55934.3845,286.6387,-805.9591,25838.5241
56329.6974,27952.9989,53857.103,42007.5953,36630.7497,39141.4315,5949.2737,50368.6666,44223.0105,55945.2474,287.4434,-802.3828,25838.0771
56347.1317,27961.4925,53857.3265,42021.5428,36657.3036,39136.5141,5952.3135,50377.4285,44229.8949,55948.2425,300.6756,-792.101,25839.4629
56354.776,27965.3817,53855.3149,42026.9966,36665.2161,39134.9494,5952.1794,50372.8688,44232.5771,55951.4165,305.146,-792.5928,25843.3074
56339.1745,27966.3652,53850.7551,42018.3688,36645.2783,39131.552,5949.7207,50355.3003,44216.7968,55945.2474,292.2714,-803.2322,25838.7029
56316.2416,27962.476,53851.828,42001.5156,36617.1598,39125.6511,5947.3962,50329.5958,44197.1719,55935.5021,273.9429,-814.0057,25831.461
56320.6226,27965.2029,53855.7172,42003.2591,36622.8819,39132.7143,5950.9724,50327.003,44197.7084,55935.3679,280.3355,-808.0155,25834.6349
56341.7226,27975.1271,53856.0301,42014.0326,36642.5961,39144.0243,5954.9063,50351.9922,44210.8959,55937.6031,296.9652,-790.1788,25838.3006
56348.6964,27981.2962,53860.5005,42027.2201,36654.8896,39150.9086,5958.885,50354.4062,44216.5732,55939.1677,304.6095,-785.6637,25841.1169
56330.6808,27973.4731,53855.6725,42014.2561,36634.326,39138.7939,5955.0405,50328.5229,44206.202,55931.434,290.3938,-802.2934,25834.4114
56311.2348,27965.1582,53853.929,42008.0423,36622.3454,39137.8105,5957.8121,50305.6347,44192.9251,55921.9569,275.4182,-812.6199,25828.3764
56312.6653,27970.2097,53857.55,42016.536,36626.0558,39146.8853,5959.332,50298.0351,44194.8026,55920.7499,285.2529,-808.1943,25831.1033
56340.7391,27974.5907,53858.6229,42028.8295,36649.1675,39157.9717,5966.6634,50325.4384,44209.0183,55933.3116,309.2587,-798.6277,25838.1665
56340.8732,27971.2379,53859.1146,42030.4835,36653.1909,39155.9154,5966.1269,50337.1954,44213.444,55935.815,315.9195,-789.7764,25841.5639
56327.7304,27965.8288,53857.2371,42026.9072,36632.7167,39153.0991,5964.2941,50313.5026,44195.6967,55927.8578,304.2966,-795.0068,25839.2394
56321.2037,27961.8949,53859.1594,42017.5195,36608.0403,39147.7346,5962.5953,50289.1392,44182.8668,55919.9899,290.7068,-808.7754,25837.8088
56327.194,27967.304,53868.2789,42020.4252,36614.4329,39150.8192,5965.0987,50295.9341,44189.5723,55925.4438,293.2101,-804.4839,25845.0508
56354.7313,27973.6072,53870.1117,42032.8081,36641.7915,39162.9785,5966.7081,50309.4792,44202.5363,55928.6624,309.661,-791.7881,25849.2529
56361.7051,27971.2379,53867.8318,42032.6293,36646.2171,39164.1855,5966.574,50305.0089,44207.9455,55941.8947,316.0983,-783.2497,25852.5163
56343.6002,27966.7228,53867.0272,42021.4534,36625.5641,39154.1272,5962.7742,50292.3578,44197.9766,55936.1726,303.6708,-791.8775,25850.2364
56325.5847,27952.9095,53861.2157,42007.64,36594.3164,39140.9844,5953.5652,50261.6018,44186.8901,55921.7781,282.6601,-811.1447,25841.6533
56325.8082,27953.0436,53857.3265,42008.6682,36598.2503,39139.1516,5946.9044,50261.8253,44193.0145,55919.9899,286.3258,-811.6812,25839.6864
56346.64,27957.6033,53856.9689,42020.4252,36625.4747,39146.5276,5946.1445,50285.4735,44204.101,55925.6226,301.6591,-798.0913,25839.7758
56353.7031,27958.408,53851.2915,42022.6157,36633.3872,39142.2361,5941.8529,50277.5162,44199.8988,55924.2815,304.4754,-797.8231,25834.9925
56337.7887,27950.5849,53844.9436,42014.0326,36613.4942,39132.3566,5936.7567,50249.5319,44185.7278,55918.9618,288.8292,-813.2011,25830.6563
56319.9073,27935.0281,53838.6852,42000.2192,36593.4223,39125.1594,5930.9453,50231.3375,44167.9358,55906.3554,270.1432,-830.3672,25824.219
56335.4194,27936.0116,53838.9534,42003.8849,36595.3892,39125.6511,5930.7665,50237.6854,44175.0437,55910.8257,274.5688,-821.2477,25823.9061
56357.8606,27945.5334,53837.5229,42015.329,36616.5787,39131.0602,5930.8559,50261.1548,44192.8357,55919.4982,288.5163,-806.7191,25827.7953
56362.2862,27952.3283,53838.6852,42019.8888,36624.983,39135.8435,5930.4982,50262.5853,44192.031,55921.331,293.076,-802.8299,25829.6728
56356.0724,27941.823,53838.8193,42009.5623,36607.8615,39132.5802,5931.5711,50246.3579,44182.3751,55917.6207,287.2646,-811.3235,25828.287
56344.1813,27941.1972,53838.2381,41995.123,36590.4719,39124.4441,5931.1688,50226.9566,44175.5801,55914.2679,272.1548,-826.7909,25824.4872
56345.1648,27942.4936,53838.2381,41995.6148,36592.8859,39123.5054,5928.9783,50245.3744,44187.7395,55917.8442,268.2656,-822.5888,25823.772
56369.0364,27951.3001,53843.7366,42012.9597,36622.7478,39134.1448,5932.5993,50284.4006,44208.4819,55928.8412,288.3375,-805.9591,25831.9974
56372.3445,27951.6578,53843.5131,42014.5243,36626.5029,39128.8698,5935.8627,50288.6027,44212.237,55929.4671,293.2996,-805.8697,25833.3832
56356.6089,27946.6063,53842.485,42003.125,36605.0005,39123.7736,5937.8743,50274.1635,44202.8493,55920.6605,280.3355,-816.0621,25828.5552
56327.9539,27933.9105,53840.8756,41990.0715,36577.9996,39115.5481,5934.3427,50248.8166,44189.5723,55915.162,262.9906,-828.6238,25821.4921
56336.0453,27935.6092,53843.6025,41991.4573,36581.8441,39113.6706,5934.2086,50243.2734,44195.4732,55927.6342,269.9643,-819.8619,25824.6213
56368.9023,27942.5383,53844.139,41997.537,36610.0967,39125.517,5937.8743,50263.7029,44206.7832,55933.9821,290.0362,-799.8347,25830.2987
56378.1559,27948.7073,53843.2896,42004.779,36626.8158,39137.0952,5939.4836,50278.2762,44215.0086,55934.2504,298.8875,-791.4305,25834.4114
56367.4271,27943.2535,53839.311,42002.6332,36611.0802,39136.7823,5936.8014,50266.3404,44201.8658,55925.5779,288.2928,-805.5121,25829.3599
56347.1317,27932.8376,53838.4616,41999.7722,36592.8859,39128.1545,5933.7169,50250.8283,44183.9844,55912.3456,270.9478,-820.3983,25823.5037
56347.3105,27937.755,53842.0379,42002.6332,36593.0647,39125.7852,5931.5264,50262.0488,44195.7414,55910.8704,275.0605,-815.8833,25824.8895
56360.2746,27941.823,53836.8523,42011.9762,36613.7624,39132.7143,5931.0347,50290.7485,44208.9736,55916.1007,288.5163,-803.5898,25827.1694
56363.3144,27943.6111,53836.6735,42015.9996,36623.1501,39136.8717,5933.2252,50299.1527,44210.583,55924.9073,291.1538,-801.1311,25827.6165
56348.9199,27940.0796,53838.2381,42009.3834,36609.4261,39128.8698,5932.9122,50286.5463,44198.7365,55923.5662,277.4298,-812.5752,25822.0285
56337.6099,27938.7385,53842.3508,42001.4262,36585.3757,39123.6395,5931.6158,50263.3452,44187.4266,55915.0279,261.4707,-828.9367,25818.0946
56347.4447,27947.2321,53849.6375,42009.3834,36593.9587,39136.9164,5935.3709,50266.5192,44190.824,55918.3806,267.5951,-824.7793,25820.9109
56376.3678,27955.5917,53850.9339,42026.0131,36626.3688,39147.8688,5933.0016,50301.6561,44208.9736,55922.2251,287.7116,-809.6695,25823.5931
56391.6117,27960.4197,53852.2303,42032.5845,36633.8789,39151.2215,5932.7334,50322.2197,44219.1213,55926.6955,292.7184,-808.0602,25822.3861
56384.6827,27961.7608,53850.4422,42029.4106,36618.3221,39154.3955,5931.2582,50304.1148,44209.2866,55922.6722,285.6106,-815.8833,25817.9605
56371.5845,27949.0203,53850.2634,42022.1239,36602.363,39156.1389,5930.7665,50275.147,44198.826,55917.7101,271.7078,-825.0475,25815.9935
56369.9305,27942.7171,53847.4023,42023.2415,36608.4874,39158.687,5930.6324,50290.3014,44197.306,55919.5429,271.9313,-824.4663,25818.7652
56387.1413,27950.0037,53847.1341,42034.7303,36630.8391,39167.3148,5932.644,50322.2197,44217.0203,55929.78,291.5561,-803.8133,25824.7107
56393.7575,27953.133,53848.7434,42040.0947,36642.2385,39165.0796,5933.0016,50336.1672,44221.9377,55932.5963,301.1227,-796.8396,25826.633
56371.9869,27945.0864,53842.3061,42031.2434,36625.1171,39153.5014,5927.4137,50319.1799,44213.4887,55922.2251,290.0809,-806.1826,25820.1063
56353.4349,27933.9552,53837.8805,42021.0063,36604.2852,39142.5043,5925.8491,50298.9292,44198.4683,55912.3904,274.4347,-817.4032,25817.1111
56351.9597,27929.8872,53837.0311,42017.2065,36606.2969,39136.0223,5925.5809,50306.2159,44201.8658,55916.9501,273.183,-818.4761,25821.5815
56378.4242,27941.2866,53839.0875,42034.9985,36639.1093,39142.862,5930.0959,50332.1439,44223.1894,55921.5546,290.6173,-805.7356,25827.7953
56388.0801,27952.2389,53845.9271,42044.431,36652.9673,39145.6336,5938.9025,50344.795,44226.6315,55929.6906,301.7038,-795.8114,25833.6514
56378.2007,27951.3448,53845.346,42027.9801,36624.9382,39140.1798,5940.1095,50330.4452,44219.7472,55928.7965,287.801,-802.4722,25831.7292
56364.6108,27948.8862,53844.7201,42017.8324,36608.3086,39134.3683,5939.7072,50310.1498,44213.8016,55926.6508,277.6533,-810.34,25828.1976
56364.7449,27951.1213,53846.3742,42020.1123,36616.6681,39138.3022,5941.54,50313.8602,44224.1281,55930.0482,285.2529,-802.7405,25830.7904
56379.8994,27961.9396,53851.0233,42030.8411,36643.4008,39147.3323,5948.8714,50339.9223,44242.1883,55936.8432,300.318,-788.7483,25836.423
56391.0306,27966.6334,53854.8678,42034.4174,36653.1909,39148.584,5952.3135,50349.6677,44247.1951,55943.1016,305.4589,-784.3673,25837.8536
56385.4873,27963.9959,53851.7386,42027.2648,36645.0101,39141.6997,5952.0006,50339.0729,44242.8589,55941.1794,291.8243,-795.4091,25831.4162
56369.2153,27959.2574,53848.6987,42013.9432,36614.9694,39134.6812,5950.7489,50322.3985,44235.2593,55940.0171,273.3171,-808.3284,25831.2374
56371.0034,27965.2029,53856.8795,42014.0326,36617.3834,39137.1846,5951.5983,50319.1352,44237.8968,55950.0307,279.8885,-803.8133,25833.8749
56389.6,27967.8851,53858.8911,42029.2318,36646.6641,39144.7842,5951.4195,50346.8066,44247.3739,55956.9597,299.6027,-787.6754,25839.7758
56401.0888,27966.4546,53858.31,42035.7585,36652.0286,39150.9533,5952.5371,50358.1613,44250.682,55959.1055,303.8943,-784.3673,25842.6815
56378.8712,27957.6927,53852.0068,42022.6157,36629.8556,39141.9679,5949.1843,50345.7338,44236.9133,55949.9413,288.0245,-801.757,25838.6582
56354.1949,27943.2982,53849.0564,42010.1881,36603.7041,39130.8814,5945.6974,50323.7844,44220.8648,55943.6381,276.6252,-815.9727,25832.9809
56357.9053,27938.8726,53848.5646,42011.7974,36610.1414,39133.1613,5944.2669,50319.1799,44224.9328,55942.6546,276.8487,-815.0339,25831.9527
56376.1443,27940.9736,53844.2731,42024.3144,36633.2084,39139.5986,5940.8247,50341.8893,44241.1602,55943.3252,291.3773,-800.6841,25832.3103
56373.5515,27939.8113,53842.7532,42025.7449,36640.1374,39140.1798,5940.8247,50354.2274,44247.3739,55944.7557,299.7816,-791.5646,25830.7904
56358.7099,27933.1058,53844.0496,42012.8256,36619.3503,39132.6696,5937.1144,50335.5414,44233.6053,55943.2358,281.1402,-806.7191,25827.9741
56340.7838,27925.998,53842.6191,42002.6332,36593.7352,39123.0136,5932.5099,50311.5356,44224.1728,55938.1843,260.666,-822.2312,25822.8332
56342.9743,27923.6287,53842.485,42004.8237,36592.6176,39125.7852,5930.9453,50314.9331,44220.7754,55938.0502,260.9789,-821.8735,25824.7554
56359.0676,27926.445,53842.6191,42019.3523,36617.2045,39130.6132,5933.4487,50332.7698,44230.8336,55941.6264,281.4531,-808.6413,25829.6281
56370.5564,27928.5908,53846.8659,42029.2765,36633.4766,39137.274,5932.8228,50331.2498,44235.751,55940.7324,288.2034,-804.3945,25829.4046
56356.0724,27929.9319,53842.2614,42018.4135,36614.2988,39130.4344,5929.7383,50320.1634,44226.3186,55935.9938,278.2345,-814.9445,25826.0965
56342.0802,27918.1749,53840.6074,42014.122,36593.1988,39127.9757,5926.8326,50303.3996,44215.8133,55927.9025,266.6116,-826.6568,25821.9838
56342.5273,27914.241,53841.1438,42014.3902,36599.949,39129.898,5930.4535,50300.1809,44227.5256,55927.3213,270.1432,-822.0524,25821.9391
56365.5496,27918.3537,53843.1555,42027.6672,36632.8955,39137.3187,5936.3991,50327.0924,44243.9765,55934.608,284.8953,-806.4061,25828.0188
56365.9072,27922.1535,53841.4121,42030.4835,36642.2385,39136.38,5938.7684,50333.038,44244.3341,55938.5866,287.8904,-805.9591,25830.3881
56353.2561,27916.342,53839.6686,42022.4369,36618.2774,39124.7571,5936.6673,50313.0555,44233.9182,55930.4506,273.8535,-817.8949,25821.9838
56337.9675,27910.5753,53839.4004,42012.4233,36594.4058,39119.8397,5934.4321,50286.3675,44220.4177,55921.9569,259.6825,-828.0426,25816.7982
56338.2804,27919.2477,53842.3508,42012.915,36600.7984,39126.9922,5933.404,50289.318,44223.0552,55927.5895,265.8516,-820.9348,25821.4474
56363.1356,27931.2283,53845.2566,42026.0131,36632.0908,39137.6317,5936.1756,50327.0924,44245.8987,55936.1726,285.4317,-803.0534,25828.1976
56369.3494,27936.9503,53843.5131,42026.5049,36640.3162,39138.4363,5938.0978,50337.3295,44247.6869,55936.5302,289.4104,-797.2419,25827.4823
56355.4019,27930.8707,53842.0826,42018.1006,36621.7643,39134.2342,5936.4438,50316.4083,44235.304,55930.2717,279.1286,-808.1049,25823.5931
56334.2124,27921.9747,53844.1837,42007.9082,36594.0928,39126.0982,5930.99,50292.5813,44217.6014,55915.162,262.4542,-823.5723,25816.6641
56343.8684,27920.8124,53848.7434,42008.8917,36602.8994,39132.7143,5933.2252,50306.3947,44226.408,55923.1192,268.4891,-816.4644,25819.7486
56364.6555,27926.3109,53845.9271,42020.157,36632.4484,39142.1914,5936.9802,50335.2284,44236.958,55935.1891,284.8506,-802.1593,25824.7107
56368.7235,27933.1058,53846.1953,42028.2483,36647.29,39144.2031,5937.3379,50348.5054,44240.7578,55938.9889,293.8807,-796.8396,25828.5105
56359.6934,27933.8211,53844.8542,42021.5428,36625.5641,39139.4645,5937.025,50339.3412,44233.5159,55934.0268,279.8885,-809.3119,25829.1364
56335.8217,27929.0825,53843.0661,42003.8402,36597.088,39132.2225,5935.058,50317.7941,44221.3118,55927.0978,260.0849,-823.3488,25826.7224
56342.0355,27928.5461,53845.9271,42001.605,36605.9393,39133.206,5938.7684,50321.0127,44230.4313,55931.9705,266.4775,-815.7045,25830.8351
56368.5447,27930.9154,53849.3246,42012.2445,36631.5097,39132.7143,5938.8131,50343.9903,44252.4701,55941.09,279.2627,-804.9756,25833.8749
56373.1939,27938.5149,53845.3907,42013.8985,36639.1987,39131.5967,5933.6275,50363.0787,44254.2583,55943.951,281.6767,-799.79,25829.9857
56364.1638,27939.1408,53846.1506,42008.3106,36615.4164,39127.8416,5931.2135,50353.7804,44238.2991,55940.7324,272.1548,-808.9095,25824.9789
56352.8091,27933.0611,53843.0214,42000.8898,36591.7236,39119.6162,5930.0512,50332.4121,44231.1466,55932.8198,262.4989,-820.4877,25821.2686
56355.5807,27930.4683,53841.3227,42001.0686,36596.1045,39122.9689,5928.7548,50339.0729,44237.5839,55936.0832,262.9906,-817.0009,25822.565
56376.0996,27941.2866,53847.0447,42008.7129,36624.5359,39133.4742,5933.8957,50373.6287,44254.6159,55947.2591,273.3618,-803.0534,25827.9294
56382.5816,27944.8628,53846.9553,42007.9976,36630.705,39132.4908,5933.3146,50380.2001,44252.1572,55947.5273,272.6465,-800.5947,25827.9741
56365.326,27939.4537,53843.6919,42002.0521,36613.3153,39127.4393,5931.0794,50363.2128,44247.6869,55942.9675,264.5105,-807.0767,25821.8944
56342.2143,27930.066,53841.8144,41993.6925,36591.9918,39122.9242,5927.5478,50340.1011,44233.1582,55932.5069,253.6029,-821.7394,25817.3347
56339.8451,27928.9931,53842.485,41994.3184,36593.2435,39119.9291,5925.4915,50344.7503,44229.7161,55928.126,256.7768,-822.7229,25817.8711
56361.5263,27936.0116,53845.6142,42012.6915,36624.6253,39126.9028,5933.851,50382.3459,44253.9006,55946.4544,276.7146,-804.1263,25828.2423
56373.4621,27941.4207,53840.7862,42023.2415,36630.9285,39128.6463,5933.1805,50393.9688,44254.7947,55946.4544,283.3307,-797.5549,25827.84
56357.6818,27938.8279,53839.0428,42019.2629,36610.9461,39123.9971,5929.2018,50375.0592,44239.819,55935.6362,275.3288,-808.8201,25823.6378
56339.1298,27932.2565,53839.5345,42011.8421,36592.3047,39126.6793,5927.2349,50357.4014,44235.4381,55931.2999,267.8633,-823.617,25820.4639
56347.0423,27929.8425,53835.243,42013.1385,36602.0054,39130.5685,5922.3175,50357.9378,44237.4945,55931.3446,267.5056,-824.2875,25821.4474
56369.3494,27938.5149,53833.6337,42022.7945,36635.2201,39140.3139,5927.0561,50382.3012,44251.7102,55934.1162,280.2461,-808.1049,25826.4542
56380.5699,27943.1641,53834.8854,42027.9354,36645.1889,39141.9679,5933.0016,50398.7074,44248.9833,55938.229,286.9964,-803.9027,25828.2423
56371.7633,27944.7734,53836.5394,42032.3163,36633.3425,39143.9348,5936.9802,50379.6637,44241.9648,55935.6809,283.1072,-808.9542,25828.0188
56352.4514,27936.1904,53836.9417,42020.0229,36599.9937,39140.3139,5934.6557,50344.1244,44233.65,55927.6789,266.4328,-823.0805,25822.4756
56355.9383,27932.48,53833.2313,42023.3309,36597.1327,39138.4363,5934.3874,50350.4276,44240.4896,55928.126,266.3881,-821.0689,25822.6097
56373.6856,27941.7783,53833.8572,42035.4903,36627.4416,39141.7891,5937.1144,50381.586,44259.0863,55936.0385,287.2646,-807.3896,25824.7554
56381.8216,27944.7287,53841.4121,42039.4242,36643.7137,39149.8804,5939.573,50384.6705,44256.6276,55934.3398,294.4171,-802.3828,25827.1694
56372.2998,27942.3594,53838.6405,42028.8295,36625.6982,39145.4101,5933.404,50368.5772,44248.2233,55926.2931,280.425,-811.3235,25822.1179
56353.882,27932.7035,53836.6735,42014.5243,36604.4194,39133.3848,5929.6489,50341.1293,44243.1718,55921.5993,260.4425,-822.9464,25818.8099
56355.3572,27932.4353,53837.3441,42014.7032,36605.1793,39139.5092,5932.5099,50351.2323,44255.3759,55926.6955,263.3035,-822.9464,25823.1461
56372.8362,27934.134,53836.3606,42024.3591,36625.4747,39146.8853,5933.1805,50377.4285,44261.8132,55932.3728,273.3618,-815.3915,25828.0188
56378.0218,27930.6918,53838.104,42022.9733,36630.258,39144.2031,5929.7383,50383.687,44268.3399,55937.8266,275.8652,-813.2905,25827.3482
56360.9898,27927.1156,53834.4383,42018.2794,36608.7109,39138.8386,5927.369,50372.377,44255.4206,55930.3164,270.8137,-819.9513,25825.0237
56343.5107,27916.342,53836.45,42012.8703,36587.8344,39135.9329,5926.9667,50361.8717,44245.2282,55923.1192,256.2851,-828.4003,25822.8779
56349.3669,27911.5587,53834.8407,42011.7974,36597.6691,39138.2575,5926.162,50373.8523,44255.4206,55933.3563,257.2238,-822.0077,25826.4542
56371.4951,27919.8289,53837.0758,42028.3377,36628.738,39149.6122,5932.0182,50405.5023,44271.9162,55939.2571,281.9002,-801.3994,25835.7972
56387.0966,27928.0543,53843.379,42038.2619,36642.9985,39158.9552,5939.4836,50417.8852,44279.3369,55940.7771,293.1654,-792.4587,25842.6815
56380.0782,27925.4168,53842.6191,42030.8411,36621.362,39158.5082,5940.4671,50400.7638,44268.2058,55935.7703,284.6271,-803.3663,25839.6864
56357.7265,27922.1088,53843.0661,42020.4252,36605.2687,39154.3508,5936.3097,50377.0709,44260.1144,55929.9141,269.7855,-810.8765,25832.7127
56359.6487,27922.4664,53838.0593,42022.571,36614.2094,39156.5859,5932.9122,50380.0213,44258.7733,55928.0366,272.8701,-808.9989,25830.0751
56382.8945,27929.8872,53839.311,42032.4951,36641.9256,39162.6209,5935.8627,50399.9591,44274.5984,55940.7771,293.1654,-795.9008,25834.322
56391.0306,27934.9834,53846.553,42042.5534,36654.5767,39164.9008,5938.7684,50412.8784,44286.9812,55946.2309,301.3462,-788.6142,25838.0771
56387.3649,27928.6355,53843.0214,42038.8877,36636.2482,39156.5859,5935.8627,50401.926,44276.163,55939.5254,291.2432,-796.5267,25834.0985
56368.4553,27921.8405,53837.4782,42027.0413,36605.6263,39147.4217,5931.1688,50378.9932,44262.6178,55933.848,276.9828,-813.8716,25825.1578
56368.0977,27922.7346,53840.0263,42025.1638,36608.2639,39144.4266,5929.9618,50375.9533,44262.8413,55931.7023,275.6417,-811.4129,25826.0071
56381.8663,27925.7298,53838.4169,42038.1278,36634.5495,39148.2264,5928.9783,50400.6743,44271.1562,55932.0152,284.8953,-799.1642,25829.1811
56382.6263,27926.9814,53833.3654,42039.156,36636.8294,39145.7677,5927.5031,50401.3002,44266.7753,55927.8131,287.1752,-799.2983,25825.873
56367.293,27919.0689,53828.0457,42028.4718,36615.3717,39143.6666,5923.4351,50383.3741,44256.8064,55918.9618,275.6417,-812.1282,25815.5465
56349.0987,27907.2225,53826.5258,42020.9616,36595.1657,39140.0903,5922.4963,50363.2575,44242.4566,55915.8325,258.7885,-830.0543,25810.7185
56352.0044,27912.3187,53826.7046,42023.6439,36606.7439,39140.0903,5923.2116,50365.9844,44242.546,55916.056,258.5202,-823.5276,25813.8478
56371.361,27916.5655,53826.4811,42034.6856,36634.326,39148.5393,5923.2563,50385.1622,44255.6888,55915.7878,274.7029,-809.8483,25813.0878
56382.3581,27924.2098,53833.276,42037.8596,36643.9372,39155.7366,5927.0561,50402.9095,44263.4672,55928.4836,284.18,-807.0767,25818.8993
56367.9188,27922.6005,53836.1818,42028.6506,36630.8838,39149.6569,5925.1785,50395.8464,44259.3992,55924.9967,271.1713,-813.5587,25817.2005
56353.3902,27913.8833,53836.8076,42021.5428,36604.5088,39146.5276,5923.4798,50378.8143,44248.9833,55913.4632,258.7885,-823.7958,25811.2997
56364.2085,27915.135,53837.7911,42027.8907,36612.913,39151.445,5924.8209,50379.6637,44256.717,55917.8442,268.2656,-818.5655,25814.4289
56386.6943,27927.4285,53838.104,42037.189,36640.1374,39157.3906,5924.6868,50403.1777,44265.9259,55923.5662,284.7612,-801.1311,25820.2404
56393.1316,27934.7152,53839.311,42042.1958,36651.8497,39159.8493,5927.369,50422.6685,44275.0901,55932.2834,293.6125,-796.1243,25824.3531
56373.9538,27929.3507,53838.4169,42036.6526,36638.394,39152.5626,5929.023,50410.5091,44271.2009,55932.4175,283.0178,-801.7123,25823.5037
56355.9383,27923.3605,53836.0476,42023.6439,36606.878,39144.6054,5922.7645,50383.4188,44260.2038,55923.4768,264.0188,-819.6831,25817.2005
56355.4019,27920.1865,53836.5394,42020.5593,36602.4524,39143.5325,5919.3224,50390.8396,44251.442,55920.9287,264.4211,-823.7958,25814.0713
56367.9188,27926.6685,53840.6521,42031.8246,36626.6817,39147.5111,5922.9881,50422.9367,44267.0882,55930.7635,279.1286,-804.7521,25819.4804
56381.0617,27930.3342,53840.6521,42041.7935,36646.9324,39152.2944,5929.8277,50436.3477,44280.1863,55934.5186,287.2199,-790.894,25825.6495
56375.2502,27925.8639,53838.9087,42032.4951,36635.4883,39147.0194,5927.7266,50410.6879,44262.3049,55933.3116,274.2112,-800.4606,25824.6213
56357.7265,27917.8619,53837.1652,42019.3076,36608.6215,39136.4247,5924.3739,50385.0281,44249.5644,55931.1211,263.527,-820.8007,25821.1344
56352.4514,27917.8172,53833.8125,42018.2347,36612.5554,39136.7823,5923.1669,50394.3264,44258.2816,55932.9987,271.3948,-819.3254,25823.6825
56374.5797,27933.7317,53839.9369,42038.0831,36634.5942,39147.4217,5929.8724,50428.7481,44280.5439,55939.1677,291.1091,-802.1146,25826.3648
56388.4825,27940.6607,53843.8708,42045.1015,36638.5281,39152.6073,5934.1639,50445.5566,44288.4564,55941.2241,295.6688,-795.0515,25823.9508
56381.9557,27941.4654,53846.5083,42040.6759,36623.2842,39154.5743,5934.7898,50426.8259,44276.2524,55943.951,284.8953,-799.79,25822.4756
56359.5146,27929.7531,53841.0991,42029.3212,36602.7206,39146.3041,5926.8326,50397.858,44260.5168,55936.9773,265.9857,-818.9231,25819.5698
56349.2328,27918.9795,53838.4616,42022.3475,36602.4971,39138.9281,5923.1222,50394.9076,44261.0979,55926.9637,264.1976,-822.5441,25817.5135
56368.5,27923.0922,53836.1818,42029.7235,36626.9946,39146.3488,5924.1951,50428.0329,44281.9297,55931.3893,279.665,-809.7142,25820.5533
56377.7536,27920.5441,53832.8737,42037.3231,36634.0131,39144.2925,5924.5974,50429.2399,44285.9083,55935.3232,283.0178,-807.9708,25820.7768
56370.0646,27911.4246,53832.6949,42034.6409,36622.3454,39144.516,5923.2563,50414.0854,44278.9346,55930.7188,272.5571,-811.8153,25821.8944
56350.6633,27905.9261,53833.9913,42026.9966,36607.191,39140.0456,5921.8705,50399.6015,44265.5683,55924.6838,256.5533,-823.7511,25817.8711
56349.8139,27907.446,53835.4218,42030.8411,36609.7838,39139.0175,5926.7879,50414.9795,44269.6363,55929.78,259.1014,-820.8007,25818.7205
56377.3066,27920.41,53835.9582,42045.5486,36636.2035,39148.8075,5931.3923,50450.2058,44290.4234,55937.1114,278.2792,-806.0932,25826.0071
56385.4873,27922.824,53831.4432,42046.9791,36648.7205,39150.8639,5930.6324,50460.0853,44304.6391,55940.4641,288.2481,-800.2818,25831.461
56366.1307,27918.8901,53831.8455,42037.3678,36629.498,39147.6899,5930.0959,50445.1543,44293.5079,55937.1114,275.3288,-808.6413,25826.7224
56349.3669,27912.8999,53837.2546,42033.7468,36614.7459,39141.342,5932.5099,50418.1981,44278.5323,55935.5915,264.7787,-818.2526,25824.9342
56353.122,27909.0554,53836.45,42031.1987,36615.6399,39140.895,5927.8607,50422.7579,44281.6168,55937.022,269.3385,-814.2292,25828.2423
56375.1161,27913.481,53834.6171,42039.7371,36640.2715,39143.1302,5927.8607,50443.3662,44296.2348,55936.2173,285.2082,-801.5782,25831.4162
56379.8994,27923.4052,53835.5112,42051.3153,36646.7535,39145.0971,5931.9288,50450.9658,44295.0726,55942.6546,288.6057,-798.3148,25832.0868
56369.3494,27923.6734,53833.3207,42049.3931,36632.4931,39142.549,5929.6936,50431.9668,44284.4331,55938.7207,279.1286,-807.032,25831.0586
56353.882,27915.4927,53834.2595,42036.5185,36612.7342,39135.2177,5924.2398,50405.9941,44269.0104,55925.5332,265.0023,-819.9513,25825.2919
56365.1919,27923.2711,53838.5957,42037.2784,36615.1929,39142.7726,5926.609,50413.5489,44275.5818,55931.6128,271.9313,-813.6481,25826.4989
56394.1598,27935.6986,53844.4966,42055.9198,36637.9023,39154.1719,5933.2252,50442.2933,44292.7033,55945.918,292.3608,-796.6161,25833.8749
56401.3124,27936.8609,53845.4801,42058.0208,36644.6078,39155.2001,5935.818,50451.0999,44287.9647,55945.9627,294.3277,-791.0281,25835.1266
56386.6496,27932.1223,53843.2002,42048.1414,36628.6039,39151.3556,5930.9006,50433.8443,44274.7325,55945.0686,279.3968,-802.0252,25831.2821
56362.9568,27926.892,53843.3343,42034.8197,36603.8829,39148.0029,5926.3855,50417.8405,44260.025,55936.5302,263.3482,-816.1515,25827.7506
56363.4485,27920.3653,53841.5015,42034.5962,36605.8499,39145.4548,5919.8588,50416.4994,44255.7335,55929.8247,268.4891,-813.1117,25823.772
56387.9013,27927.3838,53842.3955,42046.532,36635.3989,39157.48,5922.8987,50439.2982,44283.5391,55940.7324,290.3938,-796.3926,25830.0751
56400.4183,27931.9435,53844.1837,42049.9742,36639.154,39159.0446,5928.4419,50452.3069,44295.4749,55944.9792,296.2947,-792.4139,25835.8419
56389.2424,27924.2545,53846.0165,42046.3532,36625.0724,39161.1457,5926.8773,50440.684,44281.9744,55937.8713,286.0129,-801.7123,25833.9643
56375.5184,27915.2244,53844.1837,42039.5583,36608.0403,39162.8891,5926.8326,50420.1651,44272.095,55935.7256,277.2957,-811.1447,25832.7127
56378.8265,27916.4761,53846.4189,42038.8877,36610.6778,39164.409,5929.2018,50432.1903,44277.9064,55935.0103,278.1004,-808.5519,25831.148
56407.7497,27930.8707,53851.2021,42051.9412,36637.3658,39175.0932,5934.3427,50464.645,44292.4798,55941.2241,293.7466,-791.5199,25834.7243
56406.9003,27935.8327,53852.9009,42050.5106,36649.3911,39178.4459,5940.9142,50470.8141,44294.849,55942.1182,296.2053,-787.1836,25837.0042
56390.1812,27933.0611,53860.0981,42045.2356,36639.154,39175.1379,5946.6362,50457.8948,44287.3389,55945.7392,289.768,-791.6093,25839.9099
56366.2648,27928.9931,53854.8678,42033.0316,36613.1812,39165.5713,5941.8976,50441.2204,44267.3564,55937.8713,269.7408,-807.7025,25833.9196
56369.8858,27930.6918,53850.1292,42032.8081,36622.9266,39161.3692,5944.5798,50444.1261,44257.5216,55935.9938,269.562,-804.4839,25830.3881
56383.7886,27943.2088,53855.449,42043.8945,36659.3599,39166.5548,5948.9161,50461.1135,44272.4526,55942.9675,291.6008,-788.793,25838.2559
56384.4144,27949.1991,53857.6841,42055.5174,36667.5407,39167.8959,5957.1415,50469.473,44277.6829,55950.0307,306.3977,-785.7531,25844.425
56367.5165,27945.7122,53853.7949,42042.7769,36646.7535,39157.9717,5956.5604,50448.9541,44262.3496,55948.1978,294.4171,-793.8892,25839.8652
56340.2027,27940.1243,53853.1244,42029.4106,36629.9003,39149.5675,5951.8665,50415.7394,44242.233,55937.8266,276.0887,-807.3002,25833.9196
56339.0404,27942.0465,53848.8328,42030.6623,36625.2959,39149.5675,5950.1678,50403.8036,44238.9697,55936.0385,273.3618,-807.0767,25829.6728
56353.3008,27950.5849,53848.3858,42034.2833,36646.7535,39152.7861,5955.3534,50411.0456,44243.3953,55941.7605,287.6222,-791.8775,25834.2326
56357.6818,27955.0105,53847.0894,42031.3776,36654.2637,39152.205,5957.4991,50402.8201,44246.6587,55941.8947,297.3229,-784.6355,25834.4114
56346.6847,27957.3798,53846.1059,42026.2367,36640.3162,39145.8571,5958.572,50383.1059,44237.8968,55933.5798,288.3822,-798.1807,25829.941
56329.7868,27951.3448,53846.5977,42017.2065,36618.0986,39140.5821,5957.4097,50362.3188,44216.3497,55921.7781,276.2228,-814.8104,25825.3813
56335.1512,27950.1379,53848.1623,42013.1832,36621.5855,39137.9446,5956.3369,50360.173,44214.6957,55921.6887,274.2112,-815.0339,25827.5717
56348.6516,27961.9396,53851.2915,42024.0909,36643.3114,39145.9912,5955.6663,50370.0078,44225.201,55926.4272,292.182,-806.5403,25831.8186
56345.5671,27964.6665,53851.4704,42026.5496,36654.3531,39149.1205,5956.471,50364.4645,44221.0436,55925.5332,297.5911,-801.8464,25830.1198
56329.6974,27952.1048,53846.6424,42014.7479,36632.672,39143.9795,5955.1299,50343.4539,44201.2846,55916.0113,281.8108,-807.3896,25826.0965
56306.1833,27938.4702,53841.278,42001.1133,36609.0685,39131.4626,5949.9443,50310.1051,44186.8901,55905.1931,260.5319,-823.3041,25819.1675
56316.8228,27941.063,53840.6074,42001.7838,36610.3202,39135.62,5947.1726,50298.661,44185.6384,55905.1484,266.3434,-825.4945,25818.4969
56330.1891,27946.8298,53840.5627,42013.1832,36626.8605,39136.1117,5946.9491,50317.1682,44192.5675,55907.6965,280.2461,-814.5422,25820.3298
56333.8995,27949.6461,53839.8027,42019.3076,36634.5495,39134.8153,5943.8199,50324.1867,44196.4567,55908.9929,283.9118,-811.9941,25821.3133
56323.3048,27939.409,53838.3722,42013.1832,36625.6088,39131.4626,5941.6294,50296.9623,44185.2808,55903.405,274.39,-820.3089,25817.4241
56303.5458,27917.996,53832.8737,41997.3135,36597.7138,39118.275,5935.5497,50258.5173,44164.7619,55888.474,253.0664,-839.4867,25808.0363
56308.9103,27915.8056,53836.1818,42000.7557,36601.3348,39123.7289,5933.8957,50260.2607,44168.8746,55895.4924,255.0781,-837.028,25812.2832
56327.9986,27926.0427,53840.9203,42013.9432,36623.463,39128.5121,5936.9802,50283.0595,44189.3935,55906.6683,274.5688,-821.3371,25819.838
56327.6857,27920.0524,53837.0311,42013.8538,36628.7827,39124.7571,5934.7898,50283.0595,44191.9863,55902.8685,278.2792,-819.9066,25818.8546
56313.8276,27912.4528,53829.6998,42001.6497,36614.12,39115.7269,5931.3923,50259.769,44181.1681,55895.9395,265.2705,-832.4236,25814.6524
56297.1979,27903.6015,53826.347,41992.9326,36591.2318,39105.0875,5928.0396,50228.2977,44165.7454,55889.1892,249.9819,-845.3429,25810.5397
56299.6566,27903.8697,53824.4247,41996.9559,36587.3873,39110.6755,5926.8773,50231.874,44166.0583,55889.1445,254.3181,-841.0066,25811.8361
56325.8082,27909.9047,53824.2012,42003.9743,36615.4611,39117.828,5928.9336,50260.9313,44181.481,55894.9113,271.6184,-822.7229,25817.9605
56331.9325,27909.3683,53824.1565,42002.6779,36615.2376,39112.8659,5930.0065,50258.8302,44184.8785,55897.817,276.4016,-819.2807,25815.323
56316.6887,27903.6462,53820.5355,41995.5254,36592.7517,39107.0992,5927.1455,50235.9867,44169.277,55887.8481,260.4425,-829.4284,25808.7069
56312.8889,27901.8581,53819.9097,41992.0385,36570.6235,39103.9252,5925.9385,50213.2773,44157.2964,55887.4458,250.4736,-838.3244,25809.1092
56327.3281,27902.6628,53820.9826,41994.3631,36572.6799,39105.5793,5926.7431,50215.0208,44158.0117,55888.4293,252.0829,-836.9386,25812.1043
56351.1103,27915.135,53822.6813,42005.1366,36600.2619,39112.3295,5930.3641,50235.3162,44172.585,55894.9113,271.0819,-824.1981,25816.3512
56361.8392,27918.9348,53826.7046,42009.1152,36616.7128,39118.6327,5931.5711,50246.5814,44186.1749,55900.4992,281.4084,-817.7161,25820.1063
56345.433,27918.4431,53828.4034,42002.5438,36601.156,39114.3411,5928.7548,50240.5018,44167.8017,55893.6149,263.1694,-829.5625,25812.6408
56331.3067,27923.0922,53826.6152,41995.436,36576.9267,39111.1225,5926.2514,50228.0295,44147.864,55881.7685,254.4969,-838.8609,25807.0529
56337.3417,27920.7677,53826.7493,41995.123,36584.124,39117.1575,5928.7548,50236.6126,44162.9738,55894.0619,260.1743,-835.1058,25812.2385
56353.6584,27919.0689,53825.7211,42007.7294,36607.7274,39124.2206,5926.6537,50264.731,44187.0689,55904.3884,276.804,-822.0524,25815.7253
56355.6254,27914.5539,53823.7989,42007.4612,36611.7507,39119.3032,5925.5809,50270.319,44182.5986,55901.3486,277.0722,-820.1748,25813.2219
56341.2756,27908.206,53821.4296,41998.3864,36595.7916,39107.3227,5928.3972,50253.1976,44177.5918,55898.1746,265.8516,-830.4119,25806.8293
56323.3048,27902.171,53824.0224,41984.4389,36576.882,39104.104,5929.8277,50240.3229,44172.4956,55895.8054,252.4406,-837.9668,25808.3493
56328.7139,27896.7619,53827.8222,41991.815,36589.8907,39107.9038,5931.1688,50236.0314,44179.7376,55899.6946,261.7836,-829.339,25813.1325
56341.0521,27902.3945,53824.8271,42005.3601,36614.4776,39115.9505,5932.0629,50247.6543,44194.1321,55905.2378,277.6533,-816.2409,25817.1111
56352.1832,27911.0223,53826.3917,42013.4962,36621.0043,39123.2371,5937.472,50263.6582,44195.3838,55909.9317,284.0459,-809.7589,25819.3016
56354.8207,27909.5471,53828.761,42009.3834,36607.8615,39119.5714,5935.7733,50267.2344,44191.9863,55907.6518,275.1052,-818.8337,25819.7486
56336.537,27902.3945,53827.6434,42001.0686,36586.0462,39113.5812,5931.7499,50237.909,44182.0621,55902.4662,256.0616,-831.4401,25814.4736
56333.1395,27911.2458,53828.6269,42005.8072,36585.8227,39117.9174,5935.7733,50238.6242,44180.5422,55906.3554,257.4027,-828.8026,25814.9654
56356.9665,27927.1156,53834.4383,42027.1307,36620.7808,39131.552,5943.4175,50275.9963,44198.6024,55913.6868,279.2627,-812.754,25823.1461
56359.3358,27930.3342,53832.7843,42027.9801,36634.4154,39129.9874,5943.7305,50294.9059,44211.2982,55912.5692,285.0294,-809.6695,25821.5368
56344.673,27931.5412,53833.8572,42019.6652,36614.7012,39124.5335,5940.5565,50279.6173,44207.7219,55904.6566,276.0887,-818.8337,25817.1558
56325.3164,27930.5577,53833.9019,42008.1317,36586.9403,39119.8397,5938.3214,50260.0819,44186.7113,55902.7344,259.2355,-832.7365,25811.4338
56328.5351,27924.8804,53825.5423,42011.1716,36586.8509,39121.6725,5931.9288,50254.7622,44183.8503,55896.7441,258.2967,-835.2846,25806.1588
56357.3688,27932.6588,53824.8271,42028.5612,36613.4495,39143.309,5932.5546,50282.5677,44200.0777,55903.1814,275.2841,-818.7443,25812.3726
56368.5447,27935.1622,53829.3868,42032.1822,36625.6088,39155.6472,5930.9453,50294.1906,44207.0067,55909.7528,280.1567,-816.6879,25813.4902
56357.5923,27930.2448,53825.8553,42026.3261,36606.9227,39148.9416,5926.0279,50282.2101,44200.3012,55904.1202,270.2326,-827.8191,25810.4056
56338.951,27918.3537,53825.6317,42013.5856,36583.6769,39137.0505,5921.5128,50273.6717,44188.0971,55894.3301,258.4755,-841.0513,25809.7798
56341.5438,27912.9893,53828.1798,42016.4019,36585.4204,39135.7988,5925.6703,50289.005,44201.5529,55900.1416,263.08,-832.4683,25813.7137
56357.7712,27915.6268,53826.2576,42024.4932,36609.5155,39141.6103,5925.8938,50313.0108,44213.2652,55907.8753,276.4016,-815.7939,25818.6758
56364.3426,27925.6403,53825.1847,42022.1686,36618.2327,39139.5986,5923.3904,50322.7115,44217.0203,55913.0162,280.2461,-810.4742,25819.8828
56351.2444,27920.1418,53822.4578,42010.9481,36605.0005,39136.5588,5918.7859,50303.7125,44201.9105,55907.3836,272.2442,-818.5655,25813.2666
56333.9442,27914.1068,53821.1614,42002.6332,36584.7945,39126.0982,5915.5673,50282.523,44194.4897,55896.9229,253.737,-834.2564,25805.8012
56335.5982,27919.6948,53829.208,42010.3222,36593.6905,39122.6113,5918.026,50283.0595,44207.9455,55898.9346,255.2122,-832.9153,25807.4999
56361.571,27932.2118,53833.4548,42029.1424,36624.5806,39135.9329,5924.6868,50312.2509,44221.133,55905.3719,277.1169,-813.1117,25813.6243
56371.9422,27937.9338,53832.0243,42035.9373,36637.5446,39136.1117,5926.8326,50327.8077,44230.9678,55906.3107,283.1519,-804.8415,25811.2997
56358.7546,27936.548,53827.2858,42025.4767,36618.6798,39118.6327,5925.9832,50308.3616,44213.4887,55896.3865,262.0965,-821.2924,25804.9071
56338.1016,27933.9552,53829.3421,42007.1483,36593.0647,39111.6589,5930.7665,50290.2567,44199.1389,55904.3437,249.0431,-833.3623,25809.1092
56340.6944,27937.8444,53829.0739,42005.0919,36598.8761,39113.3577,5930.9006,50295.3529,44207.4984,55906.1766,254.3628,-829.9649,25808.1704
56365.326,27946.1145,53826.1682,42020.2911,36625.5194,39119.2585,5932.0629,50322.5327,44225.4245,55909.574,273.3171,-815.3021,25812.5067
56373.0597,27948.0815,53823.0389,42018.2347,36624.983,39120.6443,5928.8442,50338.4918,44223.4576,55908.7247,272.2442,-812.8881,25816.1724
56367.4271,27946.2487,53825.1847,42007.8188,36613.673,39116.8445,5929.6042,50326.1089,44214.6063,55911.8986,260.5319,-818.9678,25813.8478
56345.9247,27935.0728,53824.6036,41995.4807,36595.6128,39107.5462,5930.1853,50289.4968,44201.9552,55907.7412,243.9916,-832.0659,25810.8079
56344.8071,27939.4984,53826.1235,41992.3514,36597.7585,39108.932,5932.1076,50293.6542,44198.3789,55909.887,248.2384,-830.2331,25815.0995
56363.8955,27948.6179,53830.7726,42007.8188,36620.5126,39118.0962,5937.6955,50317.2576,44212.7734,55919.5876,267.7292,-811.2341,25822.1179
56372.4786,27949.959,53833.4101,42019.4417,36629.5874,39123.0136,5937.7849,50320.968,44227.3915,55921.7334,282.9283,-801.2652,25825.7836
56368.3659,27945.6675,53835.0195,42011.3951,36613.3153,39122.1642,5935.9968,50313.1449,44220.8648,55920.7946,271.3501,-811.547,25822.3414
56347.8023,27933.3293,53837.8358,41996.1065,36587.7002,39112.553,5934.6557,50290.1226,44199.8541,55917.1736,247.1656,-829.5178,25815.7253
56346.9082,27932.6588,53836.9417,42001.605,36593.9587,39116.4869,5936.1309,50291.3743,44205.0844,55918.4253,256.7321,-823.0805,25818.5863
56363.5379,27935.4751,53830.862,42011.0822,36617.9198,39128.8698,5933.0463,50314.039,44218.8084,55922.3145,273.9877,-814.1398,25816.3512
56363.8955,27936.5033,53825.8553,42014.4796,36625.9217,39124.6676,5928.9336,50316.7212,44218.719,55919.9452,268.8468,-814.5869,25810.4056
56347.5788,27929.5743,53823.7095,42009.4281,36611.3484,39120.7784,5926.4302,50298.2587,44201.9552,55912.5692,257.358,-825.271,25805.7117
56330.3232,27924.031,53826.7493,42000.4427,36591.4553,39119.3032,5926.7879,50284.6688,44191.4052,55903.5838,247.5232,-835.5528,25802.4484
56333.4525,27928.5014,53829.0739,42005.0472,36594.4058,39127.8863,5927.4137,50289.1392,44195.652,55908.8141,253.9605,-833.4517,25807.5446
56358.5311,27933.1952,53828.7163,42017.1171,36617.2045,39131.1496,5929.336,50313.279,44212.7287,55920.6158,266.6116,-818.8337,25813.4007
56367.0695,27932.1671,53830.7726,42026.3261,36627.2628,39131.4626,5934.0745,50319.0011,44221.8482,55924.3262,276.8487,-806.3167,25818.7205
56351.7809,27929.2166,53833.6337,42025.7896,36613.7624,39129.5403,5939.573,50306.7523,44217.6908,55917.3971,271.4843,-809.7142,25821.0003
56342.3932,27926.4003,53840.1157,42021.6769,36593.7799,39131.2391,5943.3728,50290.6591,44215.0086,55915.0726,261.5601,-817.8502,25826.5883
56341.8567,27926.5791,53842.2614,42020.2017,36600.3513,39132.8037,5945.608,50291.0614,44219.3002,55918.6488,271.3054,-811.86,25831.5951
56358.844,27934.894,53848.0729,42033.5233,36626.9946,39144.9183,5950.0784,50325.9301,44230.3419,55923.2086,291.1538,-795.6326,25834.1432
56372.1657,27945.9804,53851.7386,42045.2356,36643.5796,39151.2662,5953.1182,50342.2022,44234.8123,55925.0861,300.0051,-786.6472,25835.4396
56357.8159,27944.1029,53851.7386,42030.707,36620.6914,39147.5558,5949.5419,50324.4549,44219.3896,55919.9005,282.2578,-799.5665,25831.4162
56337.1181,27926.7579,53843.7366,42013.4068,36592.9753,39136.827,5944.401,50291.9108,44203.0728,55911.5857,258.5649,-814.2292,25820.8662
56337.5205,27928.6355,53835.2877,42009.1599,36595.2104,39131.9096,5935.9968,50281.3607,44204.1904,55908.9929,259.8614,-816.5091,25815.6359
56351.8703,27928.4567,53829.1633,42011.1716,36615.9081,39129.0039,5931.437,50308.004,44214.8298,55915.6537,273.1383,-808.8648,25816.8429
56351.3339,27921.4382,53822.5025,42011.6186,36615.6399,39122.4325,5925.7597,50319.4034,44213.0864,55914.1785,271.9313,-815.3915,25815.323
56338.5934,27912.6763,53816.0652,41999.0122,36594.9869,39113.0447,5919.8588,50295.7106,44200.3459,55906.713,253.424,-833.72,25806.7846
56319.2815,27906.0602,53813.1148,41981.8908,36567.9413,39103.3888,5916.5955,50268.8438,44182.688,55894.4643,229.5077,-848.8744,25797.084
56322.5895,27909.5471,53816.244,41986.5847,36570.6682,39104.9534,5918.6518,50266.2957,44189.5276,55899.5605,235.9897,-840.6043,25800.9732
56348.3387,27918.7113,53819.5521,42004.2425,36598.9208,39111.1225,5923.8374,50293.2519,44209.4654,55911.1387,253.6923,-823.1252,25808.8857
56364.6555,27923.584,53825.1847,42012.5127,36615.6399,39121.6278,5927.816,50313.9943,44214.9192,55915.2514,263.2588,-816.9115,25812.7302
56361.4368,27924.7463,53833.6337,42005.4048,36599.949,39124.8018,5931.3923,50301.1197,44212.1029,55918.1571,259.7719,-815.3468,25813.4454
56350.7974,27922.2876,53838.2828,41996.2853,36582.0676,39120.5102,5934.3427,50279.2597,44204.2351,55909.8423,247.6126,-825.9863,25812.5067
56363.8508,27932.2118,53844.8095,42008.4447,36594.8528,39128.1098,5943.3728,50286.5463,44212.2817,55917.8889,260.0849,-817.582,25820.1957
56386.4261,27941.1525,53845.3013,42023.6886,36625.6088,39135.2624,5944.2669,50317.0788,44219.2107,55926.6061,277.6086,-800.7288,25826.1859
56390.1812,27943.5664,53847.0,42025.5661,36636.6506,39138.4363,5945.8762,50329.5958,44227.7938,55928.2154,283.8224,-799.2536,25827.9294
56376.7701,27937.7997,53849.3246,42015.1055,36617.4728,39135.2624,5949.7207,50317.8388,44224.5305,55927.1425,276.6699,-806.0485,25826.6777
56357.95,27924.4334,53841.9485,42003.2591,36592.26,39123.5948,5943.1493,50290.1226,44210.5383,55920.1241,259.8166,-819.0125,25818.6311
56357.95,27917.7278,53838.9534,41994.8101,36588.8625,39116.9339,5940.1095,50288.5133,44215.4557,55918.4253,257.7603,-821.1136,25817.0217
56370.6458,27926.5344,53840.1157,42008.3553,36610.6331,39119.7056,5939.3942,50317.9282,44231.5489,55928.2601,277.1616,-809.4907,25825.6495
56375.3843,27925.0592,53837.7017,42016.983,36615.5058,39117.5151,5939.0366,50321.3257,44231.8618,55929.7353,280.2014,-807.032,25823.5931
56348.8305,27914.7774,53834.8854,41999.7275,36587.9238,39109.2002,5930.4088,50293.6989,44210.27,55921.1522,263.9741,-821.6053,25815.9041
56331.0385,27912.7657,53832.2926,41991.1444,36569.3271,39099.7678,5926.3855,50272.5542,44201.0611,55912.0774,249.4007,-829.6967,25813.8925
56338.6381,27914.3751,53830.6385,41988.2834,36572.5458,39097.935,5923.0328,50283.1936,44205.5315,55910.1105,251.1442,-823.5723,25812.5961
56367.4271,27915.5821,53834.0807,42005.986,36601.916,39110.4072,5927.2796,50318.107,44226.2292,55922.8957,269.3385,-810.2953,25818.4522
56377.3513,27919.0689,53836.1371,42011.1716,36608.9344,39117.5151,5927.7266,50328.8805,44229.4478,55922.091,272.6465,-813.3352,25817.2899
56359.3805,27914.7774,53832.7843,42002.3203,36590.5613,39110.586,5923.1669,50308.3616,44214.5616,55917.8442,259.1908,-825.0475,25809.0645
56336.8499,27904.2721,53830.3256,41990.4739,36568.0754,39100.7513,5917.4448,50291.1508,44196.2332,55913.955,242.6058,-838.5032,25804.3259
56337.3417,27901.9475,53828.3139,41989.2222,36572.7693,39103.8358,5916.4613,50295.9788,44200.6588,55914.3573,244.2151,-837.6092,25805.5329
56366.6672,27917.0573,53833.9019,42009.4281,36605.671,39113.0447,5924.2845,50318.0623,44222.2953,55920.1688,266.5669,-820.1748,25811.8808
56372.4339,27920.0524,53834.2148,42014.3902,36611.5272,39118.6774,5925.9385,50332.1439,44228.7773,55919.3194,275.2393,-814.9892,25811.7914
56357.8606,27917.6831,53835.4218,42006.7906,36602.0054,39112.0166,5920.8423,50319.4034,44223.4129,55915.162,260.0849,-823.0358,25810.9421
56338.4145,27912.3187,53835.1983,42000.6216,36583.0958,39109.9602,5922.4069,50305.7241,44217.4673,55905.6848,248.9537,-829.652,25811.0315
56344.3154,27914.4645,53834.3042,42005.7625,36585.7333,39109.8708,5927.9054,50319.761,44219.479,55910.0211,256.598,-824.6005,25815.1442
56359.2911,27922.0641,53832.0243,42016.7595,36604.9558,39115.1011,5927.816,50351.9922,44230.9678,55917.8442,273.2277,-813.1117,25819.6592
56373.3727,27925.5062,53831.0856,42027.7119,36617.3834,39122.656,5928.3078,50358.3848,44237.1368,55919.6323,282.3919,-806.4061,25823.1461
56367.0248,27918.4431,53832.2926,42016.3125,36608.4874,39118.3197,5926.2961,50333.932,44235.5722,55920.8393,272.3783,-815.2574,25821.7603
56346.4612,27909.6365,53833.0972,42001.918,36583.6769,39114.3858,5921.9599,50312.2956,44222.9658,55909.3505,253.0664,-829.1602,25813.0878
56351.0209,27916.1632,53836.7629,42006.7459,36587.4767,39124.6676,5927.2349,50320.7892,44228.7773,55909.127,256.4639,-821.5606,25816.53
56378.5136,27926.8473,53842.0826,42018.4135,36609.292,39132.7143,5934.1639,50353.9145,44255.0182,55932.9093,276.7593,-801.8464,25827.84
56387.9907,27925.7298,53844.4072,42024.4932,36617.9198,39137.7658,5935.9968,50364.688,44258.8627,55941.8947,282.8836,-795.722,25828.4211
56378.2901,27927.1156,53845.8824,42018.8606,36611.259,39138.8834,5933.0016,50358.4296,44240.0426,55935.2338,272.6912,-806.8532,25822.9226
56362.5544,27920.3653,53842.6638,42004.6002,36586.5827,39127.6628,5929.2018,50341.3975,44222.2953,55925.9802,258.2967,-823.0358,25817.2005
56365.7284,27918.4878,53844.8542,42012.9597,36593.2882,39132.2225,5929.783,50337.9107,44230.2972,55921.7781,259.459,-821.963,25820.5533
56382.3134,27917.7278,53837.9699,42016.2231,36615.1929,39135.7541,5925.8938,50359.7707,44248.6256,55924.5497,269.5173,-813.9163,25822.3414
56388.393,27912.721,53834.1254,42024.672,36625.5194,39139.0175,5925.2232,50367.7726,44257.164,55928.8412,280.6485,-805.8697,25826.1412
56369.0364,27902.5286,53833.9913,42015.9101,36607.2357,39128.8698,5917.5342,50351.9475,44245.4517,55924.4603,267.7292,-817.3585,25819.3463
56346.193,27899.2653,53831.8902,41998.0735,36584.2581,39115.5928,5912.8851,50334.9155,44227.8832,55917.263,246.495,-829.8755,25810.5844
56349.501,27901.0534,53830.1915,41993.4243,36580.1901,39112.3742,5909.8452,50333.1274,44237.2262,55919.4088,246.6738,-829.4731,25809.6904
56375.4737,27915.0903,53834.9301,42015.6419,36603.8382,39124.7571,5916.5508,50360.173,44251.3525,55928.573,268.9809,-812.307,25820.4192
56381.4193,27922.4664,53834.2595,42021.7663,36618.5904,39128.2886,5920.0376,50375.5957,44252.8278,55933.6692,275.6864,-808.7754,25818.8993
56365.639,27918.9348,53833.0525,42005.5389,36600.2619,39123.6842,5919.233,50362.1399,44237.4498,55929.7353,260.8001,-818.9231,25810.7185
56347.4,27912.274,53833.2313,41997.537,36583.7663,39117.2022,5917.7577,50340.5482,44226.3186,55922.0016,247.8808,-826.925,25810.9868
56355.1784,27916.7444,53836.2265,42002.3203,36596.4174,39123.863,5919.7694,50344.4821,44230.2972,55918.3806,255.6145,-824.1981,25815.1442
56380.7935,27926.4897,53839.0428,42014.9714,36623.1948,39134.5471,5925.5809,50379.8425,44246.9716,55928.4389,271.4843,-805.4227,25822.252
56390.0918,27925.998,53833.6784,42020.2464,36625.43,39135.9776,5924.955,50384.9834,44254.6606,55932.2834,278.1898,-802.5169,25823.1014
56378.4242,27928.9931,53833.8572,42016.2678,36612.9577,39131.3285,5921.3787,50368.3984,44241.7413,55924.2815,268.1315,-812.3517,25820.7321
56360.9898,27923.9863,53834.5724,42010.2775,36589.8013,39124.2206,5919.5459,50338.7153,44227.5256,55915.5196,255.1675,-823.9299,25815.3677
56363.0909,27917.5043,53840.7415,42007.5953,36597.4009,39124.7571,5917.9813,50343.3198,44233.5159,55915.162,254.7652,-825.0475,25814.6524
56390.6729,27931.273,53845.9718,42030.3047,36622.569,39135.3965,5923.9268,50371.2147,44250.3244,55922.8957,274.7029,-809.5354,25820.4192
56392.8187,27933.687,53847.2682,42033.1657,36625.9664,39138.9281,5922.1834,50375.3722,44258.6392,55930.3612,279.8885,-805.378,25820.6874
56363.4485,27921.0806,53843.8261,42010.1434,36605.4475,39131.2391,5911.991,50350.6511,44239.8638,55921.1522,263.5717,-820.4877,25811.2997
56338.9957,27907.0884,53835.4218,41993.3796,36571.6517,39117.2022,5905.1067,50321.7727,44224.1281,55909.7975,244.6175,-832.513,25803.0295
56345.433,27905.9708,53833.8572,41995.0336,36573.8869,39114.8329,5907.6995,50326.3324,44233.1582,55912.3009,250.6971,-826.6121,25804.1918
56366.4883,27914.4198,53838.4169,42010.1434,36603.8829,39127.2157,5914.2709,50358.3401,44248.6703,55925.5779,274.2559,-809.893,25812.2832
56372.2551,27915.895,53837.2546,42019.397,36613.4048,39128.4227,5916.5508,50369.7395,44251.2184,55928.6624,279.7544,-808.5966,25816.7982
56358.844,27911.067,53834.3042,42014.4796,36589.2202,39120.8231,5913.5556,50345.8679,44235.9298,55920.8393,263.0353,-826.6121,25810.7632
56345.88,27908.0719,53830.7279,42003.7955,36569.5059,39114.8776,5908.5935,50322.8903,44225.1563,55915.7431,246.9867,-839.2632,25805.667
56343.6896,27904.2721,53825.8553,41999.504,36578.7596,39115.8164,5904.7937,50325.2149,44225.1116,55910.4681,247.8808,-834.2564,25803.6554
56364.1638,27915.5821,53830.8173,42011.708,36610.2755,39122.209,5910.337,50353.6016,44250.3244,55928.6177,263.2588,-818.8337,25812.1938
56368.9917,27916.1185,53831.9796,42012.0209,36616.6681,39120.3761,5911.4546,50361.9611,44260.6062,55933.3116,268.2209,-816.0621,25814.9654
56355.9383,27905.5685,53832.7843,42008.2211,36607.8615,39114.9223,5913.4215,50353.4675,44254.0348,55929.6012,259.012,-827.9532,25812.9537
56343.9578,27896.896,53835.1089,41996.0171,36580.0112,39109.2896,5910.4264,50328.8805,44242.5907,55925.712,246.0927,-840.3808,25809.288
56347.8917,27902.6181,53836.0924,41990.3398,36582.5593,39113.4471,5907.3418,50339.6094,44246.9269,55925.4438,250.2948,-834.7929,25808.9304
56365.7731,27914.8668,53838.8193,42007.5506,36607.9062,39125.07,5914.3603,50371.2595,44262.439,55932.9093,270.2773,-820.3536,25813.7137
56376.6807,27921.0806,53840.2051,42017.0724,36623.463,39132.3566,5914.9414,50383.8658,44266.2835,55934.9656,278.9944,-810.9212,25816.083
56366.533,27921.17,53837.7464,42008.7129,36609.4708,39124.7123,5916.6402,50373.584,44254.6606,55930.3612,272.423,-816.1515,25812.2832
56336.537,27912.8999,53834.1254,41997.1347,36583.811,39118.4539,5915.1202,50347.8795,44238.7015,55922.8063,255.6592,-831.6636,25808.7516
56342.1249,27911.2011,53830.7726,42000.1745,36586.225,39123.8183,5912.5721,50344.795,44239.6402,55918.47,257.8497,-829.0708,25809.3774
56373.2833,27917.3702,53828.9845,42014.9714,36614.2094,39130.792,5914.5838,50368.7114,44252.2913,55922.538,273.0936,-818.2526,25813.0878
56383.3416,27924.7016,53832.5161,42025.432,36625.2065,39134.5918,5912.3039,50381.6307,44256.9405,55926.6061,279.4415,-811.547,25819.2122
56367.9636,27913.2575,53830.6385,42015.6419,36604.9558,39126.1429,5908.7723,50358.8766,44247.2845,55921.9569,262.4989,-820.7113,25814.4289
56345.2095,27900.7405,53830.8173,42007.4612,36576.5244,39114.6094,5905.956,50335.8543,44231.7724,55914.5808,243.4999,-836.8492,25806.6058
56353.0326,27909.5471,53834.1701,42017.1618,36589.399,39120.3761,5914.0474,50347.7454,44242.6354,55916.9501,254.7204,-826.3886,25809.1539
56371.6292,27917.102,53834.3489,42024.7167,36621.4961,39126.4558,5916.3272,50382.2118,44257.7451,55931.3893,270.2326,-815.2574,25816.4406
56373.8197,27917.4596,53839.4451,42030.707,36630.1239,39126.0087,5916.6849,50403.6695,44271.6479,55936.262,276.8934,-810.7424,25817.9605
56359.2017,27910.7988,53841.6356,42021.4534,36610.4096,39119.7056,5918.1601,50386.3692,44267.7587,55932.1046,267.8633,-818.0737,25814.7418
56346.8188,27906.7308,53836.8523,42008.6682,36582.0229,39117.9621,5919.8588,50363.794,44252.8278,55926.3378,251.4571,-827.1486,25811.6573
56350.3057,27912.4528,53838.2828,42016.4019,36590.606,39125.3382,5923.9268,50370.723,44255.5547,55932.641,259.4143,-818.6996,25815.1442
56372.3445,27918.7113,53839.5792,42026.4602,36615.9976,39128.6016,5923.5245,50388.9173,44268.2058,55939.123,280.2461,-803.7239,25821.9391
56381.3299,27925.3274,53840.1157,42030.707,36625.9664,39133.6083,5926.2514,50399.7803,44268.0717,55942.744,289.9021,-799.2089,25823.772
56372.568,27923.8522,53843.9155,42026.5496,36614.9694,39132.0437,5927.4137,50389.1855,44257.8793,55941.5817,278.3686,-812.1729,25818.8099
56356.9218,27915.5821,53846.5977,42020.7381,36586.0462,39128.7357,5924.0162,50361.5141,44240.579,55932.4622,259.8614,-824.2875,25814.3395
56363.4485,27913.3469,53847.9388,42021.9004,36592.7517,39129.898,5924.0162,50363.9281,44246.8822,55930.4506,260.3531,-819.7278,25813.3113
56380.4358,27918.7113,53846.2847,42026.2814,36614.6117,39135.2624,5921.7364,50385.8775,44257.7004,55938.1843,270.4114,-811.3235,25817.0664
56389.6,27919.8736,53846.7765,42039.4242,36627.9781,39143.5325,5921.4681,50391.4654,44260.3379,55939.5254,278.7709,-808.9542,25819.5698
56379.6312,27914.5986,53848.1623,42038.7536,36619.7973,39140.7162,5918.6518,50375.5063,44244.6917,55932.3281,269.0256,-821.6053,25819.7933
56362.5097,27908.4295,53847.2682,42024.985,36597.7585,39133.4742,5913.3321,50358.1613,44238.7015,55926.8296,253.1558,-830.0096,25813.2219
56358.7546,27910.1282,53845.5248,42020.7381,36596.5515,39137.1399,5910.024,50367.4597,44238.8356,55922.3145,252.3959,-826.3886,25812.2385
56380.0782,27917.8619,53841.0097,42030.1706,36617.5175,39147.4664,5912.3933,50393.7453,44249.0727,55921.1522,269.6514,-816.2856,25817.0664
56384.2356,27916.7444,53835.6453,42030.8411,36622.6584,39142.3702,5908.9512,50398.8862,44249.922,55920.8393,275.6864,-813.6928,25816.6194
56362.5097,27906.2837,53833.7678,42014.9267,36598.3397,39134.0554,5904.7937,50379.5296,44243.0824,55924.1474,260.3978,-825.3157,25809.6009
56353.4349,27892.068,53830.0127,42004.5108,36580.2795,39129.5403,5901.441,50349.3547,44231.5489,55910.9151,244.841,-838.0562,25804.5495
56365.639,27894.3032,53827.6434,42002.9014,36576.9714,39133.2954,5901.0386,50348.8183,44229.0008,55907.3389,249.356,-837.1621,25802.9401
56389.8236,27906.7308,53828.0457,42014.0773,36603.1677,39145.5889,5905.0173,50372.377,44242.7248,55913.0609,267.3715,-820.6218,25807.6787
56391.5223,27906.0155,53825.7211,42018.95,36612.0636,39143.8901,5906.269,50375.998,44247.1951,55911.3175,273.5853,-813.6928,25807.8128
56370.7799,27899.8017,53822.8154,42011.4845,36591.0977,39130.1662,5901.0386,50361.38,44233.7841,55900.5886,258.5202,-824.824,25802.0908
56344.8519,27889.0729,53821.8766,41999.5487,36562.5769,39120.9573,5897.9988,50337.8659,44214.3381,55892.2291,238.1802,-844.1806,25797.2628
56342.5273,27884.8261,53824.1565,41996.1065,36567.4943,39111.6589,5894.199,50336.8378,44217.959,55894.2854,238.359,-842.1242,25798.5145
56361.1686,27892.7386,53829.208,42002.1862,36596.9092,39113.6706,5903.8103,50365.7609,44229.8949,55907.6518,255.3016,-826.9697,25805.2647
56365.639,27896.2255,53831.3538,42000.3086,36608.6662,39115.3693,5909.4876,50379.3955,44229.2243,55916.369,263.2588,-818.6549,25812.149
56344.0025,27896.2702,53830.415,41992.3961,36598.1162,39113.7153,5912.3933,50362.1399,44216.3497,55912.8374,252.53,-828.2661,25810.5397
56325.6741,27902.8416,53830.415,41982.3378,36582.6935,39106.2498,5913.0639,50333.5744,44194.4003,55903.405,235.7215,-842.4819,25808.6175
56327.9986,27908.2954,53828.0904,41980.1921,36586.0015,39108.5744,5914.5838,50322.0856,44194.5791,55900.0522,238.1802,-840.7384,25807.0529
56348.9199,27917.6384,53836.0924,41991.4126,36620.7361,39121.2702,5922.2281,50340.9505,44206.1126,55905.3272,256.5533,-823.1252,25811.0762
56351.915,27923.4052,53835.5112,41994.8101,36628.2016,39120.689,5928.3525,50346.449,44201.7317,55902.5556,263.7058,-814.9445,25812.6855
56327.7304,27921.617,53839.1322,41990.1609,36610.1414,39108.5297,5930.3194,50325.4384,44192.8804,55907.5624,255.6145,-826.2545,25812.7749
56306.8539,27913.5704,53838.9981,41978.091,36587.2532,39098.4714,5925.2679,50289.2286,44176.3848,55895.3583,242.5611,-840.0679,25808.7069
56306.3174,27916.7891,53833.6784,41977.4204,36590.5166,39098.5161,5922.7198,50274.834,44168.2041,55891.1115,246.0033,-840.0232,25809.1986
56329.7868,27926.7579,53833.9913,41993.5137,36621.4961,39109.3343,5929.4254,50300.9856,44182.9562,55899.784,262.9012,-825.718,25813.8925
56334.123,27927.9202,53835.9135,41995.7042,36630.5262,39115.1458,5930.5429,50302.4161,44185.8619,55902.5556,273.4065,-819.4149,25814.8313
56317.0463,27923.8075,53833.1419,41985.1094,36608.7109,39106.4286,5925.8938,50275.1023,44174.6861,55893.1231,262.6777,-831.2166,25809.0645
56296.6615,27916.342,53828.4928,41971.0726,36585.5992,39092.4364,5922.2281,50242.2899,44157.2517,55882.439,244.1257,-843.823,25803.0295
56299.2543,27918.8007,53829.6103,41974.4253,36583.364,39097.175,5924.9103,50239.5183,44160.6045,55882.6625,249.6243,-836.7151,25803.7895
56312.9783,27929.4401,53829.8786,41994.0501,36603.8382,39108.6191,5927.2349,50262.0041,44173.9708,55891.6926,269.9643,-821.2477,25813.4454
56316.331,27927.2497,53825.8106,42000.4874,36612.6448,39108.0379,5922.8987,50262.183,44174.7755,55889.0998,274.7476,-816.7773,25812.8196
56302.16,27926.0427,53820.8932,41988.6857,36595.7916,39102.6288,5919.1883,50243.0052,44162.7055,55883.5119,253.5135,-827.3274,25808.1257
56286.782,27920.0524,53820.8038,41979.0745,36569.8189,39096.1915,5920.4847,50214.5737,44139.8621,55876.4935,239.3425,-842.2583,25801.5096
56293.3087,27923.6287,53826.3917,41979.3427,36572.7693,39098.7843,5922.8092,50203.6214,44138.3421,55875.2418,245.0198,-836.3128,25801.8225
56315.5264,27926.9367,53828.0457,41999.2357,36601.603,39110.2284,5929.2018,50229.6388,44155.0165,55878.7733,264.7787,-818.4314,25811.4338
56322.9471,27931.3624,53827.6881,42005.6283,36610.052,39114.0729,5932.0182,50243.8545,44157.4752,55876.717,269.7408,-810.0718,25810.1821
56315.1687,27929.4848,53831.9796,41992.7537,36593.0647,39107.1439,5933.091,50220.117,44153.9437,55885.1212,255.7933,-818.6102,25809.8245
56304.3058,27921.7511,53835.1983,41983.9025,36571.7411,39103.1206,5930.8112,50190.255,44147.5064,55882.6178,247.3891,-833.8541,25806.2929
56308.0609,27922.1982,53835.5559,41986.8976,36577.8655,39108.2168,5930.6324,50200.358,44146.3441,55880.5615,256.0169,-833.1835,25804.4153
56331.262,27933.8658,53838.8193,42004.6002,36604.7323,39117.4704,5938.3214,50224.0956,44158.0564,55887.5352,274.0771,-815.928,25813.5796
56341.4097,27941.7783,53839.4898,42010.0093,36617.5622,39123.3712,5943.5517,50229.5047,44164.8513,55891.6926,283.2413,-806.5403,25819.9722
56330.055,27944.4158,53839.6686,42001.605,36602.8547,39119.482,5941.987,50214.7526,44157.0282,55884.406,272.423,-815.2127,25819.6145
56311.9054,27930.7812,53835.243,41984.3942,36569.5059,39109.7367,5935.4603,50179.1686,44141.9631,55876.1358,251.6806,-827.9979,25812.3726
56315.5711,27923.0922,53833.8125,41980.1921,36569.8189,39107.6356,5934.0745,50177.6487,44137.4928,55876.8511,252.0829,-830.6354,25811.4785
56340.7391,27930.2001,53837.1205,41986.987,36595.0763,39109.5579,5936.0415,50209.0305,44156.9388,55887.6693,270.9478,-814.9892,25818.6758
56347.8917,27933.9999,53837.0311,41995.1677,36604.6876,39116.8892,5937.025,50224.7661,44173.1662,55893.1679,285.7,-805.9144,25824.219
56339.2192,27926.2215,53834.1701,41989.2669,36589.399,39110.4966,5933.6722,50206.2142,44163.6443,55887.6693,277.8769,-813.6481,25819.7039
56318.8344,27914.6433,53828.4481,41964.4564,36559.5371,39096.9068,5926.2961,50175.2347,44148.5345,55876.404,255.0781,-833.8094,25810.2268
56327.194,27915.6268,53828.3587,41967.8539,36564.0968,39103.657,5925.8491,50177.7381,44152.692,55881.4108,258.9673,-828.7579,25810.2715
56357.8606,27918.5325,53826.3917,41980.058,36595.7469,39112.8212,5925.8491,50195.9324,44167.1759,55886.3729,279.3074,-815.4362,25815.4571
56364.2979,27926.9814,53826.1682,41986.227,36610.2308,39110.7649,5927.2796,50216.5854,44169.2322,55883.0649,281.0955,-816.4644,25812.909
56345.88,27928.0543,53830.1468,41980.8626,36601.916,39110.3625,5931.1688,50216.0937,44167.0865,55893.5702,272.6018,-823.9299,25812.5961
56330.3232,27919.4713,53834.796,41968.9715,36584.8392,39107.1439,5929.4701,50196.6476,44167.6229,55893.6149,258.7438,-835.5975,25810.9868
56332.469,27915.4032,53835.1536,41971.3408,36583.9452,39102.0924,5927.1455,50187.6175,44166.0583,55893.1679,257.4921,-837.4304,25811.7467
56345.2989,27914.0174,53829.8786,41978.6721,36607.4145,39098.0691,5929.1571,50213.2773,44177.8153,55902.3321,276.5805,-820.5771,25818.4522
56351.1103,27914.5092,53831.8902,41985.8247,36619.0374,39100.796,5932.7781,50221.5475,44191.0475,55908.5011,289.3209,-809.893,25823.0567
56341.6332,27912.274,53831.5326,41976.6158,36595.8363,39097.3985,5927.5925,50201.9674,44176.966,55903.1367,274.4347,-823.0805,25815.9935
56323.4389,27904.2274,53830.0574,41961.6848,36564.1415,39085.9097,5917.7577,50178.4086,44153.5413,55894.5984,244.7069,-841.2749,25803.566
56325.7635,27901.724,53829.0739,41967.0939,36559.09,39089.4413,5919.3224,50186.187,44153.899,55891.4244,249.2666,-835.1058,25802.9401
56351.468,27914.3751,53832.5161,41984.5283,36591.9471,39104.6405,5924.1056,50212.9197,44176.8318,55900.9463,278.011,-817.4479,25808.841
56364.9684,27922.5558,53834.5277,41990.1609,36602.0948,39112.553,5925.8044,50228.6553,44178.1282,55904.299,279.7097,-817.2244,25812.149
56345.0754,27911.7823,53834.0807,41974.6041,36585.4651,39102.6288,5918.6518,50209.3434,44162.9291,55899.2028,262.3647,-830.7695,25805.1753
56325.5399,27911.067,53829.6103,41964.5905,36565.7061,39095.1186,5918.6071,50199.1063,44158.7716,55892.1397,251.2336,-844.5382,25798.3357
56332.1561,27913.7045,53826.3917,41966.3787,36575.3174,39097.4432,5917.3107,50207.9576,44169.8581,55887.0882,253.6476,-839.4867,25797.9333
56359.2911,27923.9416,53825.9894,41985.9141,36606.0287,39110.2284,5920.7529,50237.6854,44171.4674,55884.3613,266.701,-821.9182,25801.3308
56371.4951,27932.7035,53825.9447,42000.711,36616.6234,39116.1293,5922.1387,50240.9488,44177.8153,55892.2738,275.4629,-816.2856,25806.9187
56355.6254,27936.5033,53827.0175,41992.8879,36598.4291,39112.5977,5920.2164,50224.5426,44178.1729,55885.7918,264.9128,-821.2924,25806.3823
56342.2143,27934.9387,53831.175,41984.0813,36577.4184,39114.6988,5918.026,50210.1481,44166.2818,55880.2038,254.4522,-830.7248,25805.0412
56342.8402,27928.412,53829.8786,41981.1755,36579.743,39123.3265,5913.5109,50218.91,44171.5121,55879.9356,259.5931,-831.3507,25807.8128
56369.5282,27934.0446,53825.9894,41998.3417,36602.0501,39130.345,5911.544,50251.5435,44187.7842,55889.9492,273.4959,-820.9348,25811.4338
56371.4504,27936.4139,53827.2411,42002.365,36613.8518,39131.4626,5915.8802,50263.7923,44195.5179,55894.3748,279.4415,-816.4644,25812.2832
56356.9665,27927.7414,53826.0788,41995.4807,36594.4505,39128.6463,5915.9696,50244.7039,44182.8668,55882.6625,267.3715,-824.5111,25809.6904
56342.4826,27918.8454,53828.6269,41989.1775,36576.3456,39121.2255,5915.7908,50225.7496,44169.9922,55876.1805,255.1675,-836.8045,25806.0247
56351.155,27916.4761,53826.9728,41992.8432,36581.5759,39123.0583,5917.0872,50227.1354,44181.3022,55883.1543,259.1014,-832.7812,25808.1704
56380.0335,27922.6005,53830.0574,42005.0919,36606.4757,39130.9708,5920.8423,50255.2539,44209.6442,55895.8948,275.5076,-819.3254,25815.5465
56385.1297,27925.1933,53832.5608,42009.8305,36616.5787,39134.3683,5923.2116,50270.9001,44215.6345,55896.5653,283.1519,-813.5587,25818.1393
56365.5943,27922.9581,53837.5676,42003.2144,36606.5204,39135.8435,5925.8938,50263.4794,44204.5033,55896.6547,274.4794,-817.8502,25819.0781
56346.1035,27918.2643,53837.5229,41991.3679,36590.4272,39131.1496,5927.4137,50244.4357,44194.892,55894.6431,260.1296,-830.8142,25815.5465
56354.3737,27921.7064,53841.3674,41987.7917,36594.0928,39129.6744,5928.6207,50243.8992,44194.9368,55896.9229,262.1859,-826.9697,25819.5251
56375.5631,27931.5412,53843.5131,42001.5156,36622.7031,39137.1846,5936.5779,50268.9332,44210.4042,55906.6683,284.0459,-805.8697,25827.2588
56376.8148,27940.1243,53841.725,42002.7226,36634.6389,39131.999,5935.9968,50285.5629,44210.7171,55911.8092,289.6786,-801.2652,25825.1578
56365.2366,27942.583,53843.379,41989.8033,36618.9927,39121.7172,5936.1309,50273.4482,44211.79,55911.8986,276.4463,-816.5091,25820.7768
56342.259,27928.412,53841.7697,41976.0346,36595.5234,39114.2517,5935.3709,50245.9556,44205.6209,55908.1435,262.6777,-829.1155,25816.977
56351.7809,27928.2779,53839.758,41978.538,36601.5136,39114.1623,5938.0084,50250.9624,44203.788,55909.2611,268.1762,-823.617,25817.737
56362.7332,27936.3692,53841.2333,41984.4389,36623.463,39118.7668,5936.8908,50279.3044,44222.1612,55915.7431,280.2908,-812.5752,25823.4143
56363.5826,27941.6442,53839.4451,41982.3825,36630.3027,39119.3926,5935.9521,50284.5347,44234.2311,55918.2465,279.7991,-807.8814,25825.9177
56356.0277,27941.5548,53836.5841,41981.0861,36619.8868,39118.0962,5938.3214,50271.3472,44220.0601,55914.3573,268.8468,-813.2011,25820.7768
56344.7624,27928.859,53833.4548,41971.5196,36593.5564,39111.7036,5930.99,50250.113,44196.3226,55906.6683,251.9488,-829.1155,25816.083
56347.087,27926.3109,53834.483,41971.5196,36596.6409,39109.5579,5932.9569,50246.2238,44199.4965,55908.4117,256.4192,-825.6286,25816.6194
56365.639,27932.927,53835.3771,41986.1376,36617.6516,39117.9621,5938.5896,50272.7777,44224.2622,55914.6255,276.6252,-809.0883,25820.1063
56380.8829,27938.5597,53838.8193,41996.1959,36637.3211,39123.9524,5943.7305,50293.2072,44233.4712,55919.0959,286.9517,-801.4888,25825.2025
56371.8081,27936.2351,53841.0991,41991.8597,36628.3804,39121.3149,5948.6032,50276.1304,44218.1826,55913.5079,278.3239,-808.9542,25823.1014
56353.5243,27936.6821,53844.586,41984.3495,36599.9043,39118.588,5949.4972,50254.8963,44201.8658,55907.92,269.2938,-816.6432,25821.0003
56355.983,27936.2798,53847.3129,41985.2883,36596.5515,39126.6346,5948.2902,50259.0537,44211.3876,55908.7694,271.0819,-813.5587,25822.6544
56375.1608,27943.7006,53850.174,41999.3699,36630.7944,39137.1846,5949.8996,50282.836,44226.8997,55917.3524,290.7515,-796.6608,25827.9294
56376.8595,27940.7948,53850.3081,42002.9908,36641.8362,39137.0952,5949.4972,50295.3529,44226.9444,55918.7829,298.1275,-791.2517,25829.8516
56360.8557,27929.5743,53848.2964,41992.1279,36619.4397,39131.999,5945.0716,50280.3773,44208.3478,55910.4681,287.5775,-804.2604,25824.3531
56339.711,27917.6384,53846.1506,41973.1289,36592.0812,39125.7405,5940.1542,50257.7573,44197.1719,55908.8141,268.1762,-817.0903,25821.7603
56338.951,27908.2954,53841.278,41970.7149,36591.0083,39124.3547,5935.2368,50255.5668,44201.9105,55907.92,267.1033,-817.2691,25819.0334
56358.7546,27915.8056,53840.3839,41982.7849,36614.0306,39131.7308,5935.1474,50277.1139,44216.8415,55915.6537,283.0178,-805.825,25825.3366
56354.329,27924.5675,53842.7532,41990.1609,36625.1618,39135.3965,5938.5449,50280.109,44223.2788,55921.8228,288.9633,-797.4654,25827.84
56331.3961,27913.2128,53844.1837,41978.7169,36605.0899,39125.8746,5936.9802,50274.5658,44207.6325,55916.1007,275.3735,-806.9426,25819.8828
56313.5594,27900.3829,53839.0875,41965.5293,36583.5428,39113.8494,5931.8841,50255.2986,44187.8289,55907.5624,259.2802,-823.4829,25814.2501
56317.7168,27904.7638,53836.0924,41967.4069,36583.8557,39114.0282,5930.2747,50255.5668,44187.8736,55910.2446,265.2258,-824.6005,25815.8147
56341.8567,27913.3916,53835.8688,41983.366,36602.363,39124.5782,5932.1076,50274.387,44202.4916,55914.8043,279.665,-807.1661,25819.4804
56356.0277,27910.5753,53835.0642,41986.2717,36612.5107,39124.4441,5932.8228,50282.8807,44213.9357,55915.0279,285.2976,-806.0932,25821.4027
56336.2688,27902.171,53833.5443,41975.4088,36591.9918,39114.8329,5931.2135,50265.8486,44211.2535,55913.2397,274.1665,-815.928,25817.9605
56319.952,27904.4956,53837.1205,41976.9734,36571.1153,39113.6259,5934.5663,50244.9274,44199.2283,55910.2446,262.6777,-824.5558,25815.0548
56323.126,27909.6365,53837.5676,41979.745,36568.0307,39114.8329,5933.6275,50244.4357,44203.2069,55913.0609,262.9906,-821.9182,25816.3065
56355.9383,27917.6831,53842.8426,41994.1396,36599.0549,39128.1098,5936.0415,50279.7067,44221.0883,55925.4885,284.4036,-804.7521,25823.5931
56373.1492,27921.7064,53846.5977,41998.2076,36616.087,39129.3168,5939.6625,50296.6046,44229.7608,55930.5847,297.9487,-796.6608,25828.6893
56366.5777,27915.2691,53849.4587,41991.7256,36604.3746,39128.4674,5942.8364,50285.2052,44222.787,55924.9073,283.4648,-805.1991,25824.1296
56354.1502,27913.481,53855.3596,41985.2883,36594.0481,39128.9145,5946.2786,50261.1101,44210.4489,55921.1969,271.1713,-813.0223,25822.7885
56358.3076,27918.8901,53857.3712,41988.194,36601.2007,39127.6628,5945.2951,50269.5143,44225.201,55927.3213,274.0324,-809.0883,25826.633
56379.5418,27925.4615,53855.136,41997.6711,36623.3736,39135.7988,5943.4623,50291.6873,44238.9697,55929.1989,289.1868,-798.136,25829.1364
56390.2259,27923.0028,53852.1856,42002.0968,36633.6554,39135.0389,5943.4175,50299.1974,44236.6451,55926.2484,297.4123,-800.6841,25827.8847
56373.1492,27923.2711,53852.1856,41996.2853,36616.3552,39125.964,5946.9938,50285.2947,44229.5372,55919.9005,285.1188,-808.3284,25825.6942
56351.8703,27916.2973,53853.8843,41988.1493,36595.9704,39115.7269,5947.0832,50252.4376,44219.926,55918.0677,271.7078,-815.3468,25823.1908
56357.1453,27921.2594,53849.414,41983.1872,36590.0695,39117.6492,5944.1328,50251.0071,44220.5966,55913.3738,271.0372,-812.0835,25818.184
56373.328,27930.8707,53845.793,41991.502,36611.5272,39121.1808,5942.9258,50280.4667,44236.6004,55916.6372,285.8341,-804.5286,25822.2967
56377.1725,27928.0096,53844.8095,41996.1959,36621.8984,39121.4937,5940.4224,50293.386,44233.7841,55921.5546,293.389,-802.6958,25825.3813
56363.8061,27918.1749,53841.3674,41984.4836,36606.0734,39119.6162,5934.4769,50282.2995,44217.6908,55918.4253,277.4298,-813.5587,25820.1063
56345.0307,27908.653,53841.0097,41972.816,36580.1454,39111.3013,5927.4137,50259.2772,44205.5315,55911.8092,257.8497,-824.9581,25815.8594
56345.7906,27902.6628,53842.172,41969.5526,36577.0608,39109.692,5919.9929,50259.009,44212.3711,55911.541,254.7204,-825.0475,25814.3842
56361.571,27908.2507,53844.4519,41987.5234,36600.5749,39115.5481,5924.0162,50285.8758,44228.1514,55923.4768,271.6184,-813.2011,25820.4639
56372.9256,27911.6929,53841.3674,41997.09,36614.2988,39116.8445,5927.9501,50295.3529,44229.2243,55928.3942,279.7991,-806.8532,25821.4474
56366.846,27912.721,53841.8144,41990.5186,36602.6759,39111.1225,5927.5478,50285.3394,44219.7919,55921.5099,268.6232,-814.6763,25814.3842
56340.6944,27906.3731,53836.6288,41975.2747,36574.468,39101.1536,5920.3506,50260.663,44211.79,55912.2115,248.6408,-833.0494,25806.6505
56343.1978,27911.9164,53836.7629,41982.2037,36582.8723,39104.104,5918.8753,50263.3005,44216.3497,55913.642,253.2899,-827.6403,25809.1986
56364.5661,27917.2361,53841.4568,41995.7042,36614.0306,39114.967,5920.9317,50288.4239,44231.5936,55927.5895,277.0275,-810.34,25816.9323
56371.9422,27920.6783,53842.5744,41999.6828,36618.188,39118.9456,5921.0211,50301.5667,44240.1767,55932.194,281.9002,-804.7521,25819.3463
56362.3309,27923.4946,53843.2449,42001.5156,36610.2308,39118.1856,5925.8938,50302.1032,44233.8735,55925.712,274.8817,-813.9163,25819.391
56337.5652,27917.102,53838.9087,41989.8927,36592.0812,39114.1176,5924.8209,50282.8807,44221.8035,55920.4817,256.1957,-827.2827,25814.2501
56336.8052,27913.5257,53835.1983,41982.4272,36593.9587,39112.7765,5920.7082,50282.836,44221.7588,55921.1075,256.3298,-827.8191,25812.149
56363.5379,27923.5393,53835.0195,41998.5205,36621.4514,39120.1973,5924.2845,50313.0555,44239.6402,55929.8247,278.2345,-809.4013,25818.0946
56373.8644,27928.7249,53839.2663,42003.0355,36626.8158,39119.795,5928.8442,50329.7746,44246.0775,55928.5283,282.5707,-804.7968,25820.5533
56367.0695,27923.7628,53844.8542,41993.6925,36610.1861,39112.0166,5926.7431,50310.8203,44243.6635,55924.6838,267.0586,-811.5917,25819.6592
56347.3552,27920.9465,53851.1127,41984.9753,36590.6507,39110.6755,5929.4254,50290.8826,44234.1864,55921.0181,253.0664,-822.3653,25818.6311
56349.5457,27922.7346,53857.9971,41990.7868,36600.8878,39120.0632,5933.5828,50293.2966,44231.2807,55924.5497,258.5202,-817.7161,25822.2967
56372.6127,27926.6685,53855.2701,41997.2688,36617.4281,39126.0982,5932.4205,50321.5939,44244.5576,55934.0268,271.9313,-805.6015,25823.1908
56374.4456,27923.1817,53848.7434,41999.2357,36622.8819,39126.9475,5926.6984,50336.6143,44251.8443,55934.2504,272.3783,-806.0038,25820.4639
56365.326,27921.7958,53849.1011,41999.3252,36612.6448,39123.9077,5926.8326,50322.4432,44243.1718,55928.6624,267.3715,-813.5587,25820.6427
56349.8139,27910.7541,53848.2517,41995.0783,36595.7469,39117.5151,5924.8656,50291.4637,44225.961,55919.8111,253.1558,-824.5111,25817.9605
56350.9315,27908.4295,53844.9883,41995.3912,36599.3679,39116.7551,5925.5809,50294.6377,44230.9231,55918.5147,259.1014,-820.5771,25818.2287
56370.6011,27913.928,53843.7814,42006.2542,36625.43,39119.3032,5925.6256,50320.5657,44250.3244,55933.2669,277.7427,-808.1943,25822.8332
56377.2172,27906.552,53840.5627,42013.0044,36630.0792,39123.7736,5924.5974,50336.4801,44252.3807,55932.2834,285.7,-802.6958,25823.9955
56366.6672,27903.9592,53837.5229,42002.1862,36608.4427,39120.5996,5924.8209,50328.2547,44243.2165,55923.1192,270.4114,-813.9163,25821.3133
56345.2542,27898.9971,53833.0078,41994.9442,36587.2979,39113.6706,5924.1503,50298.9739,44228.1067,55914.9832,256.1957,-826.2992,25819.5698
56347.3552,27902.6181,53834.3042,41997.4476,36596.4174,39115.414,5925.5809,50304.4277,44228.4197,55917.1289,265.0023,-820.2195,25821.1344
56367.0248,27908.0719,53840.6968,42010.0093,36625.3406,39123.0583,5929.9171,50329.9981,44249.2515,55926.6061,285.5659,-802.7405,25826.9012
56373.1492,27904.2274,53837.657,42010.054,36632.0908,39124.8912,5926.1173,50334.6026,44250.1456,55927.366,282.3472,-799.6112,25825.8283
56361.8392,27896.8066,53834.1254,42005.2707,36612.8683,39120.5996,5921.4681,50318.7329,44240.4449,55920.6605,267.7739,-809.7589,25819.5251
56348.7411,27892.2021,53833.9913,41998.4311,36593.7799,39121.1361,5919.0989,50298.5269,44238.7462,55912.7927,259.9061,-820.8454,25816.2171
56358.5758,27898.7736,53837.8805,42000.3086,36593.6011,39130.9708,5922.4069,50310.1498,44242.9036,55915.2961,265.2258,-811.9047,25820.7768
56385.9791,27910.4412,53842.9767,42012.3339,36624.3124,39142.7726,5925.8044,50341.5316,44259.8909,55929.02,285.7894,-799.7453,25827.6165
56390.7176,27917.8172,53845.9271,42016.2678,36634.6389,39142.3255,5927.9054,50355.6132,44261.7685,55934.7868,293.7019,-794.7385,25829.7622
56380.1676,27915.3138,53841.9038,42008.8917,36611.4825,39129.0039,5924.6421,50341.9787,44247.3292,55924.9967,282.2131,-805.1544,25823.6825
56374.6691,27910.6647,53841.5909,41998.5652,36589.4884,39126.5899,5928.576,50325.3043,44234.1417,55919.9899,265.2258,-821.8288,25823.459
56375.8761,27906.3284,53841.3227,42002.7226,36597.0433,39133.206,5928.2184,50332.1439,44234.1417,55919.0512,265.2258,-818.8784,25823.6825
56393.3998,27914.5539,53844.1837,42014.122,36627.4416,39140.7162,5928.2631,50350.8747,44250.7267,55925.6226,282.6154,-802.9193,25827.3035
56398.3172,27921.5276,53845.7036,42015.3737,36622.3454,39139.1516,5925.2679,50358.8319,44253.543,55932.0152,288.1587,-799.8347,25827.4823
56380.3911,27918.7113,53845.4801,42003.5273,36608.1297,39132.5802,5923.3457,50342.8727,44245.854,55924.1921,279.0391,-809.3119,25823.6825
56356.6089,27916.7891,53847.3576,41993.6925,36590.0695,39130.6579,5924.8656,50320.2975,44236.8686,55918.0677,262.633,-822.1418,25819.2122
56357.637,27918.2196,53847.6259,41997.2688,36595.3445,39133.1166,5924.0609,50321.2363,44238.2544,55920.6158,267.1927,-819.3702,25819.4357
56383.431,27920.2759,53848.2964,42005.6731,36619.2162,39136.4247,5922.1387,50344.7056,44246.4799,55924.6838,275.7311,-810.5636,25820.8662
56387.5437,27918.6666,53844.139,42005.7625,36619.4397,39133.5189,5919.6353,50347.5666,44247.7763,55924.1027,276.9828,-809.2225,25820.6874
56369.4388,27912.5869,53837.9252,41993.6031,36603.2571,39123.3265,5916.6849,50331.6075,44232.8453,55919.1853,265.4493,-824.3769,25815.323
56344.4048,27907.8037,53837.4335,41985.1989,36592.4835,39118.2303,5915.8802,50313.4578,44223.5023,55915.9666,250.7418,-837.2515,25809.6009
