FC3,FCz,FC4,C5,C3,C1,Cz,C2,C4,C6,CP3,CPz,CP4
57184.3386,28515.8604,54277.9416,42717.5313,37088.8263,39712.6973,5816.7279,50392.9406,43796.0476,55934.2504,1001.3133,-440.6869,26471.0784
57172.358,28518.4085,54283.6636,42718.2019,37073.4036,39713.189,5820.3042,50371.5724,43783.62,55936.262,992.7303,-449.8959,26472.643
57193.2346,28526.634,54286.3458,42733.6693,37094.6378,39726.5106,5828.4849,50390.8396,43803.5578,55943.1463,1011.3269,-437.2448,26481.2261
57208.389,28531.1937,54282.859,42741.1795,37116.006,39731.2045,5825.8921,50405.4129,43816.9688,55945.3368,1026.0791,-424.4149,26481.7178
57206.0645,28530.5679,54285.4071,42743.7723,37119.0906,39733.7973,5826.4732,50405.9941,43817.9523,55938.7654,1023.3074,-424.549,26478.3651
57191.1782,28530.4785,54287.6422,42740.196,37110.284,39726.6001,5828.8425,50388.3809,43812.722,55941.8947,1013.3833,-433.4897,26478.9462
57170.8381,28519.7943,54279.4168,42729.646,37085.6076,39715.4689,5820.93,50369.5607,43790.549,55933.1328,998.4523,-445.2914,26471.3019
57170.9275,28515.5922,54273.2924,42728.1708,37084.5348,39717.4805,5816.102,50367.7279,43794.2147,55930.0482,998.6311,-441.581,26470.0949
57191.7593,28523.6388,54276.9134,42738.6314,37107.0653,39724.2308,5820.5277,50397.411,43809.9056,55936.262,1016.9595,-429.0193,26474.297
57191.1782,28518.3638,54277.4498,42739.6148,37109.077,39726.913,5820.7512,50403.893,43814.823,55932.9093,1017.8089,-430.584,26472.1066
57172.9839,28513.4017,54275.617,42735.6809,37092.6708,39725.7507,5817.8902,50386.7269,43805.2118,55928.1707,1004.0849,-440.5081,26465.8928
57156.3095,28501.2871,54269.895,42724.1921,37070.5873,39711.9373,5812.9728,50362.9446,43788.3586,55919.6323,985.7565,-459.5518,26455.7004
57168.3347,28503.4329,54267.5257,42730.3165,37084.6242,39710.9538,5813.4198,50376.1321,43792.1584,55923.0298,998.944,-452.5334,26457.7121
57191.3123,28509.4678,54268.8221,42740.2854,37116.1401,39722.845,5814.0457,50402.2837,43805.5247,55929.6012,1016.1549,-436.1719,26461.8695
57194.2627,28512.0159,54269.8056,42740.1513,37115.6037,39727.0918,5812.9728,50411.9843,43807.3128,55932.954,1013.3386,-438.0047,26465.5352
57170.3464,28513.4017,54267.7939,42728.8413,37095.0848,39717.7488,5809.8435,50389.8114,43792.069,55928.3495,995.2337,-450.6558,26461.333
57164.222,28508.7973,54266.5422,42727.0085,37076.4881,39712.6079,5808.726,50367.8173,43784.6482,55925.9802,986.3377,-459.0154,26456.3262
57180.3153,28512.5971,54266.5869,42734.1163,37087.5746,39716.9888,5810.4247,50378.0544,43792.516,55927.0531,999.9722,-449.3147,26463.0765
57198.9119,28519.0791,54271.9066,42743.5935,37115.6037,39720.431,5815.5209,50407.5587,43816.1641,55940.0171,1020.2676,-435.2778,26469.5585
57199.3589,28519.7943,54271.4149,42741.8053,37117.8836,39717.7935,5816.862,50419.1816,43822.4673,55944.8898,1020.4464,-434.0261,26469.3797
57177.946,28515.1452,54268.0174,42729.333,37090.4356,39714.0384,5813.9563,50393.9688,43811.7832,55935.815,1004.979,-449.0465,26463.8364
57170.4358,28515.9498,54269.8056,42723.8345,37075.7282,39716.9888,5813.3751,50376.2215,43805.7482,55930.7635,995.3678,-461.2058,26462.7188
57185.2326,28522.5213,54270.9678,42736.3515,37101.1645,39723.6943,5818.4266,50395.7123,43819.2934,55943.6381,1004.0402,-451.8181,26465.8481
57208.0761,28525.7399,54269.9397,42748.2426,37126.4219,39725.6166,5819.0972,50427.2282,43825.5966,55947.125,1014.9479,-436.5742,26465.3116
57219.5202,28529.4503,54274.9912,42750.9695,37123.8291,39734.9596,5821.6453,50436.8842,43831.9445,55948.3767,1018.1665,-431.8804,26468.9773
57201.7729,28520.1073,54275.6617,42736.7091,37093.9672,39725.8401,5820.0359,50410.2856,43822.6461,55941.537,1004.4873,-444.6656,26467.7703
57182.9528,28510.2278,54271.8619,42723.6557,37069.5591,39714.0831,5813.3751,50383.5082,43808.4304,55936.4408,991.7915,-456.3332,26463.5235
57196.4532,28509.1102,54272.4431,42726.5167,37086.2335,39719.671,5812.3916,50401.9707,43813.616,55942.2076,1001.0898,-452.2651,26462.8083
57219.3414,28511.9265,54274.5441,42736.6197,37114.352,39724.5884,5809.9329,50423.5625,43831.5868,55949.2707,1016.9595,-439.0329,26467.2786
57223.4988,28516.7545,54275.17,42738.8102,37117.0342,39725.2589,5809.7541,50431.0727,43839.097,55951.1483,1013.7856,-437.6024,26467.368
57197.9284,28514.1617,54275.7958,42732.954,37098.8846,39722.6661,5810.2459,50413.8619,43828.9046,55947.9296,997.5135,-451.684,26464.507
57178.6165,28506.7409,54274.4547,42726.8744,37082.0314,39718.7322,5810.9611,50397.411,43816.03,55944.3086,989.1093,-460.3565,26464.8646
57194.0392,28514.1617,54277.2263,42730.4059,37096.113,39722.2191,5814.2692,50414.3536,43821.9756,55951.7294,1002.878,-447.2136,26470.0502
57217.0615,28527.1257,54278.7015,42739.3466,37116.5872,39729.4611,5818.2925,50443.992,43844.1932,55960.2231,1018.2559,-430.8075,26475.1911
57214.1558,28527.4833,54278.8357,42744.3087,37124.0973,39726.6448,5821.0641,50444.6626,43852.1951,55959.776,1017.9877,-434.3837,26475.1017
57193.5475,28516.2628,54277.3157,42731.7917,37107.5124,39715.4242,5818.2925,50431.1621,43837.2642,55955.6186,1003.9955,-450.03,26471.3913
57173.6097,28513.5359,54274.4547,42720.75,37084.7583,39709.8362,5815.208,50415.1583,43823.3167,55948.8237,985.8459,-461.9658,26465.3563
57198.0178,28519.2579,54277.0028,42734.7869,37103.9808,39718.9558,5816.7726,50434.649,43834.9843,55948.0637,994.2502,-452.891,26467.2786
57220.1461,28530.0761,54283.8871,42752.6683,37129.8194,39734.3785,5820.3936,50461.5158,43854.9668,55962.19,1017.4066,-435.8143,26472.8665
57214.2005,28532.6689,54285.9882,42754.2776,37134.1556,39733.5738,5820.1253,50475.3739,43861.5829,55967.7333,1023.3968,-432.9085,26472.3301
57200.3871,28523.46,54284.96,42745.5157,37113.1897,39728.7458,5816.2808,50457.8501,43851.4799,55962.9053,1006.0966,-444.1738,26467.1445
57183.4892,28523.9071,54284.066,42736.6644,37084.9371,39726.913,5814.7162,50426.4235,43838.203,55954.5904,993.0432,-454.3215,26461.4671
57192.0276,28528.7797,54286.8823,42744.4875,37105.456,39732.2774,5817.8902,50446.2272,43853.1786,55959.3737,1001.2686,-449.3147,26466.6528
57213.7982,28532.1772,54289.4751,42754.4117,37134.1109,39740.8605,5823.4334,50471.9764,43863.3263,55967.1074,1018.1218,-431.9251,26471.0784
57215.7204,28529.8526,54285.9882,42759.0162,37135.6308,39739.3405,5824.4616,50475.508,43860.4206,55963.7547,1017.7195,-432.3274,26472.1066
57195.0674,28525.1588,54282.9931,42748.1085,37108.4064,39729.1481,5822.9417,50457.1348,43845.4002,55953.607,1000.4193,-446.0067,26470.8549
57168.6029,28517.4251,54278.031,42734.8763,37085.3841,39720.6098,5818.0243,50431.4303,43833.7326,55944.7557,985.6224,-458.166,26465.8034
57187.5572,28525.874,54281.4732,42745.8733,37104.2043,39733.842,5822.584,50447.4789,43849.8259,55952.7129,998.9887,-445.7831,26470.8549
57214.2452,28533.6077,54282.9037,42756.8257,37130.6688,39738.8041,5825.8474,50475.4186,43859.6606,55957.6303,1017.7642,-429.1981,26476.9346
57214.5581,28530.9702,54280.7579,42749.2261,37125.6173,39733.1715,5820.9747,50475.5974,43854.475,55956.8256,1013.9197,-435.5013,26472.4642
57200.4318,28524.0859,54283.9319,42744.8452,37108.317,39725.4825,5821.377,50456.0173,43845.5343,55957.4515,1002.0286,-444.4867,26468.5303
57189.256,28519.392,54284.1554,42735.6809,37097.5435,39724.0967,5820.4383,50438.7617,43839.4099,55949.6284,993.0432,-450.7005,26467.9939
57197.2579,28519.392,54282.2778,42738.2737,37108.6299,39732.5903,5822.3605,50456.7772,43848.0377,55952.9364,1002.5203,-440.374,26472.0172
57221.2189,28519.3026,54286.3011,42756.5575,37140.8165,39743.5874,5827.0097,50485.0298,43861.0017,55965.3193,1025.0062,-425.1301,26478.9462
57222.6048,28518.7215,54287.7316,42763.7547,37151.4559,39744.0344,5827.5908,50486.1921,43868.0649,55968.2697,1031.3094,-420.5257,26481.8072
57200.1636,28514.2511,54280.9814,42745.2922,37120.7446,39732.8585,5821.1535,50460.9793,43855.8608,55957.4962,1011.5057,-437.1554,26472.8665
57188.2278,28515.2793,54280.4897,42747.6168,37098.8399,39736.1666,5819.8571,50439.5664,43835.2525,55952.8917,1000.151,-446.6325,26468.6644
57199.8507,28511.6136,54279.9979,42755.4399,37109.6581,39744.6603,5822.0923,50455.5255,43843.2544,55951.4612,1013.5621,-439.5247,26471.7937
57224.7058,28517.5592,54282.9484,42765.9452,37144.8398,39753.1986,5828.7084,50485.0298,43863.818,55958.882,1032.2481,-428.4382,26479.6615
57228.148,28521.359,54284.513,42761.6984,37144.7504,39750.9187,5825.1321,50495.1775,43867.9308,55960.3125,1027.1072,-426.5159,26479.7956
57207.6738,28516.3075,54282.1437,42744.6216,37108.5405,39739.0723,5818.069,50471.1717,43854.5197,55955.3951,1010.7011,-436.6189,26475.8617
57193.9051,28505.8469,54277.1369,42729.0648,37087.9322,39730.1763,5813.5092,50455.5255,43846.5625,55948.9131,995.9489,-452.0863,26468.3068
57202.3094,28504.2375,54272.8454,42730.3612,37098.6164,39732.8585,5808.9495,50460.9793,43853.8939,55946.9461,1000.3299,-448.5548,26464.8199
57215.4969,28510.1831,54271.102,42743.6382,37116.2295,39734.0208,5809.62,50485.1192,43862.3428,55949.7178,1014.4562,-440.1505,26467.3233
57206.1092,28503.567,54267.3022,42735.4574,37107.0206,39725.706,5804.0321,50481.4088,43856.2632,55943.1016,1008.5106,-447.4372,26462.0483
57192.2958,28492.3911,54267.5257,42732.4176,37084.8477,39723.1579,5802.1545,50457.6266,43847.993,55936.709,995.0101,-458.3895,26458.7849
57182.9528,28487.5631,54269.4479,42722.404,37073.5824,39721.0121,5800.7687,50447.4789,43838.6947,55934.6974,985.3095,-463.8433,26457.1309
57185.2773,28489.7983,54268.1515,42723.2981,37084.4007,39720.3863,5799.3829,50458.7442,43844.1038,55932.2834,993.7584,-456.8696,26454.2252
57204.634,28498.4261,54270.8784,42742.7441,37111.8039,39728.567,5797.1925,50489.2766,43863.6392,55936.4855,1010.6564,-443.0562,26456.9074
57204.9469,28500.6166,54271.4149,42744.1299,37112.7427,39728.12,5796.6113,50491.2436,43864.3098,55942.5205,1006.633,-440.5975,26459.9025
57196.9002,28495.7439,54276.5558,42742.7441,37099.6445,39731.9645,5807.2507,50479.9336,43862.2087,55945.8733,995.0101,-447.4819,26462.9424
57182.4163,28498.6496,54278.478,42732.5964,37085.7418,39734.0208,5811.6317,50467.4613,43863.9075,55944.9792,987.9023,-453.9639,26462.9871
57197.3026,28504.9081,54284.96,42738.0502,37106.4842,39741.8886,5815.4315,50481.9006,43877.4973,55956.5127,1002.8332,-440.1952,26469.9608
57227.4327,28511.9712,54285.0941,42751.9083,37124.7679,39745.0179,5815.7444,50501.6595,43885.4545,55963.9335,1016.1549,-429.3323,26473.7606
57222.7836,28508.4397,54278.5227,42748.5555,37120.5658,39744.9285,5811.0058,50500.5866,43877.4973,55959.329,1013.0703,-434.2049,26469.8267
57197.8837,28503.1199,54279.3721,42738.0502,37100.8962,39739.1617,5810.6929,50471.3058,43863.0134,55953.4729,995.4125,-445.962,26466.2504
57179.6894,28497.085,54281.1602,42721.1523,37074.4318,39728.0306,5808.6812,50449.0435,43845.5343,55945.2921,979.4086,-457.2719,26458.472
57193.4134,28496.0121,54282.5907,42728.3049,37091.3744,39730.9363,5808.4577,50468.4895,43855.4138,55950.9248,990.3163,-450.3429,26458.3379
57209.4172,28507.1433,54278.5674,42741.2689,37115.0225,39731.1598,5805.6861,50490.4836,43864.0863,55954.5904,1001.8498,-440.9552,26454.8957
57201.5494,28503.567,54269.4479,42735.9939,37100.4045,39720.2969,5797.0583,50484.404,43863.1028,55948.332,1000.2851,-447.9736,26446.7597
57182.9975,28498.7837,54267.5704,42725.3097,37075.907,39713.5913,5791.5598,50475.508,43841.5557,55935.8597,979.1404,-470.1465,26437.2379
57172.5368,28496.5485,54268.8668,42718.4254,37062.4959,39711.0432,5791.0234,50462.7675,43831.7209,55933.3116,964.3883,-481.9036,26435.0474
57182.8634,28498.739,54266.2293,42721.5993,37067.011,39711.1326,5790.2634,50471.3953,43843.478,55935.5915,972.4349,-472.9182,26436.8802
57199.6272,28499.9907,54270.6102,42733.0881,37094.7272,39720.2969,5791.5598,50498.0832,43857.649,55943.3252,992.015,-456.0649,26444.5245
57204.8575,28504.8634,54272.3984,42739.8384,37108.6746,39725.1248,5794.0185,50498.3068,43867.7967,55946.9908,996.4854,-451.8181,26449.4866
57179.7788,28500.4377,54268.5091,42726.025,37082.5678,39713.0549,5789.6376,50482.884,43852.1504,55936.5302,978.9169,-469.923,26444.7033
57153.8508,28488.6807,54266.4975,42709.3059,37065.9381,39701.7449,5786.553,50461.6499,43836.4148,55928.7965,966.6681,-482.5741,26442.5129
57170.5252,28492.257,54268.1962,42716.9502,37076.0411,39708.4951,5791.6939,50473.1834,43850.9434,55939.9724,976.3688,-470.4595,26447.3855
57195.9615,28499.8119,54274.0971,42738.229,37105.3666,39720.5204,5801.0817,50503.0006,43868.1543,55953.607,1000.7769,-451.5499,26454.0464
57203.427,28505.7575,54279.4168,42739.0784,37118.6435,39726.9577,5806.9825,50511.6731,43872.1329,55956.6021,1004.2191,-448.3312,26457.0415
57193.0557,28499.5437,54279.5062,42729.5119,37095.0848,39721.2356,5806.759,50485.9239,43856.7996,55950.4777,986.3824,-463.4857,26454.5381
57176.6943,28489.9324,54278.7015,42721.1523,37069.7379,39716.5418,5807.2507,50463.8851,43850.8093,55945.8286,974.3124,-477.2991,26452.437
57177.9013,28494.0004,54279.685,42731.8364,37083.1937,39723.4261,5808.0554,50485.2533,43861.3147,55947.8849,984.326,-469.3419,26454.7616
57204.7681,28517.6039,54284.7365,42750.8801,37121.1916,39740.0558,5814.2692,50523.8771,43883.3535,55960.5807,1004.6661,-446.4537,26466.608
57203.2928,28522.1636,54287.1505,42752.8918,37117.2577,39735.6302,5811.8105,50529.018,43881.6994,55962.2794,1005.6943,-447.616,26469.4244
57189.3454,28511.4795,54284.96,42740.6877,37095.3083,39732.635,5808.413,50515.8752,43878.6596,55954.6351,989.8692,-463.3963,26462.9424
57182.8187,28506.6962,54281.4732,42734.5634,37076.4434,39729.3717,5807.4743,50496.3398,43867.7073,55948.5555,976.8158,-475.4215,26458.7402
57192.564,28510.1384,54281.2496,42738.8102,37087.4405,39731.4727,5806.1332,50506.3534,43877.8549,55953.294,990.1822,-465.3633,26460.9307
57215.3628,28508.5291,54282.3225,42749.1814,37121.0128,39738.8041,5807.0272,50527.8111,43887.645,55957.5409,1005.4708,-453.4274,26463.6576
57215.1393,28506.1151,54285.1388,42755.9763,37120.4317,39737.463,5810.5141,50530.8509,43882.4147,55962.9947,1002.5203,-450.7899,26463.4788
57194.9333,28501.5553,54283.1719,42740.0172,37094.9507,39728.7905,5805.2391,50515.9199,43874.1446,55955.1716,988.6622,-465.5421,26456.4604
57180.9411,28487.9208,54283.9319,42724.818,37075.9964,39721.9956,5805.3732,50487.3544,43863.0134,55946.0521,974.7148,-477.7014,26452.8394
57194.8886,28487.1608,54285.273,42732.2388,37089.8992,39725.1695,5811.1399,50496.1163,43877.5867,55949.3601,985.8459,-465.3186,26456.9968
57207.0926,28495.0286,54280.3556,42746.5439,37113.1003,39728.2541,5812.3916,50529.1522,43885.6781,55953.3834,1003.1909,-451.3264,26458.2485
57211.2501,28504.2375,54284.8259,42755.127,37125.7067,39736.8819,5819.0078,50547.8382,43894.5293,55964.5146,1010.9246,-443.1009,26460.6178
57204.4104,28506.4727,54291.9785,42753.4729,37112.4297,39743.1403,5824.2828,50540.0151,43881.4312,55964.6487,1000.0616,-452.3546,26462.4506
57188.8983,28506.6962,54291.5314,42741.5818,37088.8263,39741.531,5822.2264,50527.5875,43870.2106,55959.8207,987.7682,-466.3914,26459.2767
57198.8225,28513.5806,54291.9338,42752.4,37110.731,39752.9751,5825.9368,50548.017,43891.3554,55970.6837,1003.1909,-449.717,26469.6926
57219.6096,28520.8225,54293.9007,42764.7382,37134.7368,39761.0217,5830.4965,50574.3474,43908.4768,55978.0598,1020.8935,-433.2215,26476.1746
57223.0071,28517.8274,54293.5431,42765.0958,37128.4336,39750.0247,5828.3061,50570.5029,43909.058,55975.1987,1019.8206,-430.3604,26475.3252
57204.7681,28513.2676,54296.3147,42756.5128,37104.3831,39738.8935,5826.3838,50536.6623,43891.8024,55967.5992,1003.2803,-442.9668,26471.9278
57198.2414,28515.5922,54300.6063,42754.0988,37100.9409,39743.0062,5827.8143,50518.7809,43882.9064,55960.2678,997.9159,-450.1194,26470.1396
57210.6689,28513.5359,54299.2651,42755.6634,37111.3122,39740.5475,5825.5345,50540.5515,43895.9599,55964.1123,1006.8566,-440.4634,26471.3466
57221.3531,28519.0791,54293.5431,42763.8441,37126.3325,39740.8605,5823.8357,50558.9247,43902.7995,55966.258,1017.6748,-429.6005,26471.1231
57223.9459,28524.1753,54295.6889,42770.8626,37127.0925,39746.0014,5824.8639,50560.1764,43907.4486,55970.0578,1023.6204,-428.6617,26473.9841
57202.4882,28525.7399,54292.962,42758.2562,37103.3549,39737.5077,5822.0923,50530.4933,43885.3651,55961.5195,1008.2424,-443.5927,26467.5468
57188.1831,28517.0227,54287.9105,42745.1134,37083.2831,39732.7244,5816.5491,50509.9297,43869.6742,55954.1881,990.808,-457.719,26462.2718
57201.8176,28518.1403,54284.8259,42750.746,37099.9128,39741.978,5810.9164,50524.2795,43878.2126,55951.193,997.9606,-451.9969,26462.4059
57217.3744,28526.8128,54281.5179,42765.6323,37123.2033,39752.7069,5808.6365,50546.6312,43882.6382,55955.6633,1013.4727,-441.7151,26466.1163
57220.906,28527.7963,54280.1321,42764.8276,37117.9283,39750.427,5807.9213,50544.0384,43881.3865,55950.0754,1011.8634,-440.8658,26464.0599
57209.4172,28522.9683,54278.3886,42761.296,37095.3977,39745.4649,5801.8863,50515.6517,43865.025,55944.0851,994.1608,-452.5781,26458.472
57196.7661,28517.9615,54277.6734,42752.9812,37077.8292,39742.9615,5800.5005,50492.7635,43851.3458,55943.2358,983.2978,-463.1728,26459.5896
57207.5844,28514.3852,54278.478,42749.0026,37084.6689,39746.1355,5796.2537,50513.1483,43857.649,55947.7061,993.0432,-457.3613,26458.919
57228.4162,28517.2909,54276.6899,42759.8655,37107.7806,39752.9304,5797.416,50542.4738,43870.7024,55946.6779,1008.4659,-440.374,26462.4059
57224.1694,28519.6602,54275.617,42763.9335,37111.178,39757.9819,5801.5734,50550.431,43868.3778,55947.2144,1014.1432,-438.273,26464.4176
57191.8041,28510.6748,54272.0407,42748.6449,37091.285,39746.9848,5799.7853,50528.9733,43852.2398,55938.8101,995.7254,-453.9639,26460.0813
57182.9081,28509.0208,54276.1981,42739.2572,37080.1538,39736.8371,5803.3615,50510.779,43840.6616,55934.8762,985.533,-461.2058,26460.7966
57196.185,28513.0888,54280.7579,42748.9579,37095.6212,39738.4465,5811.587,50526.5594,43844.8638,55944.2192,1000.8216,-447.2136,26466.921
57208.8808,28521.0907,54282.9484,42760.2232,37121.281,39745.1073,5820.9747,50541.9374,43861.4041,55953.294,1018.9265,-431.2098,26473.9394
57199.4931,28518.7662,54282.5907,42755.7081,37127.0478,39740.5475,5823.6569,50541.2221,43856.3973,55953.8305,1016.5125,-432.0592,26472.5089
57179.0189,28517.6486,54284.6918,42743.6382,37112.2509,39737.9994,5824.5063,50514.7576,43834.269,55945.8733,1000.8216,-442.5198,26469.782
57166.2784,28518.4085,54287.5081,42737.4691,37094.9507,39729.5058,5824.3722,50492.6294,43821.8415,55942.7887,989.8692,-451.5052,26465.0881
57172.1792,28521.3143,54286.5694,42742.9676,37102.1926,39731.428,5826.965,50489.4555,43823.8978,55941.3135,999.9722,-445.1126,26465.2669
57178.8847,28535.3959,54287.0164,42752.4894,37128.523,39736.0772,5829.1554,50509.0356,43827.6976,55947.3485,1017.2725,-434.652,26469.7373
57174.2356,28541.3414,54290.2797,42757.2727,37139.9224,39734.1996,5835.4139,50494.6858,43825.5519,55949.3154,1018.6136,-434.9202,26473.1348
57150.3639,28531.3725,54284.2448,42743.5935,37113.8602,39722.532,5834.2963,50458.7442,43802.8425,55939.7042,1001.1792,-452.131,26466.9657
57128.5933,28523.1024,54279.8638,42724.818,37087.217,39714.396,5828.3508,50426.6918,43781.8766,55929.0648,983.3872,-468.5372,26458.2485
57131.2308,28531.909,54280.892,42726.2932,37096.8282,39718.9558,5829.2896,50417.7511,43786.2575,55933.8033,993.7584,-462.0999,26464.0599
57153.7167,28540.8497,54279.9085,42739.9278,37121.8175,39722.4426,5834.9669,50433.3079,43803.1107,55940.643,1010.5222,-447.3031,26468.8879
57153.9849,28538.1675,54277.8075,42737.2456,37115.3802,39719.3581,5836.1739,50421.3721,43807.5811,55944.4427,1012.8915,-448.0183,26466.5186
57141.8256,28540.1344,54277.4498,42731.4788,37087.5299,39715.7818,5833.7599,50398.7074,43785.9446,55931.2105,998.8546,-463.8433,26460.8413
57127.2075,28538.8827,54276.8687,42724.058,37068.1733,39715.8265,5830.4071,50383.5529,43769.6725,55927.0978,983.4319,-473.4993,26458.5614
57134.0024,28540.0003,54273.1136,42725.7568,37081.4502,39715.156,5823.8804,50388.7385,43774.9028,55927.1425,992.775,-467.062,26459.9025
57146.3406,28539.1957,54272.4878,42732.6411,37099.4657,39719.3134,5822.3605,50394.4159,43781.4295,55932.1493,1007.1248,-454.098,26461.6907
57145.5359,28541.5649,54273.7395,42734.1163,37099.8234,39721.2803,5824.551,50391.8231,43777.4956,55931.6128,1006.0966,-453.1592,26463.2106
57128.8615,28535.1723,54273.0242,42719.3642,37075.8623,39710.9091,5820.5277,50366.7891,43766.2303,55925.1308,988.5728,-464.4245,26459.3214
57110.5331,28527.1257,54271.4149,42707.473,37053.9129,39705.5447,5814.6268,50340.3246,43747.142,55912.9268,970.8256,-478.3273,26452.2582
57120.8596,28526.5893,54268.2409,42718.2466,37071.3919,39708.4951,5812.3469,50349.2653,43750.6288,55913.5973,982.5826,-472.784,26453.5546
57145.0889,28530.255,54269.8056,42735.5468,37094.593,39717.0782,5815.208,50360.9776,43762.8329,55918.5594,1002.0286,-457.406,26460.5731
57145.0442,28522.1189,54269.0456,42739.3913,37093.1625,39712.6526,5813.3751,50359.8601,43765.2022,55913.955,1000.1957,-458.0766,26457.2203
57126.4029,28515.1452,54267.5704,42725.6227,37066.8769,39701.6555,5808.2342,50336.2119,43756.7085,55910.9151,987.8129,-470.3701,26454.7616
57106.8674,28510.5854,54262.8318,42720.3476,37051.7671,39701.7449,5808.5471,50309.8816,43747.2761,55905.2378,979.1851,-475.958,26451.543
57121.2173,28519.392,54266.1399,42726.3826,37074.7447,39715.0218,5816.415,50316.9,43758.3625,55908.2776,989.4222,-463.2175,26459.0085
57145.8042,28531.6855,54268.8668,42736.3515,37100.2704,39722.085,5819.4101,50338.5365,43776.5568,55911.6304,1006.5436,-454.8132,26462.9424
57144.6419,28529.8973,54267.8386,42732.7752,37092.492,39715.1113,5816.862,50337.5977,43772.9359,55917.576,1006.5436,-454.9026,26462.4059
57125.9111,28513.5806,54263.4577,42717.889,37060.7972,39699.4203,5808.6365,50312.1167,43754.6074,55911.7645,985.98,-467.9114,26455.3428
57114.467,28505.7575,54263.86,42713.4186,37039.7866,39693.0724,5803.9874,50290.3461,43745.1303,55903.5391,974.223,-476.3156,26453.1523
57132.9743,28504.774,54262.9659,42727.1873,37053.7341,39695.397,5803.7639,50299.5998,43752.1487,55902.0638,986.74,-470.3254,26453.5546
57154.0296,28505.8469,54260.0155,42732.2835,37071.3025,39700.0015,5802.8698,50324.6784,43759.8377,55907.4283,1001.358,-459.2836,26458.025
57155.9966,28509.1996,54263.5471,42725.4885,37062.6748,39696.5593,5804.2556,50319.2246,43756.8426,55910.6469,999.4358,-461.3847,26456.5945
57140.2609,28506.9197,54263.2341,42711.4516,37032.3211,39687.5739,5799.0253,50296.247,43744.6386,55903.9861,978.5593,-475.3321,26452.0794
57140.1268,28503.9246,54266.274,42713.3739,37021.5476,39692.0443,5803.2274,50277.1139,43731.6746,55901.0804,970.6467,-483.2,26451.0065
57159.1705,28513.8041,54273.7395,42722.6275,37047.9673,39699.5991,5810.7823,50299.6445,43755.3674,55908.0094,989.8692,-468.4478,26456.5051
57182.1034,28523.0577,54277.8969,42728.5284,37072.3754,39701.9237,5810.2906,50338.313,43778.3003,55918.6041,1003.7273,-452.3546,26464.1941
57193.324,28524.8905,54279.238,42735.4574,37075.1023,39710.0151,5812.481,50345.4208,43778.5238,55919.0065,1009.36,-449.3594,26465.6693
57178.3483,28526.4552,54282.1884,42729.6907,37054.8517,39711.0432,5816.7726,50338.0001,43775.7969,55920.3476,1000.3746,-459.6412,26463.9705
57157.9188,28520.5543,54283.2613,42720.6606,37039.8313,39701.1191,5817.0855,50318.3752,43767.8844,55922.1357,988.4387,-466.2126,26460.9754
57171.6428,28527.6622,54288.4022,42730.7636,37064.0606,39709.3445,5822.8523,50333.5297,43777.8085,55927.0084,1002.1627,-453.9192,26468.575
57183.9809,28527.0363,54283.9319,42729.3777,37084.5795,39714.5301,5826.1156,50363.1234,43791.309,55929.6906,1013.875,-442.3857,26469.8714
57192.8769,28527.0363,54285.0494,42736.3962,37092.8496,39717.1229,5829.1554,50359.9942,43796.8522,55930.4953,1016.6913,-440.7316,26471.0784
57173.4309,28514.4746,54283.7083,42730.3612,37067.458,39707.8246,5826.7862,50332.6803,43782.86,55927.7683,1002.2968,-450.477,26467.6362
57157.5612,28509.3784,54280.1321,42723.0299,37049.8449,39703.2201,5822.7181,50310.9992,43762.207,55919.2747,989.4669,-465.4527,26461.1095
57167.2171,28516.3075,54277.3157,42726.2038,37061.0207,39711.4903,5823.344,50326.6454,43775.7075,55923.1192,1002.6544,-456.9143,26462.7188
57193.4581,28521.9401,54278.1204,42736.4856,37084.9371,39718.6875,5825.6239,50350.9641,43798.0145,55928.7965,1019.7759,-442.8327,26469.4244
57194.4416,28524.3094,54277.5393,42732.7752,37081.182,39717.6594,5822.4499,50357.5355,43793.2312,55926.2484,1015.5737,-445.8725,26469.6926
57172.3133,28524.9799,54280.1321,42724.4604,37055.2093,39714.1725,5818.9631,50345.6444,43788.1798,55924.7732,998.2735,-456.1543,26462.4953
57163.5067,28522.3424,54281.3838,42722.6275,37043.7205,39713.0102,5819.2313,50329.4617,43780.4908,55922.3145,988.3046,-464.7821,26458.1144
57167.3065,28523.3259,54281.9649,42730.7189,37066.8322,39722.532,5821.8241,50346.9855,43792.1584,55928.3495,998.2735,-456.1096,26462.853
57176.739,28526.7681,54278.5674,42742.9676,37088.3793,39723.4261,5820.3042,50380.9601,43808.8775,55932.5069,1014.0538,-446.409,26467.6362
57188.9877,28537.5416,54281.3838,42751.506,37097.8117,39724.7672,5823.0758,50388.3809,43809.4586,55927.9025,1011.4163,-450.2982,26467.4574
57175.7108,28534.323,54283.4848,42742.4759,37078.8127,39724.4543,5821.6453,50371.8406,43793.1418,55928.6624,995.8148,-461.6082,26463.9705
57157.9188,28528.4668,54278.9251,42725.0862,37048.4143,39722.0403,5815.1633,50358.7425,43787.1069,55922.6722,980.9285,-470.0124,26456.9074
57179.5553,28537.631,54280.6238,42744.4875,37072.0625,39732.5456,5818.5607,50373.6287,43803.2895,55921.9569,999.6146,-460.133,26463.0318
57204.0975,28541.7438,54279.4615,42757.2727,37100.0469,39743.8556,5816.3255,50394.1476,43810.5762,55927.2766,1015.0373,-449.2253,26464.5964
57201.0577,28535.9323,54276.2876,42750.0755,37098.7952,39743.2297,5812.1681,50398.1262,43809.9504,55923.3427,1012.668,-450.1194,26462.093
57183.2657,28527.5728,54277.5393,42737.8714,37078.8574,39739.117,5807.966,50380.379,43801.3226,55920.3476,997.1559,-465.3186,26458.2485
57167.083,28520.9566,54275.1253,42728.1708,37062.7195,39735.0043,5805.0156,50364.7774,43794.17,55920.884,985.8906,-471.9794,26454.8063
57177.9013,28520.7778,54274.9017,42730.1824,37068.6203,39737.7759,5805.105,50376.1768,43802.3955,55919.9005,995.3231,-462.9493,26458.9638
57196.4532,28529.6291,54279.4615,42741.4924,37096.4706,39743.3639,5808.9495,50407.7822,43818.3099,55923.4768,1011.1034,-446.1855,26465.4905
57203.3823,28536.2452,54278.791,42744.9793,37105.4113,39740.5475,5811.6317,50415.6947,43821.6627,55928.7518,1012.8915,-441.3575,26467.2339
57188.8089,28532.6689,54280.1321,42732.4176,37079.6174,39732.5903,5812.8387,50391.7336,43807.7152,55925.2203,998.3629,-455.7967,26461.8695
57169.0947,28527.0363,54281.7414,42719.9453,37057.0868,39724.3649,5813.6433,50390.1243,43802.9766,55920.2135,984.1025,-465.6315,26456.3709
57176.2472,28532.2666,54282.099,42725.9803,37075.3258,39723.0685,5816.0573,50409.0339,43807.894,55932.4622,992.2385,-455.5732,26462.1824
57185.5903,28543.5319,54278.2545,42735.4127,37100.8068,39723.4261,5815.208,50437.5994,43820.1427,55938.4972,1006.9907,-446.8113,26463.8364
57186.842,28540.0897,54277.6734,42730.8977,37098.1246,39715.8265,5812.2575,50443.545,43819.8745,55936.0832,1005.6049,-451.3711,26459.9472
57174.0568,28537.8546,54280.2662,42723.0746,37080.5562,39708.1375,5816.5938,50416.0076,43805.1224,55930.3612,991.3445,-459.8647,26454.0017
57164.982,28537.2287,54280.0426,42721.3758,37066.5193,39709.3892,5817.9349,50394.5947,43792.9183,55929.9141,982.3143,-468.2243,26454.1805
57178.3483,28541.4308,54275.7958,42723.8345,37080.9585,39714.5301,5817.2196,50410.0621,43804.3624,55930.8082,992.9985,-462.3234,26456.5945
57197.4814,28548.5834,54275.8852,42732.6411,37106.9312,39714.4854,5816.9514,50429.2846,43821.4391,55933.7139,1008.1083,-453.0251,26462.0483
57200.2977,28547.5999,54278.8804,42727.9919,37103.8914,39711.535,5819.5889,50427.6305,43828.994,55944.7557,1008.4659,-449.2253,26463.3
57184.2045,28539.2404,54282.0543,42715.6538,37075.8176,39708.2716,5821.5111,50403.3566,43813.3925,55944.6663,988.3046,-462.994,26458.9638
57167.3959,28531.0149,54280.445,42706.6237,37056.0586,39706.9305,5817.7561,50379.5743,43804.6753,55939.1677,972.9266,-473.0523,26456.2815
57183.5339,28530.255,54276.4664,42711.9434,37079.6621,39711.8479,5817.0855,50393.2536,43811.8279,55942.1182,983.0743,-466.615,26459.3661
57195.9168,28535.1723,54276.2876,42722.0911,37106.1265,39716.1394,5814.6268,50412.3867,43828.8152,55947.9296,996.1724,-456.1543,26463.747
57188.2278,28532.3113,54277.5393,42728.3496,37112.2956,39710.8197,5815.4315,50412.6549,43822.1097,55949.4495,1000.5981,-452.891,26462.8083
57173.2521,28523.4153,54275.2147,42717.576,37092.7155,39702.8625,5815.5656,50387.8444,43800.5179,55941.9841,987.3211,-464.4245,26458.1591
57157.8294,28518.0956,54274.9465,42704.9249,37073.1801,39701.7896,5811.3635,50372.7794,43791.309,55930.987,974.4018,-473.2311,26456.2368
57169.1841,28513.4912,54274.9017,42703.1368,37082.2102,39712.8761,5812.6152,50388.7385,43810.8891,55938.7654,986.7847,-461.027,26459.1426
57183.0422,28518.9003,54273.2477,42717.2631,37106.8865,39720.0733,5813.5539,50407.6928,43819.2934,55943.3699,1001.0898,-450.2535,26460.5731
57179.9576,28527.3045,54274.4547,42723.9239,37113.6367,39723.5602,5814.4033,50423.9649,43815.3595,55940.2406,1004.2191,-452.7122,26461.7801
57165.5631,28529.2715,54278.6568,42718.783,37092.2238,39718.7769,5817.5772,50412.7443,43807.7599,55938.7654,995.4572,-461.1611,26462.6294
57148.2182,28518.7215,54278.5227,42709.2612,37065.804,39709.2551,5816.1914,50391.6889,43799.0874,55932.5069,975.0724,-469.6548,26458.919
57157.9188,28513.67,54279.3274,42715.7879,37085.9206,39712.9655,5819.4548,50405.547,43813.8843,55932.6857,990.361,-462.7705,26461.1989
57177.4989,28516.8886,54281.2049,42730.54,37113.0109,39722.085,5822.4499,50423.6966,43831.2739,55937.5137,1011.5057,-446.5431,26466.8316
57180.4047,28514.0723,54281.7414,42735.368,37118.4647,39722.085,5821.8241,50421.9085,43836.0125,55945.2474,1008.1083,-450.4323,26468.575
57160.5116,28507.8138,54282.5907,42725.3544,37096.3365,39717.6147,5821.7794,50404.2059,43824.5237,55936.7537,997.6923,-459.1495,26467.0998
57142.362,28505.4445,54282.7249,42715.6091,37074.4318,39715.603,5822.137,50388.3362,43808.2516,55932.0599,981.9567,-471.0406,26459.1426
57161.2269,28514.7429,54283.1272,42722.3593,37085.8312,39722.1297,5823.4334,50408.9445,43812.4985,55932.954,992.5514,-461.8317,26463.2106
57181.4775,28522.3871,54288.0446,42732.9987,37111.9827,39732.0539,5826.1156,50437.7335,43826.3565,55940.7324,1008.8235,-443.7268,26474.1629
57178.7953,28521.0013,54284.8259,42737.022,37124.6785,39725.8848,5826.7862,50433.1738,43831.1845,55945.2474,1013.5621,-442.8774,26471.5701
57158.0082,28517.3804,54280.5791,42725.1756,37104.3831,39713.8596,5821.4664,50413.5489,43809.4586,55931.7917,999.5252,-458.9707,26463.7917
57145.7595,28513.7594,54279.1039,42715.9667,37082.1655,39712.9208,5821.7794,50385.5199,43793.0524,55925.9802,984.1025,-469.0289,26458.6955
57152.8673,28514.7429,54278.7015,42715.4303,37091.1062,39713.5019,5820.9747,50393.5218,43805.1224,55928.9306,990.4504,-462.5022,26459.8131
57183.3104,28521.2696,54277.9863,42723.0746,37114.8437,39724.8566,5821.6006,50429.5975,43831.408,55945.2474,1010.9693,-448.063,26463.9258
57195.3803,28524.6223,54281.3838,42736.2174,37120.6999,39731.0704,5825.4451,50430.581,43830.0669,55946.5885,1017.8536,-444.8444,26464.9093
57179.2424,28522.6107,54279.238,42722.6275,37094.8613,39722.3085,5822.137,50408.5869,43808.2516,55934.5186,1002.7885,-458.9707,26460.1707
57154.566,28515.3687,54278.7015,42711.8987,37071.7496,39714.0384,5818.8736,50386.4586,43804.6753,55934.6527,990.2269,-471.4876,26456.6392
57161.0034,28520.9566,54280.2215,42719.3642,37085.5182,39717.4805,5820.2595,50400.8085,43814.5995,55940.2853,998.4076,-465.6315,26459.5002
57192.564,28531.909,54281.3838,42734.5634,37115.6931,39725.7954,5823.344,50429.0164,43832.6597,55944.2192,1013.0256,-450.3429,26462.4506
57199.5825,28542.3249,54281.339,42738.7208,37122.2198,39726.3765,5823.791,50433.7996,43839.2758,55955.5292,1013.0256,-449.4488,26464.1941
57186.9314,28534.4124,54278.791,42725.7568,37099.3763,39716.7206,5817.6666,50415.6053,43833.2409,55947.0356,996.1724,-466.6597,26459.8131
57167.1724,28526.7234,54277.1369,42716.9949,37081.8526,39712.0714,5815.9679,50393.4324,43824.3449,55940.3747,984.1025,-471.2641,26460.3049
57175.8449,28530.4338,54276.2876,42719.2748,37087.3958,39714.9771,5816.5044,50410.0174,43824.6578,55942.1182,992.6409,-464.3351,26463.1659
57193.1005,28537.631,54275.3935,42729.1542,37110.5969,39721.0568,5818.1137,50446.0037,43837.8453,55947.7061,1008.0636,-451.9969,26466.6528
57196.5873,28534.8147,54277.4498,42731.4788,37115.7825,39720.6098,5817.1749,50449.0435,43844.0144,55949.3154,1012.1316,-452.444,26466.2057
57181.9246,28525.7846,54281.1602,42722.2699,37100.3598,39712.0714,5815.7891,50433.442,43836.1466,55945.4709,997.9606,-466.0785,26461.8248
57169.8993,28517.9168,54283.2613,42713.7762,37082.1208,39703.5331,5815.4315,50420.2992,43826.4906,55942.6546,984.1025,-478.2379,26459.8131
57184.3833,28523.1918,54283.7083,42719.0512,37099.8681,39705.5894,5816.1467,50429.9551,43837.2642,55951.64,1000.4193,-467.3302,26464.954
57201.9964,28532.4901,54280.8473,42730.093,37125.8408,39710.2386,5815.2527,50440.8628,43860.1077,55954.5904,1015.1714,-452.2204,26466.2951
57201.3259,28537.0499,54280.0426,42729.1095,37123.248,39714.7536,5816.2361,50442.785,43853.1339,55954.8587,1011.2375,-450.3429,26465.6693
57180.4047,28530.1656,54278.8357,42721.8676,37104.1596,39707.6905,5814.7162,50431.3856,43842.8074,55951.4612,996.9324,-460.4459,26464.0152
57159.8411,28528.2433,54276.4664,42711.3175,37083.6854,39706.1706,5814.9397,50414.2195,43829.7093,55944.3533,985.1754,-472.2923,26458.7849
57176.5602,28537.3628,54276.4217,42717.3972,37103.042,39721.9956,5818.9631,50431.028,43836.3701,55944.2192,995.5019,-462.5469,26463.1212
57197.1238,28546.1247,54276.4664,42729.1989,37132.2334,39726.1977,5819.8571,50462.3204,43854.028,55952.9364,1015.1267,-452.444,26468.4856
57199.806,28548.494,54282.7249,42733.4458,37131.7416,39724.2755,5824.551,50462.9016,43854.7432,55961.5642,1018.5689,-445.3361,26472.9559
57187.7807,28535.9323,54283.1272,42717.6207,37096.3365,39717.5699,5819.6336,50440.9522,43834.6267,55952.2659,998.1841,-458.7024,26464.1494
57169.3182,28528.4668,54283.4848,42708.8141,37072.1072,39710.5068,5814.2245,50429.4634,43828.2788,55942.0735,983.0743,-470.683,26458.1144
57179.1977,28533.3842,54284.2895,42719.5877,37091.3297,39716.8547,5814.6268,50438.8511,43839.0523,55941.6264,991.1656,-465.2292,26461.9589
57205.4386,28548.1364,54286.1223,42735.9492,37123.3821,39728.2541,5815.9232,50460.3088,43858.1854,55946.8567,1005.6049,-450.924,26467.7703
57204.1422,28549.5669,54286.0329,42737.6032,37120.5211,39726.3318,5815.1633,50462.3652,43855.235,55945.4709,1009.2258,-448.7783,26465.9375
57183.9362,28543.3084,54281.6967,42726.7402,37105.1431,39722.532,5811.9893,50456.1961,43837.4877,55939.3018,994.1608,-461.2058,26457.9356
57174.5932,28535.2618,54279.5062,42711.3175,37084.4007,39721.5486,5810.7823,50440.8181,43825.5072,55931.9258,977.2182,-473.2758,26452.3029
57177.7225,28533.8312,54279.4615,42705.6402,37085.2053,39725.3484,5810.9611,50453.0668,43840.8405,55935.1444,987.187,-461.2505,26455.4322
57202.8011,28545.9459,54286.6141,42730.4059,37122.7562,39736.6136,5818.5607,50481.2747,43859.8841,55945.2027,1011.4163,-440.4187,26467.368
57208.7914,28540.9391,54284.96,42737.8714,37129.3724,39736.8371,5817.5772,50482.6605,43853.6704,55939.4807,1008.6447,-444.3079,26467.1892
57183.1763,28530.4785,54279.7297,42719.1406,37106.0818,39724.7672,5812.3022,50461.2029,43842.6286,55933.1328,983.3872,-460.3118,26458.2932
57166.9489,28524.2647,54280.1321,42709.6188,37084.1771,39718.2852,5811.7211,50441.4439,43838.8735,55932.9093,973.9101,-468.5819,26456.4604
57187.1996,28528.2433,54281.2496,42717.4419,37094.3248,39723.6496,5809.7094,50456.2855,43853.2233,55944.3533,984.0131,-461.787,26463.3
57213.4852,28530.0761,54280.9367,42729.7354,37119.3588,39728.0753,5811.1399,50480.9171,43867.6625,55947.8402,1000.1957,-447.7501,26465.1775
57208.7914,28532.2219,54277.8075,42728.439,37120.2976,39725.2589,5811.8552,50480.4254,43870.3001,55946.7673,1005.2025,-441.5363,26463.0318
57184.6068,28529.9867,54275.2594,42719.0512,37094.8166,39717.9723,5809.2624,50460.4429,43851.3905,55942.9675,990.4504,-456.6908,26461.3777
57174.8614,28525.5164,54279.4615,42711.2281,37073.8059,39717.3911,5807.3401,50438.8958,43839.3205,55938.7207,981.3309,-465.6315,26458.472
57191.6252,28522.5213,54278.2545,42719.1406,37088.3793,39726.6448,5811.1399,50448.1941,43847.6801,55941.0006,996.2171,-454.1874,26462.7635
57211.0265,28528.1539,54277.8522,42725.5332,37118.1071,39731.4727,5812.9728,50475.508,43860.7335,55944.3533,1009.5388,-441.3128,26465.0881
57208.6126,28524.9352,54274.0524,42725.9356,37116.006,39728.7011,5813.3751,50470.1883,43861.2252,55945.918,1012.6233,-440.1952,26465.2222
57187.5125,28516.4863,54268.9562,42716.682,37092.6261,39726.0189,5811.2293,50449.9823,43843.7909,55940.4194,992.775,-453.6957,26461.5119
57183.4892,28510.1831,54269.895,42711.3622,37079.215,39724.7672,5811.1399,50431.6092,43830.7822,55933.6245,980.7497,-459.1495,26456.7733
57194.218,28509.1102,54272.8007,42714.0892,37086.5911,39729.1929,5810.6929,50451.1893,43840.9299,55934.9209,990.7633,-455.7967,26456.7733
57213.1723,28517.3357,54276.4217,42724.4157,37117.1236,39737.1948,5815.2527,50485.8345,43856.1738,55942.3864,1007.4377,-441.8045,26463.8364
57210.803,28516.8439,54274.0524,42729.2883,37117.7942,39735.4066,5813.8669,50488.5614,43864.1757,55941.8499,1009.807,-440.4187,26466.161
57190.6418,28510.9431,54274.6782,42723.5663,37099.3316,39729.0587,5810.6482,50465.9861,43853.8939,55935.9938,996.7983,-454.4556,26460.0366
57170.7487,28503.1199,54269.4479,42709.9764,37079.4386,39718.2405,5805.5967,50445.4225,43837.5324,55923.3427,980.3921,-468.6713,26452.3923
57188.0043,28506.6962,54273.2924,42714.4915,37091.1956,39726.6448,5808.5471,50457.6266,43850.3176,55941.9841,991.9703,-451.5499,26458.8296
57213.9323,28510.1384,54273.8289,42727.9472,37118.1071,39731.3386,5808.5918,50478.9948,43865.025,55947.0803,1010.8799,-439.7482,26462.2271
57214.1558,28507.9926,54271.1914,42732.3282,37118.1518,39730.7128,5807.6978,50476.8938,43868.5119,55945.6497,1010.0305,-442.9668,26461.1989
57198.6884,28505.5786,54272.3089,42726.3826,37103.9808,39727.36,5804.6132,50463.2592,43861.4488,55940.5535,995.9489,-454.6791,26459.6343
57180.1811,28502.0024,54271.102,42715.2514,37087.0829,39722.8003,5802.691,50450.3846,43845.5343,55931.7917,979.5427,-467.3749,26455.1193
57186.4396,28506.875,54269.7608,42715.6985,37094.3248,39723.8731,5800.0088,50458.0736,43850.1835,55930.227,992.2385,-464.5586,26456.5945
57208.6126,28514.5193,54273.6501,42727.5896,37121.5045,39728.0306,5801.1264,50480.3807,43866.1426,55938.7654,1012.3104,-449.8959,26461.5119
57213.6194,28504.1928,54272.3984,42724.0133,37118.3306,39719.9839,5797.5501,50470.9482,43868.7354,55938.0502,1003.8614,-451.6393,26461.0648
57192.6981,28498.3367,54274.1865,42711.8987,37089.0498,39714.5301,5792.4986,50453.3798,43848.0377,55931.2552,985.6671,-468.6266,26452.3029
57171.6875,28492.1229,54276.4217,42703.4944,37062.2277,39710.0151,5788.6094,50442.1145,43839.2758,55925.4438,971.5855,-475.511,26446.1339
57185.7691,28499.0519,54279.4168,42713.1057,37083.9536,39719.5369,5790.934,50453.2009,43854.6985,55930.8082,982.8955,-463.2175,26451.7665
57204.5445,28508.2608,54277.584,42717.889,37104.1149,39720.7886,5795.6725,50473.8539,43868.3331,55937.2455,999.3464,-448.8677,26457.0415
57196.4979,28503.9693,54269.6714,42717.6654,37099.6445,39716.1394,5790.621,50477.922,43855.682,55931.2105,993.1326,-456.0649,26455.0745
57188.3619,28500.5271,54269.2691,42718.3807,37086.4123,39713.636,5790.8446,50459.7723,43842.5392,55931.6576,979.051,-467.3749,26451.6324
57161.7186,28489.6642,54262.4742,42701.3487,37059.0985,39702.6837,5781.3674,50426.4683,43818.5334,55917.7548,954.0617,-485.5245,26442.8258
57171.151,28498.3814,54265.1564,42711.854,37078.0528,39714.7983,5787.7153,50449.9823,43830.9163,55933.848,968.1433,-473.5887,26448.3243
57200.0295,28506.5621,54268.5091,42726.5614,37105.6348,39727.0471,5794.8679,50474.6139,43858.7666,55945.3368,995.9489,-451.7287,26457.3991
57207.2268,28505.2657,54269.8503,42729.0201,37112.9662,39728.1647,5796.9689,50476.5809,43858.0066,55940.7771,997.6923,-449.8959,26457.3544
57184.7409,28497.6214,54266.8551,42715.6985,37091.285,39715.6477,5793.7056,50454.4973,43845.579,55934.2951,983.2978,-466.4361,26450.1125
57166.636,28485.2833,54264.7988,42697.5936,37065.7146,39707.6905,5788.6541,50436.8395,43835.3866,55929.4671,963.0919,-480.6519,26442.6023
57192.6981,28494.1792,54271.4149,42707.4283,37086.457,39718.4193,5794.4208,50466.9696,43849.2894,55940.33,978.0675,-469.3419,26449.2631
57211.8312,28508.4844,54274.41,42722.851,37114.8437,39723.3367,5802.4675,50497.7703,43871.3729,55949.1366,1001.4921,-449.4488,26459.8131
57202.4435,28508.7079,54272.2195,42721.8676,37110.5969,39721.5486,5804.9709,50499.4243,43873.2058,55949.986,999.1229,-448.1077,26461.0201
57186.7973,28508.7079,54271.7725,42717.7101,37086.6358,39719.8498,5805.0156,50480.6936,43862.4769,55946.365,987.5447,-461.0717,26457.6226
57169.6311,28506.2045,54274.2312,42708.8141,37070.9896,39713.3678,5805.552,50455.2126,43845.7578,55936.5302,976.9946,-474.5722,26452.9288
57182.5951,28511.1666,54275.3935,42713.7762,37084.8924,39716.6759,5805.9096,50469.026,43856.7102,55935.5468,986.5165,-467.2408,26454.8957
57205.3492,28518.0509,54277.4051,42722.3593,37106.9759,39720.5651,5806.5802,50501.0337,43876.2009,55944.7557,1006.9907,-447.3478,26461.5119
57206.0645,28523.6835,54272.4431,42719.3642,37106.8418,39715.6477,5803.2274,50509.7955,43873.6081,55945.5156,1001.4474,-446.6325,26458.7849
57198.2414,28528.1092,54276.1087,42719.7665,37095.7553,39718.3299,5806.8931,50486.2368,43871.2835,55946.6779,989.3328,-452.0416,26459.8131
57184.2045,28524.0859,54280.6685,42718.1572,37081.8973,39725.706,5805.7755,50468.9366,43855.0562,55939.0336,975.3853,-464.8715,26455.8345
57190.2394,28520.599,54278.1651,42720.3476,37093.9672,39729.5952,5803.7639,50487.5332,43867.3049,55940.8665,984.4601,-462.0105,26455.7898
57211.6524,28530.8361,54285.0494,42733.4458,37122.8009,39738.8935,5810.4694,50515.7411,43883.8452,55958.3008,1004.7555,-443.8162,26466.4292
57213.7088,28532.4007,54281.9202,42727.6343,37115.0672,39733.4397,5806.6696,50510.3767,43881.163,55954.7693,1003.2803,-448.1971,26463.9258
57187.5125,28515.5028,54273.1583,42709.2165,37084.5795,39719.4028,5794.8232,50475.5527,43861.3594,55943.0569,981.3756,-469.6995,26454.8957
57160.9139,28503.2094,54270.2079,42696.2078,37066.2957,39706.6176,5788.967,50454.0503,43852.7316,55934.3845,965.7294,-482.6188,26447.4303
57169.2288,28503.5223,54274.0524,42707.1154,37083.2384,39706.0364,5794.5549,50471.6635,43864.2204,55938.2737,980.258,-469.0289,26452.3923
57191.2229,28507.7244,54274.0077,42724.5051,37112.4297,39711.8926,5799.3382,50512.746,43871.9541,55945.3368,998.3629,-453.9192,26459.8578
57185.1432,28504.9975,54271.2808,42723.8345,37109.1664,39712.3396,5797.6842,50519.0045,43871.1494,55945.918,995.8148,-453.2486,26454.3146
57166.8148,28500.8401,54265.8269,42711.4069,37081.182,39704.2036,5794.4208,50499.6926,43855.4585,55936.7985,981.8226,-467.5537,26446.8491
57155.9072,28494.1792,54265.514,42709.7529,37059.9478,39697.5875,5788.6988,50482.2582,43849.6023,55932.4175,966.087,-482.8423,26442.2894
57172.7604,28502.8517,54267.481,42717.7101,37081.8526,39706.26,5792.3645,50489.2766,43864.5333,55941.8499,978.1122,-469.5207,26448.7267
57194.7992,28511.5689,54266.1399,42725.3544,37104.0255,39713.0549,5793.9738,50503.7606,43870.3895,55943.5487,989.8245,-457.3613,26452.5265
57192.3405,28507.4562,54264.9776,42721.4652,37097.7223,39707.2881,5791.7386,50493.3894,43865.2486,55935.0103,984.326,-462.4575,26447.0726
57185.9479,28505.0869,54265.2905,42719.2301,37081.0479,39704.0248,5795.2702,50478.2349,43856.1738,55927.1425,973.8654,-471.577,26441.8423
57174.8614,28489.2172,54259.9708,42708.1883,37060.9313,39702.639,5793.3033,50458.923,43842.4498,55916.3243,960.7226,-481.5459,26437.7743
57178.0801,28489.6642,54261.5801,42708.8141,37072.7777,39708.0481,5792.7221,50469.3836,43849.9153,55924.9073,967.8751,-476.6285,26440.8588
57195.3803,28504.014,54264.6646,42722.3593,37090.7485,39713.0549,5793.8397,50493.3894,43866.4556,55937.7372,980.9285,-462.7258,26447.3855
57190.91,28500.8401,54259.3896,42718.8277,37086.5911,39708.0034,5788.1624,50488.919,43864.8909,55932.5516,978.1569,-460.6694,26447.8773
57173.2074,28494.1345,54258.3168,42709.5294,37068.6203,39701.3426,5784.8543,50469.2942,43855.1903,55931.3446,968.9033,-473.5887,26447.2514
57161.0928,28494.671,54260.8649,42702.2427,37055.7457,39703.5331,5786.7318,50457.8501,43845.2214,55926.7849,961.3931,-480.8307,26444.5692
57169.7652,28497.1744,54262.3848,42709.6188,37069.2015,39710.1492,5785.659,50478.369,43856.1738,55926.4719,975.6088,-471.0406,26445.6868
57187.0655,28504.2375,54263.9047,42721.7335,37086.6358,39719.0452,5781.4568,50505.2805,43867.5731,55928.4836,988.3493,-461.2952,26447.7879
57190.3288,28496.2803,54263.9047,42726.2932,37086.7699,39722.1744,5780.071,50499.8714,43870.7024,55928.0366,982.0908,-465.7656,26446.2233
57169.5417,28487.6078,54256.2157,42709.5294,37062.1383,39713.949,5772.382,50467.9084,43853.9833,55918.2465,958.9791,-483.9152,26435.8073
57160.4222,28482.7799,54254.3381,42699.6052,37046.7603,39709.7021,5768.8057,50446.1378,43837.2642,55905.4613,951.1113,-494.5993,26433.4381
57170.7934,28480.1424,54251.5665,42709.1718,37066.1616,39719.0899,5769.6998,50462.0969,43838.7841,55906.266,961.4825,-484.0046,26437.372
57193.4581,28486.4902,54246.4256,42714.3127,37088.5581,39725.3484,5770.281,50490.2601,43852.061,55914.4914,976.5029,-469.5654,26440.8141
57195.9615,28485.328,54246.7386,42707.1601,37089.4074,39719.1793,5769.2528,50490.8413,43852.9104,55913.6868,977.5758,-468.6713,26441.5741
57174.4591,28478.8013,54249.5549,42692.7209,37059.3667,39707.1093,5766.66,50470.68,43835.2525,55905.1037,960.9014,-482.887,26438.4896
57163.9091,28475.2697,54252.2371,42690.9775,37046.7156,39705.2318,5769.3422,50445.6908,43825.3731,55904.2543,953.0336,-487.5809,26438.1766
57165.5184,28484.2551,54256.8415,42693.4808,37057.3997,39707.1093,5778.1935,50461.2476,43831.6762,55908.8588,965.1929,-475.0639,26446.0891
57184.6962,28498.9625,54258.2273,42704.7014,37086.1888,39713.636,5786.1507,50486.2368,43843.5674,55923.1192,987.0529,-460.1777,26454.7616
57181.9246,28503.567,54258.5403,42716.2349,37097.9458,39719.7157,5792.9903,50482.3476,43844.2379,55922.4486,990.5845,-460.133,26454.1358
57162.7021,28495.7886,54261.0437,42702.511,37077.2481,39707.7799,5798.3547,50464.1086,43830.3351,55922.3592,979.5874,-468.8948,26453.197
57135.9694,28489.9324,54258.3615,42691.2904,37065.357,39697.4981,5799.8747,50432.3691,43812.8114,55914.7149,963.9412,-480.6072,26448.3243
57126.1793,28496.2803,54257.4227,42690.1281,37074.3424,39697.2299,5798.5336,50429.1952,43806.9999,55916.1454,962.6895,-476.5838,26442.0658
57152.1968,28508.7079,54260.8202,42696.8336,37095.2189,39701.2085,5804.9262,50441.8015,43811.1573,55920.884,976.0559,-465.0056,26441.9317
57157.6953,28516.7992,54266.5869,42701.9298,37101.6115,39710.6856,5812.0787,50438.5382,43804.2283,55920.1688,981.1968,-462.0999,26443.3622
57133.6895,28516.084,54266.2293,42687.8482,37081.8973,39703.5778,5808.6365,50404.7871,43784.6482,55910.2446,965.1929,-474.8404,26436.6567
57113.9753,28514.0276,54266.4528,42677.1641,37060.2608,39691.1502,5806.8931,50373.4052,43773.2041,55905.4166,954.9111,-483.0211,26435.8521
57125.5088,28525.6505,54268.5986,42684.719,37087.0382,39696.6487,5814.6715,50374.9698,43786.9728,55910.1999,972.2114,-471.9347,26444.6139
57146.7429,28539.3298,54270.8337,42700.4099,37111.5357,39704.5165,5821.8241,50387.5762,43793.3654,55917.2183,990.2269,-454.9921,26454.0017
57146.6535,28546.3929,54273.5606,42702.7345,37104.696,39703.8907,5821.6453,50374.6122,43792.4713,55919.7664,993.9373,-455.2603,26453.7781
57131.4991,28536.1111,54272.5325,42692.7656,37077.0246,39695.0394,5817.0408,50345.0185,43774.2323,55914.4914,977.3523,-467.3749,26446.8491
57105.7051,28521.8954,54264.2176,42681.2321,37054.1811,39689.4962,5812.0787,50319.6269,43752.9087,55905.6401,963.4495,-474.2593,26445.7315
57118.7139,28520.4202,54257.4227,42688.1164,37067.3239,39693.5642,5811.1399,50322.3091,43751.0312,55903.6732,973.8654,-467.062,26447.0726
57139.7245,28533.563,54257.0651,42702.6898,37098.5717,39700.3144,5814.4033,50344.9291,43755.1439,55903.3155,993.8926,-454.8579,26449.3078
57132.7955,28535.7088,54258.8085,42698.0853,37096.0683,39700.8508,5815.208,50340.9058,43754.1157,55904.1649,993.8478,-452.6675,26451.0959
57119.3844,28533.0266,54258.3168,42695.0902,37078.5445,39697.4981,5812.5705,50316.4083,43746.9631,55901.4827,979.051,-467.9114,26448.3243
57106.7333,28528.4221,54259.792,42687.2224,37056.461,39694.0112,5811.4976,50289.8991,43739.4977,55896.6994,969.2609,-476.3603,26447.2961
57120.1444,28530.5679,54262.3848,42697.3701,37068.1286,39696.8275,5814.6715,50296.9176,43744.6386,55895.0454,982.0908,-462.7705,26452.7947
57143.2561,28531.8643,54263.1447,42707.026,37093.5649,39699.8674,5816.862,50312.1167,43754.6074,55898.0405,997.0665,-448.5548,26455.9239
57139.948,28526.3211,54262.2954,42704.2991,37087.7087,39694.5029,5812.5705,50302.3267,43761.0447,55900.0969,993.3561,-448.4206,26455.0298
57122.7372,28520.6884,54258.4062,42697.9065,37059.0538,39686.4116,5809.3965,50279.4832,43740.1235,55895.1795,979.1404,-463.3516,26448.2796
57104.0511,28511.5689,54258.3168,42692.8997,37042.737,39687.2163,5811.587,50259.4113,43726.8466,55885.2553,972.0325,-468.716,26446.9385
57113.0812,28511.5689,54256.4392,42697.4595,37053.5553,39691.9996,5813.0622,50264.1946,43737.7095,55888.921,984.4601,-456.8249,26446.5362
57145.2677,28522.9683,54257.2439,42707.1154,37074.7894,39694.0112,5816.6385,50291.0167,43750.003,55901.6168,997.7371,-443.5927,26452.437
57147.8605,28518.9897,54261.2672,42701.1698,37074.6106,39694.1453,5814.0904,50288.4686,43742.761,55897.4147,998.0947,-448.5995,26452.0347
57140.0821,28511.7477,54261.8036,42693.7938,37061.1995,39684.4447,5811.8552,50261.3783,43734.7591,55890.0386,980.6603,-462.1446,26445.5974
57118.3562,28502.2259,54258.9873,42686.2389,37040.2783,39672.8218,5809.4859,50239.2501,43729.7076,55885.0765,967.7857,-478.5508,26439.9201
57125.3747,28498.0685,54256.5286,42681.9474,37047.0732,39671.1677,5802.9592,50252.7058,43738.4695,55888.9657,974.4465,-470.7277,26441.9317
57155.0131,28506.6515,54261.3566,42696.9677,37067.4133,39681.0472,5804.7473,50287.2616,43748.796,55894.509,992.775,-451.1476,26447.7432
57159.394,28504.1034,54262.3401,42703.8968,37073.9847,39686.1434,5805.3732,50287.798,43748.796,55896.2524,997.8265,-448.9124,26451.0065
57141.602,28494.4028,54257.1098,42687.8929,37047.2521,39676.5321,5801.7075,50266.2063,43738.8718,55895.8054,978.6934,-467.5537,26446.4021
57124.2571,28489.7983,54252.0583,42671.1738,37022.1734,39671.3465,5796.209,50245.5086,43727.2042,55885.5683,959.0238,-481.4118,26441.0824
57141.4679,28499.8566,54253.0417,42674.4372,37035.5844,39676.0404,5798.0865,50258.6961,43740.9729,55887.1776,966.9811,-467.4643,26445.9103
57162.4786,28508.9314,54250.3148,42685.0319,37057.7127,39687.1269,5799.1594,50288.558,43758.9437,55898.5323,984.4601,-451.4605,26449.7548
57170.6593,28508.9761,54247.6326,42694.1514,37063.8371,39690.4349,5801.5734,50298.3034,43758.8543,55903.5838,988.2152,-451.8181,26448.1008
57150.3192,28501.9577,54245.7998,42682.0368,37045.6427,39683.5059,5794.8679,50288.4239,43755.2333,55897.2359,972.7031,-467.5537,26445.2845
57139.1433,28501.3318,54249.6443,42672.5149,37020.2065,39681.7625,5796.656,50269.9167,43752.4617,55894.3748,959.4262,-476.2709,26446.7597
57161.2716,28504.9975,54251.5665,42681.6344,37047.5203,39690.0773,5801.5287,50284.2665,43764.5763,55898.5323,971.7196,-467.5537,26451.0065
57178.5271,28511.6136,54254.7852,42691.3351,37072.1519,39695.1288,5803.8533,50317.3918,43779.5967,55906.2213,987.0082,-451.0134,26452.3029
57169.8993,28509.9149,54256.2604,42691.5586,37066.8769,39690.5243,5804.4791,50318.6435,43771.5501,55906.0872,989.9139,-450.7899,26450.4254
57149.2016,28499.2754,54253.9358,42680.8298,37050.426,39676.9792,5800.4111,50289.7203,43757.2896,55901.8403,974.0889,-465.1397,26442.1552
57123.8101,28488.9042,54248.929,42672.3361,37029.1919,39670.676,5790.8446,50263.5241,43744.728,55888.2058,963.8965,-479.1766,26435.2262
57144.4184,28499.2307,54252.4606,42679.9357,37035.6292,39682.3883,5791.1128,50282.7466,43755.9485,55896.5206,980.0792,-469.1184,26443.4963
57173.4309,28512.0159,54253.757,42694.7773,37069.6485,39696.604,5795.3149,50315.6036,43770.7901,55913.7762,1001.5368,-453.3827,26450.7383
57171.6875,28513.2676,54249.8678,42687.7588,37077.5163,39689.4962,5795.1361,50313.9049,43765.1128,55908.8141,995.5913,-456.4226,26446.4021
57148.8887,28503.4329,54246.6938,42682.2603,37051.3201,39687.1269,5788.8776,50290.7485,43758.4966,55898.0405,974.8042,-473.4993,26440.0542
57136.2823,28496.5932,54249.4208,42676.6723,37028.9683,39677.1133,5785.9272,50282.6571,43758.586,55893.4808,959.0238,-485.7928,26434.4215
57145.1783,28502.0024,54246.9174,42683.2438,37045.7321,39678.812,5789.5929,50302.4608,43770.3431,55896.3865,966.2658,-478.0591,26435.3603
57162.8362,28513.7594,54245.0845,42699.0241,37073.6718,39691.8207,5795.8513,50334.2003,43786.2128,55903.2708,980.258,-463.6645,26440.8588
57164.5796,28521.0013,54246.3362,42705.5955,37077.6504,39694.3688,5794.5997,50336.7931,43788.0903,55906.8024,985.8459,-458.3895,26445.5974
57149.2016,28516.5757,54246.1574,42691.9609,37054.8964,39690.2114,5788.3412,50314.6648,43776.5568,55898.5323,967.5622,-472.5158,26439.1154
57139.5904,28509.7808,54241.5529,42685.926,37034.8245,39688.1551,5785.4801,50296.0682,43766.588,55889.4128,953.0336,-488.2962,26435.6285
57153.4932,28513.5359,54245.7551,42690.3069,37048.5932,39695.7546,5787.76,50311.2227,43777.6297,55894.7325,963.8518,-478.2826,26440.5459
57171.1957,28515.7263,54244.7269,42698.6665,37066.8322,39701.6555,5781.6803,50336.6143,43789.5656,55902.5556,982.7167,-462.4128,26441.6635
57161.2716,28511.3901,54242.8941,42698.13,37062.3618,39702.1025,5778.2829,50342.6045,43789.5209,55902.198,982.2696,-459.7306,26442.5129
57155.0131,28510.1384,54249.3761,42695.4478,37050.6495,39701.6555,5782.1274,50328.9253,43783.4412,55897.5041,972.8372,-467.1514,26440.2777
57141.5126,28503.2988,54250.4042,42685.2554,37031.4717,39695.1735,5785.4801,50318.0623,43779.3732,55889.6363,955.984,-478.3273,26435.4944
57154.879,28506.6068,54248.3032,42695.0902,37053.7788,39700.8061,5789.0117,50338.8941,43796.4946,55900.5439,969.9762,-467.4196,26441.9317
57170.257,28510.7195,54246.4703,42703.0027,37076.5775,39706.707,5789.5929,50367.5491,43806.0611,55908.5459,985.3095,-458.5236,26448.0561
57171.7769,28510.4513,54246.0233,42704.612,37081.0479,39709.4339,5792.2751,50377.6073,43805.3459,55904.7461,987.5894,-454.4556,26445.061
57155.1919,28501.6447,54243.1623,42698.8453,37062.3618,39702.0131,5788.7882,50350.4723,43794.7512,55899.3816,972.6584,-468.269,26440.233
57138.5622,28501.2871,54245.8445,42687.6247,37049.219,39693.9665,5785.3013,50329.2382,43789.5656,55896.5653,961.8402,-475.958,26435.5838
57150.3192,28509.9596,54249.1525,42690.7539,37064.0606,39697.9898,5786.3742,50350.9194,43804.72,55901.5721,969.0374,-469.6548,26438.0425
57168.9159,28514.3852,54247.275,42701.1251,37091.5532,39702.1025,5792.4986,50374.2546,43823.3167,55910.0211,984.6836,-453.6957,26446.268
57171.1957,28514.877,54246.3362,42708.8588,37088.8263,39700.4038,5797.8183,50373.8075,43822.7355,55911.0492,990.9421,-452.2204,26448.1008
57152.5544,28511.256,54244.7269,42690.2622,37067.6816,39688.915,5793.035,50348.103,43797.344,55901.8403,973.8207,-472.2476,26441.1718
57131.1861,28505.5786,54242.9388,42668.8492,37043.9887,39681.4495,5792.588,50327.3606,43782.7259,55894.6878,957.4145,-483.1105,26434.3321
57136.3717,28510.4513,54242.8941,42673.409,37055.7904,39681.5836,5795.5831,50345.9126,43793.9018,55899.9181,964.433,-473.0523,26435.7626
57156.3095,28521.4484,54245.8892,42689.2787,37087.4852,39692.4019,5802.1098,50377.6073,43810.5762,55907.5624,981.8673,-457.6743,26441.9317
57164.5796,28525.8293,54254.3828,42703.9415,37100.8962,39702.2814,5810.4694,50381.9883,43818.5781,55917.3524,991.1656,-452.131,26449.6207
57148.2182,28521.9401,54253.8464,42688.2505,37078.9915,39691.5525,5807.519,50356.1944,43808.1175,55914.2679,977.7099,-465.095,26446.715
57137.9364,28518.6321,54250.8066,42674.1242,37059.9031,39685.7858,5802.1545,50336.4354,43785.587,55904.9696,959.1579,-478.0143,26437.3273
57147.1006,28524.4435,54251.4324,42680.7404,37074.0741,39691.7313,5806.5802,50356.4179,43801.9931,55916.056,970.1103,-465.5868,26442.0658
57160.8245,28522.0742,54249.4208,42689.994,37091.6426,39694.5924,5808.5918,50376.4898,43816.2535,55920.884,983.6555,-454.4556,26446.1339
57160.1093,28521.2249,54247.3644,42693.7491,37096.7835,39696.4252,5806.312,50379.7084,43814.1525,55919.3641,984.6836,-457.2272,26446.3574
57146.43,28512.6865,54248.929,42683.0202,37074.1189,39689.5409,5806.0437,50358.5637,43802.8425,55916.4584,970.2891,-470.4148,26442.6023
57135.3436,28507.3221,54249.3761,42676.6276,37051.0966,39687.4845,5806.759,50335.9437,43799.0427,55912.1668,963.7624,-481.0989,26440.5459
57137.9811,28509.602,54251.2983,42681.8579,37056.1928,39695.9782,5806.6696,50351.3664,43802.5743,55912.1668,973.6866,-473.2311,26441.0377
57158.5,28518.4085,54253.8464,42697.4595,37086.7252,39699.5097,5810.5141,50374.9698,43818.5334,55923.745,992.0597,-456.2438,26449.7548
57167.7536,28520.7331,54252.997,42693.5703,37089.7204,39693.6983,5808.1448,50372.4664,43826.7589,55925.4438,987.0082,-458.0766,26450.3807
57150.9004,28513.1782,54253.0417,42681.7685,37067.9498,39685.1152,5805.2391,50350.6511,43815.0913,55917.8889,973.2842,-470.4148,26444.5245
57136.9976,28510.3619,54252.7735,42675.7783,37053.7788,39687.9762,5807.1166,50329.1041,43802.3955,55913.0162,961.7507,-473.3652,26438.2213
57147.7264,28509.8702,54253.8911,42676.1359,37069.2015,39691.0608,5808.3236,50336.7037,43804.8542,55917.263,970.6467,-464.8268,26440.2777
57163.1938,28513.357,54253.31,42685.5236,37088.6028,39695.5311,5806.9378,50356.2391,43813.616,55917.9336,982.1355,-455.752,26446.4021
57151.7497,28509.602,54250.4489,42683.6908,37085.6971,39686.814,5798.623,50354.138,43811.6938,55907.9647,977.9781,-463.6198,26441.2165
57136.7741,28503.567,54253.1759,42676.27,37067.4133,39687.1269,5798.9359,50336.9719,43803.1107,55910.334,962.6448,-476.8521,26440.233
57123.8548,28493.6428,54249.5102,42665.1835,37048.9508,39683.7294,5798.623,50313.4578,43790.5937,55901.9744,952.4077,-488.2514,26436.0756
57141.602,28496.1015,54248.3032,42670.995,37064.597,39685.6964,5803.0039,50329.4617,43798.0145,55903.5391,963.1366,-479.8472,26439.786
57169.0053,28502.6282,54253.5335,42687.9823,37094.6378,39696.7381,5808.1448,50363.2128,43815.0018,55909.5293,985.3095,-461.787,26446.6256
57166.7254,28503.3435,54255.0087,42692.1844,37095.6659,39697.3193,5810.2906,50368.9349,43819.651,55912.7033,988.6622,-454.8579,26447.8326
57149.1569,28495.2968,54250.5383,42680.8298,37071.5261,39694.9053,5807.966,50350.6064,43811.0679,55910.5575,972.9266,-463.8433,26446.0444
57133.4213,28491.4076,54249.0184,42669.9668,37057.668,39687.4398,5806.759,50328.7911,43793.7677,55903.1367,959.7838,-475.4215,26443.6752
57142.8537,28488.5913,54243.7434,42674.4819,37067.8604,39689.8091,5807.4743,50345.4208,43797.4334,55901.6615,968.0986,-468.5819,26445.2398
57163.0597,28491.8547,54244.2799,42684.1378,37089.2733,39699.5544,5809.7094,50364.5539,43816.8347,55910.5128,986.74,-456.959,26450.9171
57160.4669,28496.1909,54244.8163,42685.2554,37081.182,39694.19,5805.3732,50369.0243,43828.6811,55914.1785,988.6175,-455.6179,26447.9667
57144.4184,28492.3911,54239.0496,42674.0795,37056.4163,39689.4962,5796.0749,50344.5268,43809.3692,55903.5391,973.4631,-469.6548,26439.2048
57140.3503,28490.29,54240.4801,42676.9853,37052.5271,39687.6633,5797.7736,50333.2615,43799.3109,55897.37,964.6118,-472.5605,26438.8919
57146.9665,28489.9324,54242.1788,42677.1641,37063.4347,39685.6964,5800.4111,50344.6609,43811.1126,55903.3602,967.5622,-467.2408,26442.1105
57169.8546,28494.9839,54241.5082,42688.9658,37086.0547,39693.9665,5800.6346,50366.9679,43826.9824,55906.3107,984.1919,-454.3662,26441.6188
57171.151,28495.1627,54238.8707,42686.7306,37084.1324,39692.4913,5795.4043,50367.5491,43829.8881,55906.7577,982.7614,-458.3895,26436.5673
57151.9732,28491.9441,54242.4917,42672.7384,37057.9809,39684.3106,5794.0632,50357.1779,43821.1262,55910.1105,968.0986,-473.8569,26431.2029
57135.7906,28488.0102,54244.0563,42669.8327,37043.3629,39676.5321,5790.7552,50341.5316,43811.2915,55908.7694,956.1181,-481.993,26432.544
57150.2298,28494.0451,54243.6987,42672.7384,37054.9858,39682.3436,5788.6094,50338.7153,43819.8298,55914.2679,963.7177,-472.1135,26438.266
57178.5718,28503.1199,54245.4869,42678.5499,37080.9138,39690.0326,5791.9174,50363.2128,43831.408,55919.677,977.7993,-457.2272,26443.3622
57173.4309,28507.1433,54242.447,42674.6607,37078.5892,39688.7809,5792.3645,50369.6948,43830.0222,55917.8442,977.6205,-455.0815,26443.1834
57153.0908,28495.7886,54242.6258,42665.9435,37058.5173,39678.5885,5793.5268,50355.9262,43826.58,55914.0444,962.2425,-468.9842,26439.9201
57131.5885,28484.0763,54239.0943,42657.584,37034.5563,39667.9044,5790.7999,50339.6094,43803.6025,55908.5906,944.6293,-484.1387,26433.8404
57148.1735,28487.1608,54236.9932,42656.9134,37044.9275,39675.504,5790.5763,50355.4791,43808.8775,55909.4399,954.017,-476.405,26433.9298
57168.9606,28491.5417,54236.2332,42668.8492,37070.0955,39688.8703,5790.6657,50376.2662,43825.8648,55911.3622,970.3785,-465.095,26435.7626
57173.4309,28488.0996,54233.7745,42671.2185,37068.1733,39685.1152,5790.1293,50378.6355,43827.8764,55908.5459,970.1103,-468.0008,26430.5323
57148.7546,28484.2104,54233.4169,42656.5558,37049.3084,39678.2756,5784.8543,50357.9378,43820.9474,55901.9744,958.7109,-478.7296,26426.4643
57136.2376,28485.4621,54239.2284,42655.0806,37038.3561,39676.398,5788.4306,50342.0681,43814.5101,55906.3107,947.4456,-482.3506,26429.1018
57156.5777,28490.3795,54241.6424,42664.066,37051.8565,39684.1317,5791.3363,50361.6482,43819.4722,55907.3389,956.6545,-474.2146,26434.0192
57179.0636,28495.0733,54243.6987,42679.9357,37078.7233,39690.122,5793.8844,50388.068,43838.4712,55908.68,975.8323,-463.2622,26439.1601
57181.2987,28500.0354,54243.1176,42688.5635,37079.1703,39685.9199,5792.6774,50395.757,43838.65,55918.47,974.6701,-464.201,26439.2495
57161.7186,28494.0451,54238.9601,42677.7899,37060.3055,39677.1133,5787.8941,50379.3508,43824.2108,55910.1105,955.4476,-480.786,26430.4429
57143.3902,28490.603,54244.5928,42666.3905,37041.977,39678.1862,5787.5812,50365.6715,43819.9192,55906.6683,944.2717,-484.6752,26429.5042
57158.4553,28498.5602,54248.1691,42676.27,37058.7856,39685.607,5789.3693,50382.48,43830.8269,55915.7431,960.0073,-470.5936,26436.7461
57189.3007,28511.5689,54245.9786,42691.1116,37084.8477,39695.2629,5792.588,50416.857,43841.0193,55919.7217,979.498,-458.2554,26441.0824
57187.4231,28513.7594,54248.7055,42685.5236,37088.6475,39698.4369,5793.2585,50417.304,43854.6985,55916.5925,980.9285,-456.6014,26440.233
57162.3445,28504.7293,54247.6326,42674.7501,37063.7476,39689.4068,5789.8164,50389.9008,43842.7627,55912.1668,965.5952,-473.0076,26434.1086
57143.0326,28497.7108,54246.2468,42666.4799,37036.1656,39682.4777,5787.5365,50373.4946,43829.7093,55906.3554,951.6478,-480.2942,26428.9677
57155.6389,28501.3765,54246.828,42670.2797,37046.805,39689.4515,5790.0846,50389.0514,43832.2574,55909.7528,958.6215,-474.8404,26434.5109
57173.9674,28511.3901,54249.9125,42679.8016,37076.9799,39696.7381,5793.9738,50410.1068,43849.1553,55919.0065,976.4135,-459.373,26440.0095
57177.7225,28510.1384,54249.9572,42682.8414,37079.8856,39692.1337,5793.348,50416.3206,43849.2447,55922.4039,978.7381,-460.4906,26437.9084
57172.9839,28501.5553,54249.8678,42685.926,37067.1004,39692.1337,5791.9621,50396.6063,43836.9066,55912.5692,965.7294,-473.7228,26432.5887
57153.3144,28491.4523,54243.3858,42675.8677,37047.1627,39688.1104,5786.3295,50377.8309,43823.5402,55903.6285,951.2901,-484.2281,26426.8219
57150.0063,28490.7371,54244.2799,42675.6442,37059.8584,39695.9782,5786.106,50393.2983,43827.6976,55909.8423,960.5885,-473.6781,26427.7607
57174.9955,28499.3201,54251.0748,42691.5139,37093.699,39707.154,5791.2916,50421.9532,43836.5936,55916.5478,980.258,-458.3895,26434.198
57176.0237,28499.499,54250.4936,42695.6266,37094.906,39709.7021,5793.3927,50419.9862,43845.9814,55915.1173,983.6555,-458.3895,26435.3603
57163.462,28494.7157,54251.3877,42692.8997,37075.8623,39703.9801,5794.8232,50397.6792,43838.2924,55920.1241,971.0938,-468.0008,26439.2495
57148.9781,28487.5631,54243.5646,42681.1427,37054.0023,39695.5758,5787.5365,50375.998,43824.3896,55907.473,957.0122,-481.6353,26433.4381
57158.8576,28489.4854,54240.4801,42676.0465,37057.0421,39695.9335,5783.245,50386.548,43830.3351,55912.5692,964.0753,-477.7461,26432.097
57167.0383,28487.2055,54237.8873,42683.8249,37081.6737,39699.5544,5782.3956,50408.9445,43843.5227,55917.7995,974.8042,-465.9891,26435.3156
57164.5349,28478.6224,54238.2002,42691.5586,37081.7184,39695.9782,5780.8757,50414.3089,43843.3439,55918.0677,972.9266,-463.5304,26436.2097
57146.43,28467.3572,54239.586,42680.0251,37054.4493,39688.7809,5779.0875,50396.8745,43832.2574,55913.2397,955.0452,-473.0523,26432.8569
57123.0054,28464.6749,54235.518,42665.1835,37024.051,39682.7906,5774.4831,50377.1156,43821.3497,55904.3437,937.8344,-486.4186,26425.0338
57133.6448,28465.8819,54233.551,42661.9649,37041.977,39691.1055,5776.0924,50383.1953,43821.8862,55907.8753,944.8081,-484.6305,26425.5702
57159.0811,28467.6701,54228.7678,42672.1126,37066.6087,39694.6371,5775.4219,50404.6977,43833.4644,55910.9598,958.1745,-471.2641,26426.7325
57169.8993,28471.157,54229.93,42681.0086,37075.8623,39693.6089,5774.4831,50413.1913,43840.2146,55913.0609,964.9247,-467.1961,26427.1349
57156.3989,28464.8538,54232.8805,42671.6208,37055.6116,39687.7974,5771.6668,50394.8182,43832.5703,55907.6965,952.3183,-478.6402,26421.5916
57127.6546,28455.1978,54225.6832,42657.4051,37028.8342,39679.2144,5767.3305,50377.652,43814.6889,55894.5537,940.6954,-488.1173,26415.7355
57129.1298,28455.2425,54226.8008,42668.0446,37045.6427,39690.122,5767.4646,50391.9125,43817.7735,55894.9113,950.262,-479.4002,26421.0105
57151.5262,28450.3251,54224.4762,42678.5052,37070.9449,39692.6701,5766.7941,50413.0125,43839.6335,55902.6003,964.6118,-465.9891,26426.3302
57151.9732,28441.8762,54219.3353,42677.1641,37068.218,39682.433,5763.1284,50407.4693,43841.1087,55909.0376,964.433,-467.9561,26428.6548
57128.4145,28434.2319,54216.519,42665.5412,37043.497,39674.9675,5758.3004,50391.0184,43816.6112,55898.0405,946.0598,-482.9764,26420.2952
57102.3971,28421.9384,54211.1546,42651.5043,37015.5573,39672.5088,5753.9195,50370.723,43801.7696,55890.0386,928.4467,-493.3029,26414.9308
57111.0696,28421.6702,54209.5453,42653.5159,37023.0675,39672.1065,5752.9807,50376.4898,43812.2749,55888.921,937.9685,-488.2514,26418.3283
57129.3086,28418.1833,54202.6609,42662.5907,37043.0499,39674.6099,5750.9691,50395.5781,43823.4061,55891.1115,952.3183,-476.9415,26420.7423
57117.5963,28408.5274,54195.1507,42655.9746,37042.2453,39673.4923,5746.5881,50394.55,43819.1146,55885.5683,949.0103,-479.579,26422.7986
57097.5691,28394.8928,54189.6969,42645.3799,37026.599,39662.6294,5742.4307,50375.9533,43803.6919,55874.7947,930.0113,-493.2582,26414.4838
57076.0667,28375.9385,54182.0079,42627.0962,37001.0734,39647.8772,5737.2004,50352.931,43793.1418,55863.7083,913.7839,-510.5585,26406.1689
57086.3932,28379.8277,54175.9729,42629.0631,37009.6564,39654.1357,5737.4239,50365.448,43796.0923,55863.3506,922.5458,-503.8977,26409.1641
57107.3145,28385.5051,54173.559,42646.9892,37035.495,39662.3611,5740.2849,50388.6491,43813.4819,55869.8326,943.9141,-486.2398,26413.4109
57095.9151,28369.1436,54169.9827,42637.6909,37025.6156,39650.47,5731.4783,50378.7696,43818.1758,55865.0941,939.3543,-491.9171,26407.1077
57076.8267,28359.9347,54169.1333,42628.2585,37002.3251,39641.8422,5729.4667,50357.9825,43798.238,55859.5061,923.1716,-503.4506,26398.6588
57068.8695,28366.5508,54174.9448,42627.722,36989.6293,39642.1552,5733.5794,50351.9475,43784.6929,55855.6616,916.2873,-511.4973,26396.9153
57074.2339,28369.0095,54175.5259,42630.4936,37000.3581,39642.5575,5730.6737,50359.2789,43794.2594,55860.2661,925.0939,-509.575,26397.2282
57092.4282,28374.2398,54180.7562,42640.1943,37021.1005,39648.6372,5735.144,50383.24,43811.2915,55874.0348,940.5613,-493.1688,26402.7715
57100.296,28378.576,54181.695,42638.3168,37033.3493,39652.7946,5738.8544,50399.2885,43816.2088,55875.2418,941.2766,-493.8394,26403.4867
57093.0094,28378.1737,54180.9797,42631.0301,37018.9101,39647.9219,5737.6474,50383.2847,43802.4849,55866.8822,924.9598,-506.5799,26402.3244
57070.4341,28375.3574,54175.66,42621.4635,36994.6808,39638.8918,5728.8855,50356.5967,43779.0602,55855.2146,907.4807,-519.4992,26396.066
57081.2076,28380.0066,54179.3704,42633.3547,37006.3037,39646.1338,5733.5794,50374.1652,43791.4431,55866.6587,920.3553,-508.2339,26402.5927
57097.1221,28389.8413,54181.8738,42643.5024,37030.98,39653.9569,5740.6873,50402.239,43814.6889,55880.2933,938.8626,-487.3127,26409.1194
57097.7926,28391.0036,54181.4715,42642.5636,37031.3823,39650.3359,5736.2616,50416.097,43817.2817,55881.232,938.1473,-488.8326,26404.0679
57083.0405,28388.6343,54183.5725,42639.5684,37012.9645,39650.4253,5738.5415,50395.9805,43807.0446,55876.3146,924.6469,-501.9754,26398.0329
57067.3048,28393.06,54187.3723,42635.8581,37003.3532,39648.8607,5742.8777,50380.2001,43792.1584,55871.2184,915.1697,-511.1396,26400.581
57085.8568,28412.953,54192.1556,42653.0689,37019.8935,39662.6741,5748.0186,50395.4887,43814.5995,55878.5945,933.1405,-494.957,26413.0086
57111.2931,28429.4486,54194.0331,42669.9668,37053.5553,39677.2921,5751.5949,50417.6617,43839.7676,55888.7869,947.535,-481.0095,26414.1262
57119.2503,28434.2766,54191.8427,42667.0164,37049.666,39677.8733,5752.176,50419.2263,43839.1417,55887.8928,947.9821,-487.6256,26410.4158
57105.7498,28432.6226,54191.0827,42654.5441,37017.8819,39668.3514,5748.4657,50401.7919,43819.204,55878.2369,928.4019,-502.2883,26403.4867
57086.0356,28431.2367,54192.4685,42649.4479,36997.2289,39666.8315,5748.2421,50388.4703,43808.654,55878.818,915.3038,-508.1445,26402.5927
57093.8587,28434.0531,54189.5181,42652.1748,37009.3882,39663.2105,5747.0351,50394.1476,43811.7832,55878.5051,922.1435,-503.0483,26403.8891
57119.8761,28447.5088,54191.0827,42670.3691,37043.7652,39665.7139,5749.3597,50416.6335,43826.5353,55883.9142,937.3873,-487.5362,26407.5994
57117.6857,28444.7372,54186.0312,42671.8444,37039.116,39657.2202,5742.3413,50420.2992,43821.0815,55876.6276,935.5545,-487.715,26406.5266
57100.7878,28436.9141,54188.4452,42662.5907,37019.3124,39654.4933,5737.8709,50399.6015,43816.4771,55875.1971,930.8159,-498.265,26403.8444
57079.2854,28429.0016,54194.5249,42647.7492,37001.4757,39651.7664,5736.6192,50376.0427,43814.6442,55881.8579,922.0541,-507.2951,26402.4585
57097.6585,28442.0103,54195.1954,42660.0873,37024.0062,39663.0764,5742.0731,50400.9873,43831.0057,55889.7704,931.3524,-495.6722,26404.5149
57127.6546,28462.5292,54198.727,42681.8132,37051.7671,39673.5817,5750.3432,50438.5382,43845.8025,55893.5255,946.7304,-480.2048,26412.0698
57131.9014,28469.8159,54202.2586,42684.0037,37056.8186,39676.3533,5754.6794,50457.9842,43848.3953,55892.7208,945.7022,-483.2894,26411.3545
57114.3329,28465.4349,54202.5268,42678.7734,37039.0266,39675.7275,5750.3432,50437.9123,43836.1019,55891.0221,932.0229,-491.6042,26408.0912
57104.7664,28466.9548,54207.0866,42668.7151,37019.9382,39675.5934,5753.0254,50422.7132,43831.2739,55890.3515,922.7246,-499.9638,26407.6442
57117.9092,28474.5991,54213.9709,42678.237,37031.5164,39681.0919,5759.2839,50447.0766,43851.167,55899.9181,936.0015,-484.9881,26417.5683
57136.9976,28474.2415,54218.5754,42687.58,37055.6116,39683.4165,5759.5074,50467.0143,43860.2865,55904.9696,954.33,-472.6499,26422.7986
57139.501,28470.6205,54221.2576,42692.6762,37065.1335,39687.4398,5760.6697,50465.2262,43864.5333,55906.8918,960.2755,-471.3535,26424.4974
57128.7721,28465.4796,54219.0224,42681.4556,37032.5446,39680.6002,5760.3568,50442.6956,43848.7977,55901.9744,946.1045,-482.9317,26422.1728
57122.5584,28456.5836,54217.0107,42675.5548,37013.5009,39674.6099,5758.7475,50423.4731,43831.5868,55902.2427,930.9053,-498.6227,26418.5071
57135.3436,28459.1764,54217.1896,42677.6111,37033.3493,39683.6847,5759.2839,50426.1106,43836.1913,55902.3768,940.2484,-493.7947,26421.5022
57148.2182,28461.7692,54216.519,42685.0766,37058.0256,39686.5457,5758.3898,50443.7685,43850.4517,55901.4827,954.6429,-482.8423,26422.888
57157.2483,28468.2512,54218.2624,42687.8482,37060.529,39685.8305,5757.2275,50445.4672,43851.7481,55900.9016,957.4145,-481.993,26421.2787
57143.1667,28474.2415,54220.8999,42682.4838,37042.29,39681.3154,5756.7805,50436.6606,43842.6733,55903.5838,941.2318,-493.9288,26418.9988
57125.4194,28466.1055,54220.6764,42679.3545,37021.1899,39682.7459,5754.7688,50422.5343,43833.5985,55896.7888,933.9899,-501.3049,26415.4673
57138.4728,28468.0724,54223.9845,42682.9308,37030.5777,39696.9616,5755.3053,50431.2962,43833.9561,55891.8267,946.7304,-491.6042,26418.4177
57168.2453,28478.9801,54225.862,42696.7889,37057.0868,39705.8576,5757.1828,50459.1912,43844.372,55896.4759,967.6069,-475.3321,26423.6033
57179.3765,28492.4805,54229.6171,42708.5459,37068.2627,39718.6875,5759.9097,50472.0658,43851.3458,55903.7626,975.8323,-469.8783,26425.9279
57152.6438,28482.6905,54227.8737,42691.648,37046.8944,39708.0481,5753.9642,50452.0833,43837.9794,55896.1183,954.6876,-487.8044,26418.1495
57143.0326,28475.8955,54230.2877,42686.0601,37036.9256,39703.5778,5749.8068,50439.6558,43836.6383,55892.0056,939.1755,-497.4157,26415.6908
57154.9684,28473.7498,54231.4053,42691.0222,37050.2919,39708.7634,5751.5055,50456.7325,43842.8968,55892.3632,949.6361,-488.4303,26419.6247
57166.5019,28479.8294,54236.0991,42698.1747,37074.7894,39718.7322,5761.5638,50476.4467,43847.993,55897.817,966.7575,-471.9347,26425.2573
57158.8576,28476.8343,54237.3508,42696.5654,37075.5494,39712.3843,5766.2129,50471.4847,43843.2097,55899.5157,964.4777,-472.9182,26426.1961
57142.7196,28469.9947,54235.6074,42679.3993,37051.2754,39698.8839,5763.0837,50445.5119,43830.3798,55894.509,948.6526,-488.2067,26420.2058
57121.4855,28467.4019,54232.6123,42669.0727,37027.7613,39686.0093,5762.279,50422.9814,43813.3925,55888.2058,931.7547,-502.7801,26417.5236
57126.4923,28465.4349,54228.723,42670.5033,37039.6972,39684.8023,5763.7542,50418.4663,43814.6889,55889.8151,938.4155,-495.5381,26416.3166
57142.8537,28473.6603,54227.7396,42683.6908,37069.0227,39695.5758,5769.5657,50429.5081,43818.3099,55896.7888,960.2308,-479.579,26420.787
57139.8139,28476.2532,54224.0292,42677.0747,37069.9614,39688.2892,5769.2528,50422.7579,43810.0398,55891.9162,958.9344,-483.7811,26418.5518
57117.9092,28476.5661,54227.5161,42664.2895,37048.1014,39680.3319,5771.7562,50398.2157,43788.1351,55894.3748,944.7634,-494.5546,26417.2554
57091.5341,28477.5943,54227.829,42655.5723,37025.6156,39670.9442,5772.7396,50365.895,43768.6443,55892.1397,929.7878,-500.6343,26414.5285
57104.0511,28483.8974,54227.1584,42661.6967,37045.5533,39675.191,5775.9136,50353.7804,43774.5899,55894.2407,937.9685,-492.4536,26419.1329
57126.3134,28498.8284,54230.1983,42671.0844,37074.7894,39683.2377,5785.0331,50376.2662,43786.1234,55902.198,960.1861,-477.4779,26428.2078
57120.949,28500.4377,54229.3042,42666.927,37067.8604,39681.0472,5788.5647,50369.0243,43781.2954,55903.8073,961.1249,-477.5673,26428.9677
57103.6041,28502.8517,54227.6949,42664.2001,37049.0402,39672.1959,5789.727,50336.5248,43765.1575,55896.6547,946.1045,-492.4536,26425.1679
57082.1911,28509.3784,54231.8523,42660.6238,37034.2433,39665.8033,5793.0797,50304.0701,43750.45,55893.5255,933.3193,-499.1591,26423.4245
57090.3271,28518.4085,54235.6074,42663.0825,37055.7457,39671.123,5796.656,50312.0273,43754.3839,55897.3253,944.8528,-488.3856,26424.9891
57117.1939,28532.1772,54235.7862,42677.477,37086.5017,39681.5836,5798.2206,50337.1507,43764.6657,55901.5274,967.5622,-472.2923,26425.302
57112.0977,28539.8662,54235.2945,42684.8084,37081.1373,39685.8752,5799.6064,50330.8475,43760.8212,55899.0687,974.3571,-469.5207,26426.6431
57086.5721,28522.2977,54231.9417,42670.4139,37045.7321,39676.8451,5795.4937,50302.6396,43745.0856,55887.4458,957.0569,-482.1718,26421.0999
57075.3068,28515.6369,54234.4004,42660.2662,37021.0111,39674.0735,5794.1526,50269.6484,43739.9447,55882.7519,943.6458,-493.0794,26419.0435
57092.9199,28521.6719,54238.7813,42668.9386,37037.1938,39681.8519,5798.8465,50282.523,43747.0973,55886.2388,952.3183,-483.6023,26422.7986
57106.5992,28527.2598,54239.7201,42682.3497,37066.7428,39687.261,5805.2838,50297.5881,43765.1575,55891.5138,973.4631,-466.8832,26428.8783
57097.4797,28526.0975,54236.412,42680.5615,37067.9498,39686.8587,5804.345,50287.7086,43757.3791,55884.6742,971.8537,-470.4148,26423.7374
57085.4992,28513.3123,54234.4898,42668.8939,37039.6525,39682.7459,5802.691,50264.731,43740.9729,55877.5663,955.4923,-481.3671,26421.994
57070.1659,28505.3998,54241.0165,42665.6306,37023.2463,39682.433,5800.4111,50248.906,43738.3354,55879.9356,945.3446,-488.5197,26423.5139
57077.229,28508.1267,54241.3741,42672.202,37037.3279,39679.0802,5800.5005,50256.5056,43744.5045,55882.3943,953.3912,-484.9881,26427.9842
57092.8305,28514.7429,54241.0165,42684.9425,37059.8137,39680.7343,5798.2653,50271.6601,43748.9301,55886.4623,965.9529,-472.0688,26429.5936
57091.0871,28510.8089,54238.6025,42680.1145,37055.5669,39678.9908,5790.4869,50258.4726,43744.415,55882.2155,965.7294,-473.7228,26425.5255
57080.4477,28503.7458,54238.2896,42671.3079,37028.7448,39671.883,5791.0234,50236.4337,43735.3402,55875.3312,957.5039,-483.0211,26425.1679
57073.9657,28495.1627,54237.9767,42664.2895,37002.9062,39667.1891,5791.5598,50217.7924,43724.075,55874.6159,946.328,-493.5712,26422.1728
57090.1036,28496.5932,54237.7532,42676.717,37023.2016,39674.1182,5794.5102,50221.5475,43731.9875,55879.7568,955.0452,-477.8802,26428.2525
57116.2105,28502.7623,54238.9154,42687.8929,37047.565,39682.88,5799.2041,50244.3463,43748.5278,55890.2174,976.0112,-459.0601,26437.1037
57120.7702,28499.8119,54235.6521,42685.9707,37048.5038,39682.433,5795.7172,50245.6427,43744.6386,55888.027,974.8936,-465.0056,26436.4779
57101.6371,28497.1297,54235.5627,42675.6442,37024.2298,39677.158,5792.6327,50230.8905,43731.0934,55883.4225,961.706,-483.5576,26432.8569
57083.711,28491.6759,54234.4451,42664.96,37005.052,39667.0997,5792.2751,50215.9595,43719.247,55879.2651,953.57,-489.4584,26427.9395
57104.3193,28496.0568,54235.5627,42673.7219,37011.1763,39671.883,5795.2702,50226.1072,43737.1731,55887.0435,962.7789,-477.0309,26432.4546
57132.1696,28502.8964,54240.7036,42694.9114,37045.9557,39681.673,5798.9806,50249.8001,43754.4286,55892.0056,983.879,-465.9891,26438.8919
57131.5438,28496.8615,54241.8212,42687.6247,37049.6213,39672.4641,5793.348,50250.0236,43754.3392,55890.888,986.3377,-466.7938,26440.993
57115.4952,28495.2521,54246.068,42676.3594,37022.6651,39666.0715,5795.7619,50227.0013,43746.2926,55891.9609,969.7974,-474.4828,26441.7082
57101.95,28491.1841,54244.1458,42668.4916,37002.5933,39668.709,5794.0632,50197.05,43737.7542,55888.7869,954.33,-488.2962,26440.8141
57118.2668,28493.8216,54239.4519,42665.8541,37021.1005,39676.2192,5791.0681,50210.2375,43748.6619,55887.6693,960.8567,-484.7199,26442.6917
57142.4067,28497.7108,54234.1769,42675.6889,37046.8497,39682.0754,5789.8164,50240.3677,43755.5909,55887.9822,971.5855,-475.0639,26438.4449
57146.43,28507.0091,54234.8474,42680.6957,37048.9955,39682.0307,5789.9505,50257.0421,43759.5248,55890.7092,976.5029,-472.0241,26436.0309
57123.0948,28498.8731,54233.4616,42668.9386,37025.5709,39675.191,5784.5861,50243.9886,43749.5559,55882.6178,962.3319,-484.9881,26428.2972
57107.1357,28490.603,54231.0476,42657.5392,36997.0948,39664.5963,5779.177,50229.3259,43730.7358,55873.1854,941.813,-502.2883,26420.1164
57119.6526,28492.7934,54232.8805,42663.7977,37015.6914,39671.2571,5786.553,50242.6475,43742.761,55876.2699,951.4689,-490.9337,26425.7044
57141.1997,28492.1229,54236.6803,42683.7802,37047.0285,39685.6964,5796.5666,50266.2063,43770.8795,55890.5303,976.5923,-466.4809,26437.5955
57132.5719,28477.5496,54231.7182,42676.3147,37037.7749,39674.7887,5789.9058,50252.3929,43761.4918,55888.8763,974.9383,-468.8054,26429.9512
57110.2202,28469.7264,54231.4947,42660.445,37016.3172,39661.1989,5786.1507,50231.3823,43744.9515,55882.7966,960.052,-483.7811,26422.1281
57106.5992,28470.0394,54236.2332,42658.4333,37005.499,39659.9025,5787.9388,50216.496,43745.5326,55886.507,954.5982,-488.4303,26424.855
57125.777,28476.7002,54235.4733,42667.4634,37025.0344,39670.5419,5792.7668,50236.2996,43760.6424,55897.5041,965.4164,-476.1815,26437.1037
57156.2648,28492.1229,54235.9203,42689.8152,37057.3103,39684.3553,5799.7853,50267.4133,43783.9329,55905.1484,984.4154,-458.2107,26449.3525
57157.3377,28497.4873,54239.4966,42696.8783,37062.5407,39689.4515,5797.9077,50272.1518,43789.6997,55902.5109,980.7497,-456.9143,26450.2913
57128.5486,28491.2288,54232.5675,42681.7238,37025.8391,39681.0472,5791.0681,50253.9128,43768.1973,55887.0882,960.1861,-477.2544,26436.2544
57118.9374,28494.0451,54233.9981,42669.2069,37006.259,39680.6449,5793.1691,50239.4289,43760.106,55888.5634,948.6526,-489.8608,26430.6664
57131.9908,28502.5388,54237.0826,42685.8366,37031.5164,39691.1502,5798.4442,50255.388,43774.4558,55893.3914,964.433,-478.2826,26432.0523
57152.465,28514.1617,54238.2002,42700.3205,37065.7593,39696.0676,5802.1098,50282.9254,43792.0243,55901.5274,983.0296,-460.8482,26437.2826
57159.707,28517.2462,54235.6521,42707.6966,37074.0741,39696.6487,5799.4723,50290.972,43790.0126,55897.9064,987.187,-460.4906,26434.7792
57148.3076,28503.8352,54229.483,42692.2292,37049.9343,39691.1502,5791.9174,50272.3753,43772.4888,55888.5634,964.5224,-478.1932,26425.5255
57136.1482,28496.5038,54228.5889,42680.6062,37020.5194,39689.2726,5785.2119,50261.1548,43755.9932,55883.8248,947.2221,-494.957,26421.0105
57149.2016,28506.7856,54229.6171,42691.3798,37035.9868,39700.6273,5788.2518,50275.9516,43762.52,55884.5401,959.7391,-487.2233,26426.9561
57171.7769,28514.564,54227.4266,42713.4186,37064.4182,39709.6127,5787.9388,50301.6561,43776.1098,55887.7587,979.4086,-474.4828,26429.5042
57167.4407,28514.5193,54222.7775,42708.3671,37061.736,39708.7187,5779.3558,50307.4676,43781.7425,55891.6032,976.6817,-473.4099,26425.5255
57146.5641,28500.9295,54222.0622,42687.8482,37031.7847,39700.8955,5774.9748,50286.904,43774.9475,55889.3681,955.7605,-486.9103,26419.7588
57127.8334,28486.1773,54221.3917,42674.3478,37009.9694,39692.8489,5772.6055,50273.5823,43763.9952,55882.8413,943.9588,-497.4604,26420.2058
57142.9431,28493.911,54223.4927,42686.2389,37033.2599,39697.7216,5776.8971,50293.6542,43764.621,55888.6975,954.1065,-485.3457,26427.4031
57167.3512,28502.1812,54225.4597,42699.784,37065.3123,39701.5214,5781.9486,50312.9661,43785.8105,55899.4263,972.569,-471.3535,26432.6334
57170.5699,28506.0704,54226.7114,42701.2593,37073.3589,39698.6604,5784.5414,50322.7115,43789.8338,55898.8452,973.8207,-471.8453,26431.3817
57150.8557,28499.946,54224.0292,42691.201,37052.7953,39688.1104,5783.1109,50297.3646,43779.0602,55890.2174,959.2026,-485.6586,26425.615
57133.1531,28496.3697,54226.175,42682.1262,37032.4999,39680.5555,5784.2284,50273.4482,43776.9145,55893.0337,948.742,-492.0512,26425.7938
57142.4961,28502.6729,54229.5724,42688.4741,37055.7904,39684.7129,5787.8047,50289.2733,43785.7211,55898.1746,963.3154,-479.6684,26431.2476
57159.0364,28509.0655,54230.9582,42692.8997,37075.6388,39686.3222,5790.7999,50314.2625,43798.1486,55905.9083,980.9285,-466.0785,26432.6334
57157.9188,28504.5505,54232.0758,42683.0202,37070.8555,39679.5273,5788.9223,50320.074,43806.2847,55907.5177,979.4086,-465.095,26430.3535
57146.6535,28496.1462,54228.5889,42676.4041,37051.3648,39667.9938,5784.2284,50302.8184,43790.8173,55900.8569,959.5603,-486.4633,26422.888
57124.9723,28489.8877,54220.587,42663.2613,37029.9518,39657.5332,5780.2051,50281.4054,43776.0651,55891.3797,938.3261,-503.093,26416.0037
57126.0452,28487.2949,54221.7493,42660.9367,37039.2948,39663.0317,5781.0098,50295.487,43792.6054,55902.8685,947.535,-496.0746,26420.3399
57146.1618,28493.2852,54223.3139,42674.3478,37062.5407,39666.5633,5786.2401,50321.9962,43810.4868,55912.7927,960.4543,-482.3059,26425.3467
57142.4067,28496.9062,54223.1351,42672.7831,37064.7311,39662.227,5788.6541,50320.0293,43809.3245,55910.4234,954.0617,-482.6635,26423.9609
57124.9723,28493.0617,54220.5423,42658.5674,37043.2287,39655.1639,5779.9369,50307.557,43796.5393,55901.2145,941.5001,-497.9521,26418.6859
57114.7799,28483.6739,54220.587,42645.8716,37029.9071,39650.8723,5778.5511,50279.0362,43776.5121,55896.5653,931.3971,-511.4973,26413.6791
57132.9743,28482.2434,54221.6152,42659.7744,37038.7584,39659.6342,5783.4238,50287.8428,43782.9942,55901.0357,941.7683,-502.7801,26415.959
57153.9849,28494.9392,54223.6716,42671.1738,37060.3502,39663.5681,5788.8329,50321.7727,43804.6753,55908.8141,960.9461,-481.4118,26420.787
57153.1802,28496.8168,54225.415,42674.4372,37070.0508,39664.5516,5791.6939,50325.8854,43809.9951,55906.4895,959.0238,-478.4614,26420.3399
57132.7507,28490.1112,54223.5821,42668.8492,37052.8847,39662.0929,5788.4753,50307.2888,43795.1982,55901.3933,948.5185,-492.0512,26418.0154
57119.7867,28486.9373,54224.1633,42660.9367,37025.2132,39658.6508,5789.9505,50289.2286,43788.6715,55905.1931,938.7732,-502.1542,26419.2671
57130.8732,28493.464,54226.3985,42666.0329,37043.7652,39663.434,5790.934,50298.7504,43797.6122,55905.1931,945.6128,-491.8277,26419.4459
57146.9665,28503.1199,54229.93,42676.2253,37072.4201,39674.2523,5795.7619,50324.6337,43810.4421,55909.4399,963.2707,-476.9415,26422.6198
57139.4563,28505.668,54231.3159,42676.4488,37069.872,39676.711,5796.4325,50335.0496,43811.9173,55912.4798,968.4563,-476.5838,26425.0338
57127.3863,28496.325,54226.2644,42671.1291,37049.8002,39671.123,5795.1808,50305.5006,43796.1817,55905.0143,958.2192,-485.8375,26424.1397
57123.4971,28487.8314,54226.9349,42664.8259,37035.3162,39669.9607,5794.1079,50281.2713,43782.0554,55896.6547,946.7304,-493.5712,26425.0338
57130.3368,28492.704,54228.1866,42667.2846,37048.4143,39678.0521,5796.5666,50301.075,43791.309,55901.885,951.4242,-485.3904,26428.8783
57147.637,28504.9975,54225.1468,42681.0533,37068.3074,39688.8256,5795.8961,50326.1536,43803.2895,55909.3952,967.294,-473.2311,26432.3205
57147.2794,28507.188,54225.862,42683.0649,37070.0955,39691.9996,5794.9126,50337.6424,43809.9951,55913.2844,967.6516,-470.7277,26434.1533
57123.363,28493.1511,54228.0525,42671.755,37045.2851,39683.8635,5793.0797,50311.0439,43806.3294,55908.5906,953.2571,-485.301,26429.683
57111.1143,28481.9752,54226.1302,42666.167,37028.4766,39678.1415,5792.588,50284.7135,43796.8075,55901.8403,940.7401,-499.6508,26423.4692
57125.2853,28481.707,54225.6385,42667.6422,37042.6029,39682.1201,5791.6939,50305.6794,43797.7463,55907.2495,949.2785,-493.4818,26423.648
57147.0559,28488.5466,54229.5724,42684.3166,37072.3307,39693.9218,5798.2206,50337.2848,43814.823,55920.2135,972.8819,-472.9182,26434.6451
57149.6487,28494.7157,54231.4053,42683.6908,37078.8127,39696.3358,5797.4607,50339.3859,43817.1029,55919.0959,974.3124,-473.2758,26433.1698
57130.0238,28490.4242,54229.3489,42674.2136,37059.3667,39688.8703,5793.3927,50308.2275,43800.5626,55904.7908,954.017,-487.9832,26424.3633
57114.6458,28482.0646,54226.7561,42663.3507,37036.6573,39676.9345,5789.3693,50286.2334,43780.2672,55896.9676,935.2863,-502.8695,26418.6859
57132.2143,28489.7536,54231.0923,42671.3526,37048.7273,39680.8684,5792.8562,50300.0468,43791.9348,55907.2047,950.0384,-490.4419,26424.1397
57162.0762,28500.9295,54234.6239,42689.7705,37077.114,39685.6517,5797.103,50326.7348,43808.9222,55915.1173,968.8139,-472.9182,26431.1582
57163.8197,28493.8216,54230.1983,42683.2885,37077.9186,39681.4495,5797.1925,50328.1206,43811.1573,55912.8374,967.5622,-471.8006,26429.7277
57142.9431,28488.3231,54230.5559,42672.1126,37057.1315,39678.4544,5793.6609,50312.0273,43812.0961,55912.1221,956.4757,-482.0824,26425.8385
57130.4262,28484.1657,54227.2478,42662.4566,37027.9849,39675.4146,5790.4869,50291.4637,43797.0757,55904.0755,941.9918,-495.9404,26417.4789
57139.1881,28487.7867,54230.243,42666.3905,37039.1607,39677.6497,5793.7503,50305.0089,43795.9135,55908.5906,952.3183,-488.475,26422.5751
57153.4932,28498.8731,54233.4169,42676.1359,37070.5426,39684.1764,5796.2984,50323.4714,43819.6063,55923.4321,968.0986,-471.4429,26429.4147
57161.1822,28499.6331,54234.8474,42682.6626,37077.5163,39684.8023,5797.5054,50331.3392,43824.3449,55925.1755,968.9927,-474.5275,26430.89
57145.223,28492.4805,54233.2828,42667.2846,37051.3201,39674.6546,5791.7386,50318.107,43805.3012,55918.8724,951.2454,-490.6654,26429.0571
57129.6662,28486.3114,54232.657,42657.3157,37033.841,39665.6245,5790.7104,50299.3762,43798.1486,55910.7363,941.4107,-499.025,26427.716
57146.1171,28492.4805,54236.2332,42659.5956,37044.8381,39673.5817,5796.4772,50313.7261,43815.583,55915.4302,954.8664,-485.8822,26430.4429
57173.4756,28494.8051,54237.7979,42673.856,37082.6125,39683.64,5801.7969,50343.8562,43841.511,55925.7567,974.5806,-468.3137,26437.1485
57176.8731,28490.3795,54235.3392,42674.9289,37085.9206,39680.8237,5798.8465,50352.1264,43845.0873,55926.7402,976.5029,-468.5819,26438.8025
57153.7167,28485.6856,54232.0311,42667.5975,37061.9148,39673.6264,5795.8961,50333.2168,43825.9542,55918.8724,958.4874,-486.1057,26431.0688
57138.294,28481.1705,54234.8027,42658.3886,37042.4688,39670.1843,5790.5316,50311.3568,43813.9737,55912.748,946.4622,-494.3758,26427.8501
57141.2891,28487.429,54232.9252,42667.3293,37052.4377,39671.4807,5791.7386,50331.8757,43825.3731,55915.609,955.1346,-485.2116,26431.5158
57160.2434,28501.6,54233.7298,42676.4935,37084.5348,39681.6283,5797.7289,50363.794,43840.304,55931.1211,970.1997,-474.9745,26438.0425
57162.9703,28500.3483,54232.2993,42675.5548,37085.4735,39676.8451,5801.2158,50361.2459,43842.8074,55934.2504,970.1997,-471.3535,26437.1037
57142.9431,28488.3678,54230.4218,42660.892,37063.7923,39664.7304,5792.8562,50339.7435,43830.0669,55928.4836,948.742,-491.3807,26427.9395
57131.8567,28482.7799,54227.6502,42653.2924,37039.3395,39662.7635,5789.5035,50323.0691,43819.204,55912.0774,937.0744,-506.8034,26418.5518
57136.5505,28492.0335,54227.0243,42658.6568,37050.6048,39676.1298,5789.4588,50342.4704,43829.6646,55913.5079,943.4223,-497.6839,26420.6082
57159.2152,28500.2589,54228.8125,42678.6393,37079.8856,39683.4612,5793.9291,50364.6433,43841.5557,55913.9997,963.5389,-479.3108,26425.6597
57162.7468,28496.9956,54230.69,42680.5615,37081.4502,39687.1716,5791.3363,50371.3489,43839.097,55914.8043,967.4281,-478.9531,26425.7044
57145.0442,28492.1229,54231.4053,42668.8045,37060.5737,39684.2211,5791.3363,50353.7357,43828.0106,55912.3009,955.0452,-487.8938,26423.4245
57125.8217,28482.3775,54230.0642,42662.4566,37046.805,39681.0025,5790.621,50326.1089,43813.9737,55903.8073,937.1638,-505.3282,26417.3001
57135.8353,28485.4174,54233.2828,42672.8725,37060.3055,39683.8635,5791.0234,50339.7435,43825.0154,55910.3787,947.535,-498.7568,26422.5751
57152.7779,28493.1511,54232.1652,42680.0698,37079.7515,39683.8635,5790.7552,50366.208,43844.372,55921.1969,964.1647,-480.6966,26427.9395
57159.8411,28495.2521,54225.5938,42683.1096,37079.5727,39685.6517,5790.4422,50380.5578,43843.6568,55917.263,966.7575,-481.0989,26425.0338
57145.8042,28487.9208,54220.0953,42670.7715,37055.4775,39679.4379,5786.9107,50363.9728,43826.4459,55904.4331,951.2454,-494.2417,26419.8929
57134.4048,28485.9091,54227.0243,42665.0941,37039.6525,39677.7391,5787.5812,50348.0136,43822.3332,55911.2281,937.745,-502.4225,26423.4692
57142.7196,28495.0733,54233.8192,42671.8444,37055.7457,39685.8305,5791.2469,50365.5374,43837.8453,55920.8393,943.1541,-491.5148,26427.8501
57160.5116,28497.532,54233.9534,42679.444,37080.7797,39692.6254,5793.035,50385.9222,43852.6869,55927.9472,961.7507,-477.0309,26431.2923
57166.5019,28494.8498,54237.3061,42680.7851,37083.6854,39691.9549,5791.3363,50397.0981,43850.3176,55928.8412,963.2707,-476.2262,26429.6383
57148.5758,28485.328,54234.2216,42674.3478,37062.2724,39683.2377,5784.899,50374.1652,43831.5421,55921.0628,950.3514,-487.8491,26424.0503
57134.7624,28475.6273,54230.1089,42666.7929,37038.3561,39679.6167,5781.6356,50342.5598,43821.0815,55914.6255,939.8907,-499.2485,26421.1446
57150.0957,28479.2483,54229.2595,42672.3361,37053.0635,39681.4048,5782.8873,50353.0651,43833.2409,55911.1834,950.9325,-497.1474,26422.7092
57163.9538,28484.3445,54226.8008,42681.6791,37071.9731,39687.3951,5784.0049,50374.7016,43850.2282,55915.162,965.4611,-491.5595,26421.7257
57162.8809,28480.0977,54225.9961,42677.8793,37068.8438,39689.362,5781.4568,50376.0427,43854.7432,55918.6488,965.7294,-490.9784,26418.7306
57142.6302,28475.0015,54224.208,42669.0727,37045.1063,39680.5108,5777.21,50364.7774,43840.7063,55910.334,948.742,-502.1542,26415.4226
57128.191,28470.1288,54220.8552,42658.4333,37018.5971,39667.2785,5772.2926,50352.484,43818.8463,55902.8685,927.5079,-515.9229,26411.7569
57138.6069,28472.051,54221.4811,42671.0844,37038.2667,39671.2571,5774.8407,50366.8785,43827.9659,55906.2213,936.8956,-506.8928,26412.5615
57159.6175,28476.7896,54224.8785,42679.3993,37068.3521,39679.5273,5773.1867,50386.5033,43850.5858,55913.0609,954.6876,-492.0959,26419.1329
57166.9489,28475.2697,54221.2576,42679.3545,37074.5659,39684.8917,5768.0458,50380.5131,43842.8968,55911.0045,954.5088,-496.3428,26413.6344
57150.9004,28467.9383,54217.9495,42671.2632,37054.8517,39673.8052,5766.0788,50366.3868,43822.1991,55903.852,940.5166,-511.1396,26410.6393
57131.9461,28454.7955,54219.4694,42653.963,37025.0344,39667.4573,5762.4578,50354.6298,43816.9241,55907.6965,925.8538,-521.1085,26410.6393
57136.5058,28452.158,54216.966,42661.7861,37038.2667,39674.2523,5763.5307,50358.9213,43834.582,55908.3223,936.7168,-512.1231,26411.4439
57163.2385,28467.5807,54221.5705,42677.8793,37072.1519,39683.0589,5772.0691,50389.9455,43850.5858,55915.2067,957.5486,-491.336,26419.2671
57167.7536,28472.4981,54222.241,42682.7073,37075.2811,39681.1366,5771.8456,50396.5169,43846.5625,55914.7149,955.4923,-491.9171,26418.5965
57145.5359,28467.223,54221.3023,42672.5596,37053.7788,39672.8218,5770.1916,50370.2313,43839.7229,55908.8141,943.1094,-502.7801,26413.4556
57125.8664,28456.1366,54222.4199,42665.7647,37027.806,39674.0735,5769.8339,50352.2605,43832.4809,55909.4846,930.0113,-511.0502,26413.4556
57144.2395,28466.776,54222.3752,42669.5198,37036.702,39679.3485,5769.7892,50367.3255,43842.1816,55912.9715,940.0696,-501.7072,26418.4624
57167.3512,28478.086,54224.7891,42681.5897,37059.6796,39686.5904,5772.382,50396.7404,43855.7714,55920.884,956.4757,-485.1669,26421.9046
57170.3017,28479.0695,54223.2692,42687.7588,37068.5756,39686.3222,5774.1702,50400.5402,43852.2846,55921.0181,956.6545,-484.2728,26423.3798
57159.9305,28476.6108,54219.4247,42680.5615,37053.7341,39683.1036,5773.142,50378.5908,43838.5606,55911.8539,939.1308,-493.1241,26420.6082
57143.9713,28475.0015,54224.2527,42674.1689,37031.1141,39681.8519,5776.8524,50366.4315,43835.2972,55911.8986,930.6818,-496.6557,26420.3399
57153.2249,28475.8061,54226.2644,42684.6743,37042.4241,39687.261,5777.657,50386.0563,43847.4566,55917.1736,938.7285,-486.2398,26425.8385
57168.7371,28481.9305,54221.3023,42692.6315,37068.2627,39691.0608,5774.9301,50404.7424,43860.0183,55918.6488,954.4641,-477.165,26424.4527
57166.9042,28473.7051,54216.7425,42692.6762,37074.2977,39683.7741,5767.5987,50401.2555,43854.2962,55907.7859,948.4291,-483.3341,26416.0484
57145.6701,28464.0938,54210.7522,42678.1923,37052.3036,39680.0637,5761.2956,50380.9601,43828.7705,55892.8996,931.5312,-501.9754,26405.2749
57128.4592,28462.3951,54213.8815,42667.0611,37034.4222,39678.365,5759.1051,50364.0175,43819.4275,55894.6431,922.1882,-512.1678,26403.4867
57139.6798,28461.5904,54210.9311,42670.8609,37038.8925,39679.125,5755.9758,50378.9932,43824.5237,55896.9229,926.6585,-509.8879,26404.5149
57165.6525,28463.5127,54209.5006,42678.7287,37059.1432,39683.8188,5755.1712,50399.5568,43842.2263,55904.5225,943.1541,-500.679,26407.4653
57165.3843,28463.2444,54212.9427,42680.2486,37060.8866,39679.5273,5755.2606,50403.5354,43851.7928,55907.7412,944.4952,-499.1144,26409.7452
57143.4349,28457.2989,54211.7804,42677.477,37043.0499,39674.297,5755.7076,50381.1836,43841.958,55904.4331,930.6371,-506.8034,26407.823
57129.0851,28455.9578,54210.1264,42673.0961,37030.2647,39676.0404,5761.072,50374.1205,43833.9561,55901.9297,927.5079,-508.368,26409.4323
57135.3436,28454.7061,54214.4179,42677.2535,37041.4853,39684.8917,5763.7095,50389.3644,43847.7695,55908.1435,936.8509,-501.1708,26412.0251
57159.2599,28463.0656,54215.3567,42694.2408,37068.6203,39698.3922,5769.2528,50415.3371,43871.1494,55913.5079,954.5088,-486.0163,26418.4624
57161.4504,28468.2065,54215.759,42699.8734,37076.3093,39698.9733,5772.6949,50420.5674,43872.3117,55911.8092,961.0355,-479.6237,26422.2622
57148.6652,28471.6487,54218.7989,42691.5586,37062.943,39693.3854,5775.556,50405.1,43858.4983,55913.5526,949.1891,-483.2,26422.2622
57131.7673,28462.9762,54218.5307,42676.7617,37041.4853,39684.3106,5770.5492,50387.9786,43841.1981,55907.2047,932.5147,-500.7237,26415.0649
57139.0986,28460.0258,54217.3237,42678.3264,37050.2025,39688.3339,5770.5045,50397.858,43854.028,55909.2611,944.227,-498.9803,26416.4507
57161.4504,28467.9383,54218.4412,42688.5635,37078.321,39693.743,5772.2479,50416.6782,43872.2223,55914.9384,961.3037,-485.9716,26422.3069
57175.3532,28469.2794,54219.8718,42700.4546,37080.0197,39693.5195,5774.9748,50424.993,43864.578,55913.8209,964.0306,-482.1718,26421.3234
57151.5709,28464.362,54221.034,42684.0931,37059.0985,39683.3271,5771.2644,50405.3682,43849.9153,55911.5857,943.467,-494.1523,26413.7685
57130.6497,28455.466,54225.0127,42675.4206,37043.2734,39680.1978,5771.7115,50381.7648,43844.5061,55919.4535,932.0229,-503.3165,26410.8628
57136.9082,28461.2328,54228.723,42682.2603,37050.426,39685.6517,5772.8291,50389.3644,43856.7549,55917.5313,943.1988,-497.1921,26414.9755
57159.1705,28473.9733,54226.6667,42697.0124,37077.4716,39695.4864,5776.1371,50423.2049,43861.1805,55918.2018,960.1861,-481.7247,26420.9211
57173.565,28477.0578,54231.45,42699.9182,37084.043,39700.6273,5777.5676,50436.3924,43866.1426,55922.9404,965.4164,-475.3321,26424.408
57151.4815,28469.5029,54228.5889,42688.4294,37057.8915,39694.5029,5771.488,50408.8998,43859.4371,55919.1853,950.3514,-485.1669,26421.0999
57133.3319,28460.0258,54225.5938,42678.9075,37032.9916,39682.0754,5770.1468,50379.7531,43845.6684,55909.2164,935.9568,-497.371,26416.3613
57141.4679,28463.915,54222.0175,42679.0863,37038.3114,39674.6993,5766.5259,50392.6724,43848.0377,55906.2213,941.1424,-493.7053,26414.7073
57159.8411,28469.4582,54225.0127,42688.2952,37063.0324,39680.6449,5768.5822,50423.6072,43867.3943,55912.1221,959.9179,-479.4002,26417.7024
57155.3707,28471.3805,54223.9398,42693.615,37070.5873,39682.1648,5769.3422,50424.546,43871.06,55911.6304,958.6662,-482.5294,26418.5965
57143.0326,28468.743,54219.2012,42681.2768,37047.2968,39676.2192,5763.8437,50406.5752,43855.235,55901.7509,941.0083,-498.5332,26410.4605
57123.4077,28462.9762,54218.2624,42670.548,37025.7944,39672.9559,5765.4083,50392.4489,43847.8142,55895.2242,932.7382,-507.7422,26407.4206
57136.6847,28466.9995,54226.175,42687.3118,37048.5038,39690.2561,5775.4666,50420.0757,43863.2816,55910.0658,943.5117,-495.7169,26415.3332
57167.4407,28483.0481,54230.5559,42704.0309,37074.2977,39697.5428,5778.5958,50461.9181,43882.2806,55919.4982,958.4874,-476.3603,26418.4177
57167.8877,28487.9208,54227.829,42706.0425,37075.907,39693.1171,5775.9583,50471.0823,43888.0026,55917.2183,959.9179,-476.4944,26418.9988
57143.7031,28483.6292,54224.6997,42685.3001,37053.0635,39685.294,5769.1634,50448.5965,43873.5187,55910.1999,939.3543,-494.7782,26411.0863
57128.5039,28479.0695,54228.5889,42682.6626,37041.0383,39683.3718,5771.0856,50426.6918,43862.164,55914.849,933.2746,-500.3661,26413.2321
57145.223,28478.2201,54235.3392,42694.6878,37056.5504,39685.2046,5775.7795,50436.3924,43867.8414,55914.2679,945.6128,-491.783,26421.7257
57168.1112,28483.6739,54236.9932,42705.4614,37075.2811,39693.8324,5776.9418,50457.5372,43877.1397,55914.402,956.5204,-480.6966,26424.8997
57163.7303,28482.1093,54232.6123,42710.1105,37074.7894,39696.1123,5777.7464,50459.6829,43882.5041,55911.5857,956.6098,-478.7743,26424.0503
57144.6419,28470.8887,54227.9184,42703.405,37057.9362,39689.0491,5772.6949,50434.4702,43869.5848,55906.9365,946.9986,-493.9288,26416.9425
57128.6827,28467.6701,54226.0855,42690.441,37040.8148,39688.3339,5770.3257,50411.7608,43853.5362,55903.6732,932.5594,-507.6975,26409.6558
57139.1433,28471.5593,54224.4315,42691.5586,37048.6379,39688.1104,5772.0691,50420.031,43844.9532,55907.473,937.6109,-498.0862,26409.5217
57165.1161,28482.0646,54224.7891,42707.8307,37079.6621,39696.5146,5775.9583,50448.8647,43870.9706,55917.9783,957.2357,-478.5955,26417.7024
57165.7419,28489.4407,54223.1351,42707.3836,37086.2782,39698.7051,5772.2479,50458.7442,43875.3963,55916.816,957.9062,-480.3836,26417.2107
57150.6321,28485.5515,54225.5044,42699.0241,37063.6135,39699.6439,5767.4646,50440.4604,43862.1193,55904.4331,945.121,-494.9123,26411.9357
57131.4096,28474.8226,54221.8387,42688.0717,37037.1044,39700.0909,5762.4131,50414.4877,43842.1816,55896.8335,931.9782,-505.5964,26406.1689
57150.3639,28476.5214,54223.4927,42694.1961,37050.5154,39710.9538,5768.0458,50421.2826,43856.6208,55907.5177,943.6458,-491.9171,26413.6791
57176.3366,28491.6759,54226.5326,42704.7908,37081.4502,39719.0005,5770.9068,50446.6742,43868.2884,55911.2281,964.2094,-475.8239,26421.681
57172.5368,28494.4028,54227.3819,42703.0921,37080.1538,39714.0384,5771.3538,50458.7442,43868.3778,55907.5624,966.534,-477.9696,26423.201
57156.2201,28481.0364,54227.6502,42687.4012,37049.9343,39705.6341,5766.1235,50446.8083,43857.4255,55905.9083,950.5749,-489.1902,26418.9094
57132.7507,28466.2396,54223.9845,42674.6607,37031.9635,39695.6205,5758.4792,50416.6335,43829.7987,55893.2126,934.4369,-502.1542,26409.6111
57136.6847,28465.6584,54224.8785,42679.7122,37047.6544,39699.5544,5764.9165,50422.4449,43836.7277,55893.7043,941.4107,-490.7995,26413.5897
57153.8955,28473.1239,54233.4169,42691.7374,37078.3657,39706.8858,5774.5725,50458.2077,43862.6558,55913.642,962.7342,-472.8287,26426.1961
57146.0277,28473.1239,54231.3159,42692.4974,37080.6903,39696.157,5774.3043,50463.9298,43858.3195,55911.1387,961.7954,-477.7014,26425.8385
57133.4213,28467.1336,54226.175,42682.1262,37057.9809,39686.8587,5769.7892,50431.2068,43830.5587,55902.2874,942.7071,-492.4536,26420.4741
57115.0035,28462.261,54226.1302,42669.1622,37029.7283,39677.1133,5770.4151,50399.9591,43806.9999,55898.0405,928.6702,-501.2602,26419.1329
57113.8412,28469.9053,54231.6288,42678.7734,37043.8546,39681.8072,5778.2382,50399.2885,43813.9737,55900.9016,940.6954,-489.0561,26422.441
57135.6118,28486.3561,54235.6074,42694.5537,37075.2811,39691.2843,5787.8494,50416.41,43826.8036,55911.6304,963.8518,-473.4993,26430.8006
57141.7361,28499.946,54237.7979,42694.7773,37087.4852,39695.2182,5791.0234,50406.1282,43820.5004,55914.849,969.6633,-472.1582,26433.751
57119.7867,28491.3629,54237.3955,42676.3594,37071.2578,39682.88,5791.0234,50373.2264,43800.7414,55906.266,953.3465,-484.854,26428.7442
57086.7062,28479.74,54232.0311,42653.2477,37031.6505,39662.6294,5781.5462,50335.3626,43777.9427,55896.0289,934.1687,-502.5566,26418.0154
57087.779,28484.6127,54233.8192,42663.5742,37042.1559,39664.2387,5785.9719,50338.9388,43781.1613,55902.0191,944.4058,-490.6654,26420.8764
57104.1852,28504.5058,54232.6123,42673.9901,37072.9566,39669.469,5795.8513,50353.3781,43792.6054,55908.5906,963.4048,-477.4332,26426.6431
57107.0015,28509.4678,54230.5112,42678.7734,37075.8623,39669.5137,5795.9855,50345.5997,43787.5539,55901.885,962.3766,-482.3059,26423.4692
57095.3786,28512.0606,54231.45,42671.6655,37054.7175,39663.9258,5795.5384,50315.2013,43775.171,55890.888,949.0997,-496.5216,26417.1213
57075.2621,28507.6797,54228.4995,42657.1816,37032.9469,39648.4137,5791.0234,50278.1868,43756.7085,55879.7568,935.331,-510.335,26412.3827
57085.4098,28508.2161,54229.0807,42657.4051,37049.219,39653.6887,5793.9738,50283.73,43755.3674,55878.6392,947.1774,-502.8695,26415.7355
57096.675,28509.3337,54227.6949,42670.0115,37075.4153,39660.1707,5794.8232,50295.9341,43767.8844,55881.6344,959.7838,-493.2582,26418.1048
57096.5409,28505.8916,54225.7726,42677.7899,37070.0508,39663.747,5794.0185,50293.2966,43768.5549,55891.782,956.2969,-492.7665,26422.5304
57086.6168,28500.3036,54229.1701,42677.03,37048.4143,39661.1989,5793.1691,50269.2014,43752.8193,55884.8083,947.4903,-503.0483,26417.2107
57075.2621,28495.6098,54225.0574,42671.4867,37034.4669,39657.6226,5788.4306,50249.8001,43733.1498,55871.5761,936.2251,-513.4642,26409.7005
57076.4244,28489.3066,54220.2294,42672.2914,37042.5135,39659.2766,5787.8494,50249.666,43739.3636,55871.4867,941.4107,-506.8034,26408.9406
57093.0094,28489.9324,54224.8338,42682.5285,37063.4794,39666.7868,5786.0166,50262.3171,43754.5627,55881.7238,956.2969,-494.957,26414.6626
57097.6138,28488.5913,54229.0807,42688.6976,37063.6135,39669.469,5792.0516,50260.5289,43765.5151,55886.9094,966.7575,-491.4701,26420.6976
57074.7703,28482.3775,54224.2974,42673.5431,37030.533,39663.8364,5788.7882,50233.6621,43752.3276,55878.6839,952.3183,-502.4225,26415.4226
57060.6887,28471.3358,54224.3421,42662.0096,37004.3367,39657.2202,5786.6871,50210.2375,43737.7095,55871.7102,935.8227,-510.335,26411.6675
57062.611,28472.4981,54225.9514,42663.5742,37021.4581,39658.7402,5787.76,50220.9216,43743.6104,55873.0513,944.227,-503.6741,26414.4391
57087.3767,28480.4553,54225.8173,42674.8395,37046.358,39663.747,5787.7153,50240.8147,43760.1507,55879.578,958.9791,-491.336,26420.6529
57099.2678,28488.1443,54229.6171,42679.5781,37047.8332,39665.8927,5787.1342,50246.8497,43761.0447,55878.9521,959.3815,-488.2514,26420.4741
57082.5934,28477.3707,54227.6949,42671.3526,37025.3026,39656.952,5785.5695,50223.2909,43746.7843,55874.3477,946.1045,-499.6508,26417.7024
57069.4953,28464.6749,54229.2148,42662.4566,37000.8051,39652.7499,5787.2236,50207.5553,43741.8669,55877.164,937.7897,-509.9326,26419.4459
57076.1114,28471.3358,54229.5277,42670.5927,37011.8469,39660.2601,5788.967,50219.1782,43751.3888,55879.8462,950.8878,-498.1756,26425.1679
57092.3388,28473.3921,54226.0855,42677.8346,37034.6457,39662.987,5787.4918,50244.3016,43764.6657,55880.2933,965.6847,-484.3622,26423.1116
57098.5973,28471.4252,54221.6599,42676.3147,37036.4338,39659.0531,5785.7037,50247.5649,43764.6657,55878.3263,963.2707,-481.9483,26420.1164
57089.4331,28475.1803,54228.4995,42672.0679,37026.8673,39656.3709,5786.8212,50235.7632,43761.0,55887.3117,953.6594,-485.7481,26421.9493
57071.8646,28471.7381,54226.622,42662.6801,37008.36,39647.3408,5783.1109,50201.6991,43742.2246,55879.0863,936.3145,-503.2271,26414.8861
57082.9064,28472.8557,54220.0059,42665.9435,37017.9713,39651.0065,5783.8708,50204.9625,43746.4714,55879.2204,943.8694,-497.1027,26414.9755
57109.952,28481.3046,54220.8999,42677.3429,37039.7419,39658.1143,5784.2731,50238.803,43759.5248,55882.2155,957.7721,-482.7082,26420.8317
57120.8596,28484.7468,54219.1118,42679.3545,37043.497,39654.6274,5777.2994,50232.8575,43748.5725,55876.1805,953.123,-484.9881,26418.4624
57112.0977,28481.9752,54224.3868,42670.7268,37018.9995,39651.2747,5778.8193,50209.3881,43740.66,55876.4488,945.6575,-494.7335,26418.1048
57092.4729,28477.8178,54221.8834,42659.5956,36996.603,39647.1173,5777.0759,50191.0597,43731.3616,55873.7218,931.9335,-508.6809,26412.5168
57101.6818,28484.7915,54228.3654,42668.0893,37016.0043,39654.851,5783.3344,50210.4163,43742.0458,55884.093,943.8694,-497.9521,26420.5188
57123.9442,28496.6379,54229.483,42678.3264,37040.5465,39664.2834,5786.553,50255.7456,43762.2964,55895.2689,960.052,-479.8472,26426.509
57144.2842,28503.7458,54230.7794,42682.1262,37042.5582,39670.1396,5786.6871,50267.2344,43770.2537,55904.3437,961.259,-474.7063,26429.683
57134.2707,28499.186,54231.8523,42673.3196,37022.4416,39662.2717,5789.4588,50239.7418,43763.9952,55899.2028,950.1725,-483.7811,26427.1349
57115.4505,28484.2104,54227.9631,42655.6617,37001.3863,39658.5613,5787.6706,50219.7146,43757.6026,55889.7704,936.7168,-492.3642,26423.6927
57122.3348,28484.2998,54230.4218,42668.0893,37014.8867,39660.2601,5791.381,50237.6407,43768.1526,55898.7111,948.5185,-482.44,26427.2243
57141.1103,28488.9042,54231.4053,42684.6296,37043.944,39663.9705,5794.5549,50258.3832,43778.9261,55904.1202,965.7294,-469.0289,26429.9065
57134.6283,28489.7983,54225.9067,42680.6509,37041.1277,39658.6955,5790.3975,50265.7145,43781.0272,55904.8802,962.8236,-470.9512,26426.3749
57119.5632,28487.3843,54221.6599,42671.3973,37019.8041,39655.3427,5788.2071,50247.252,43770.4772,55895.2689,954.0617,-482.6635,26423.5139
57112.7683,28483.3163,54223.001,42665.8094,37001.5651,39661.1094,5785.2119,50231.5611,43753.4899,55887.5352,942.26,-492.8112,26417.7024
57124.2571,28491.2735,54225.2362,42667.374,37018.9101,39665.8033,5786.5083,50238.356,43761.7153,55894.9113,949.1444,-485.6586,26418.7306
57147.4135,28503.8799,54229.6618,42681.9474,37047.7438,39677.918,5790.2634,50269.7825,43785.8552,55913.5973,970.7808,-466.8385,26428.6995
57150.8557,28511.4795,54235.7415,42691.201,37055.8351,39676.711,5792.7221,50286.0099,43792.516,55915.609,973.3737,-463.888,26428.7442
57124.123,28504.6399,54237.2167,42686.3283,37040.5465,39670.9442,5792.141,50274.6999,43787.4645,55908.7694,964.5224,-473.544,26425.302
57107.8509,28502.5388,54237.172,42683.6908,37027.2249,39667.3232,5792.588,50255.4774,43775.0369,55898.577,952.8995,-486.5527,26421.8599
57117.1492,28507.4562,54232.2099,42687.58,37030.8906,39665.5798,5789.6376,50260.1266,43772.6229,55898.1746,955.224,-481.68,26423.5586
57137.3999,28516.978,54229.6171,42696.476,37054.7622,39674.297,5789.9505,50287.2169,43792.3819,55904.299,967.5622,-465.2292,26427.269
57139.5457,28513.357,54227.3819,42695.0902,37058.875,39681.7178,5787.9835,50291.4637,43792.4713,55906.3107,969.4397,-467.3302,26425.9279
57130.9179,28502.4047,54221.4811,42685.7024,37033.2599,39679.0355,5780.7863,50273.8059,43781.8319,55900.0522,952.2289,-484.5858,26419.9376
57119.8761,28500.7507,54220.2741,42680.1592,37017.4795,39680.7343,5772.8291,50254.8963,43775.7969,55893.9278,932.47,-498.3097,26418.1942
57126.3134,28503.6117,54219.1565,42681.8132,37027.5378,39679.6167,5770.1916,50271.7942,43780.759,55892.2738,936.0015,-496.3428,26420.027
57142.5855,28507.6797,54220.0953,42692.6315,37047.1627,39683.8635,5771.2197,50299.9127,43799.8027,55901.885,958.9344,-479.9813,26420.9658
57143.2561,28509.5125,54222.3305,42694.6878,37054.8517,39685.6517,5772.7844,50311.6697,43798.4169,55906.4448,968.7692,-473.4993,26421.7705
57130.3368,28503.2094,54224.3868,42692.5421,37047.2074,39684.5341,5775.2877,50296.6046,43782.5918,55898.7111,955.224,-484.6752,26418.0601
57116.4787,28497.6214,54225.9961,42679.2651,37032.3211,39674.9675,5774.349,50283.283,43780.4908,55894.7325,937.3426,-492.9453,26414.0368
57122.916,28497.7108,54225.415,42683.9143,37034.7351,39675.9063,5777.7017,50296.7834,43791.8007,55895.6265,941.9471,-486.2398,26416.5848
57140.2609,28502.807,54227.7843,42695.5819,37061.9595,39684.6682,5784.5861,50321.2363,43806.9999,55911.3175,962.466,-474.3934,26425.0338
57144.6419,28500.7507,54227.9631,42702.3768,37072.6436,39684.2211,5786.7765,50324.142,43812.0514,55913.195,970.5573,-469.7889,26426.8219
57126.2687,28487.1161,54222.554,42688.0717,37043.497,39670.0501,5779.6687,50290.9273,43800.5626,55903.4497,950.1725,-482.6635,26417.6577
57108.2085,28482.7352,54222.8222,42671.7997,37017.3007,39661.8247,5778.3276,50270.9001,43787.4645,55896.7441,937.745,-494.2417,26414.0815
57121.262,28484.2998,54226.8455,42672.4255,37027.4037,39668.4855,5780.5628,50287.8875,43795.9582,55902.1086,944.9869,-485.8822,26416.8978
57146.1618,28498.6943,54230.6453,42682.1709,37058.6514,39677.1133,5787.6259,50317.9282,43820.7686,55920.0794,963.226,-469.4313,26424.408
57139.9033,28500.2142,54228.0525,42684.1378,37063.0771,39675.6381,5786.3295,50316.8553,43821.6627,55917.7101,964.2094,-469.476,26423.2904
57124.3018,28490.4689,54219.9612,42676.8959,37049.6213,39666.6974,5780.6522,50292.2684,43808.5645,55910.4681,944.9422,-483.1105,26414.8414
57109.2814,28480.9917,54217.5025,42668.5363,37030.22,39660.0813,5781.3227,50276.7563,43798.6404,55912.1668,933.0064,-489.1455,26414.5732
57122.7372,28484.9256,54222.9116,42673.1855,37039.2948,39666.6974,5782.7532,50291.1955,43801.9931,55918.2018,945.5681,-484.3175,26419.8035
57140.3503,28488.3678,54221.8834,42685.7024,37065.9381,39672.0171,5785.4801,50319.7163,43821.9756,55927.5448,966.9363,-473.3652,26424.855
57137.6234,28491.2735,54224.3421,42687.7141,37065.8487,39670.5866,5787.0001,50326.3772,43820.5451,55926.0249,967.6516,-474.0804,26427.4478
57116.2105,28475.9402,54220.0953,42669.9668,37040.5465,39656.1474,5781.6803,50306.4394,43804.6753,55914.6702,948.742,-487.5362,26421.5916
57101.95,28464.1385,54217.6813,42656.5558,37020.6088,39647.9219,5781.0098,50283.9088,43792.963,55909.4399,933.3193,-503.0483,26417.1213
57111.6507,28467.6701,54218.7542,42662.5013,37036.9703,39654.6274,5782.9767,50301.2985,43796.4946,55913.6868,945.2999,-495.5828,26423.648
57130.3815,28472.6769,54219.9612,42680.1145,37067.6368,39663.5681,5786.2848,50321.1021,43815.8512,55921.5099,959.1579,-481.7694,26428.8336
57130.0238,28475.8061,54220.9893,42681.4556,37072.9566,39662.4506,5784.5414,50321.6833,43816.6559,55915.609,963.4495,-479.8919,26425.9726
57113.26,28470.5311,54222.0175,42674.9289,37051.2754,39657.8908,5787.4024,50307.2888,43807.7599,55914.6255,953.4806,-486.7762,26425.302
57104.364,28470.8887,54226.5773,42671.8891,37036.5232,39655.9238,5786.0166,50294.5483,43795.6005,55914.849,945.7916,-497.4604,26422.8433
57108.2979,28471.3805,54220.2294,42670.548,37040.5018,39659.5895,5782.7532,50307.1994,43798.5063,55910.5575,947.2221,-499.0697,26416.0037
57130.7391,28479.2036,54217.9495,42678.5499,37058.875,39664.2387,5785.5695,50332.2333,43816.4771,55916.9054,954.1065,-487.9832,26420.6976
57133.466,28483.6739,54219.7376,42682.3944,37056.5504,39662.8976,5786.8212,50344.2138,43813.2584,55919.6323,955.7158,-488.2514,26422.1728
57109.5496,28473.3921,54216.2061,42674.1242,37035.7633,39658.4719,5779.8922,50316.8553,43802.619,55909.1717,941.5448,-499.3826,26414.8414
57085.0521,28460.3834,54213.8368,42664.4683,37027.806,39654.9851,5775.6901,50291.2402,43789.8785,55903.5838,930.1901,-506.0881,26410.3264
57099.8043,28456.8071,54210.3946,42659.9979,37040.323,39656.9967,5774.5278,50298.1693,43797.0757,55903.8967,936.4039,-499.6061,26411.9357
57130.9626,28466.776,54212.3169,42676.5829,37062.2277,39671.0336,5777.1653,50320.521,43812.6773,55908.367,958.9791,-482.4847,26420.2505
57136.9976,28473.9733,54213.9709,42684.1378,37061.6466,39672.4641,5777.3888,50327.6289,43808.6987,55910.1105,957.3698,-477.5673,26419.1777
57112.5895,28470.5758,54212.0486,42678.5052,37047.5203,39664.6857,5778.864,50301.6561,43795.5111,55901.9297,942.6177,-488.8773,26415.0202
57095.6469,28459.0423,54213.6133,42666.8823,37030.8459,39662.1823,5780.071,50283.6853,43787.8668,55900.0969,932.3359,-502.5119,26411.8463
57105.124,28461.948,54212.4063,42672.5149,37040.323,39668.5749,5782.7979,50289.5415,43795.2876,55904.4331,939.6225,-495.1358,26415.6461
57129.7109,28473.0792,54218.2624,42680.1592,37066.9663,39674.9675,5786.3742,50312.1167,43809.548,55918.0677,960.2308,-480.2048,26425.4808
57133.3319,28475.3144,54220.8552,42677.4323,37065.4017,39672.1959,5783.7814,50326.243,43809.0563,55919.7664,956.1181,-480.0707,26421.9046
57128.8615,28477.2813,54221.2129,42674.616,37051.2754,39670.4972,5785.3907,50311.0886,43805.9717,55914.3573,945.8363,-486.9103,26417.8813
57101.2795,28466.5972,54215.759,42663.0378,37024.3639,39656.3709,5776.2712,50279.9302,43786.8387,55904.9696,927.5079,-503.853,26410.2817
57121.9772,28466.0161,54216.7872,42666.7035,37038.5349,39665.4457,5778.417,50301.075,43794.5724,55912.8821,938.3261,-493.3476,26416.0931
57145.1783,28476.0743,54222.241,42684.8978,37062.8089,39675.951,5786.3295,50334.245,43821.0815,55923.7003,958.9791,-472.1582,26427.7607
57141.9597,28482.3328,54226.0408,42690.441,37069.6932,39682.9247,5785.9719,50339.0729,43830.6928,55934.6974,961.0802,-467.0173,26429.7724
57116.5681,28472.4087,54222.1069,42676.9853,37046.4474,39673.6264,5777.8805,50314.5754,43813.7949,55922.4933,940.6507,-485.7928,26419.6694
57105.6604,28468.3406,54222.0175,42667.374,37032.7234,39668.9326,5776.4053,50295.6659,43800.8308,55912.748,927.6867,-501.6178,26414.2156
57120.949,28474.5991,54223.1351,42677.6558,37047.0732,39674.3864,5781.8145,50312.6085,43811.6491,55921.5546,938.9073,-488.6985,26419.8929
57130.5603,28476.7449,54219.9165,42683.4673,37066.251,39673.3582,5778.1488,50341.8893,43831.9445,55923.5215,952.9442,-476.1368,26419.58
57135.0306,28479.8741,54217.8601,42687.0883,37068.4862,39671.7936,5779.3111,50351.9028,43829.1281,55924.2368,955.1346,-477.2544,26416.406
57126.0005,28476.9684,54222.241,42680.338,37046.4921,39663.2105,5779.0875,50333.4403,43817.6394,55924.0133,942.573,-487.1339,26414.5285
57119.6973,28477.8178,54227.2031,42674.7501,37024.9003,39661.1094,5780.071,50324.5443,43806.9105,55919.1853,930.056,-498.4438,26412.4274
57129.6215,28480.947,54224.1186,42680.5615,37046.805,39668.2173,5785.346,50335.6308,43821.8415,55920.437,939.846,-491.3807,26414.4391
57147.9946,28484.2998,54223.5821,42686.6412,37071.9731,39673.6711,5786.2401,50355.6579,43844.1485,55934.0715,956.0287,-479.2213,26420.027
57151.3474,28488.3678,54224.0292,42688.5635,37079.4833,39676.0404,5785.0331,50365.6715,43847.1884,55935.5468,961.8402,-473.3205,26425.4808
57135.2988,28482.2434,54223.8057,42685.6577,37062.2277,39676.4874,5786.5083,50345.5102,43833.0621,55933.6245,952.9889,-479.3108,26427.1796
57115.1376,28472.6769,54220.9893,42673.7219,37037.909,39670.676,5783.5579,50322.6221,43825.4625,55925.3991,933.677,-491.3807,26421.5469
57127.0287,28475.9402,54218.173,42681.5897,37050.1131,39677.6497,5786.3295,50340.4588,43829.0387,55931.1658,944.227,-483.5129,26424.3633
57150.1851,28487.5631,54217.9942,42692.1844,37071.3919,39681.8519,5788.6094,50368.4431,43839.8123,55936.0385,963.1366,-468.0455,26429.1912
57144.9548,28487.5631,54217.9048,42693.3914,37073.5824,39677.6944,5785.6143,50369.1137,43839.1864,55925.1308,963.9859,-471.0406,26425.9279
57136.6847,28491.4523,54222.4646,42686.0154,37057.7574,39673.6264,5787.2683,50363.8834,43838.65,55931.6128,955.3134,-481.993,26428.3866
57120.5467,28480.9023,54222.0622,42676.4041,37031.8294,39672.5088,5786.3742,50344.035,43829.7987,55925.1308,938.7732,-496.0746,26424.4527
57120.2338,28483.7633,54223.1351,42678.684,37042.5135,39672.1959,5784.6755,50352.7522,43841.1981,55929.1095,947.3115,-485.9269,26424.6315
57135.7459,28489.1278,54226.175,42689.5469,37066.0275,39679.125,5782.5744,50384.9834,43859.0348,55932.5516,962.6448,-477.3438,26424.8997
57141.9597,28489.9771,54224.968,42692.095,37074.8788,39678.2756,5783.1556,50396.1593,43856.1738,55930.0035,962.019,-481.1883,26423.0669
57131.9014,28483.8974,54222.0175,42684.6296,37053.9576,39674.5205,5780.7416,50378.5461,43840.6169,55925.4438,945.8363,-493.0347,26417.8365
57116.2552,28472.1851,54220.8105,42672.8278,37033.3493,39666.4292,5780.831,50355.2556,43830.5587,55923.2086,929.7431,-501.5731,26415.2437
57128.5933,28474.7332,54221.6599,42681.8132,37049.0402,39678.9461,5783.245,50364.3751,43842.6286,55924.8179,946.4175,-491.4254,26418.7753
57141.0656,28483.6739,54223.1798,42695.6266,37074.5659,39683.7741,5784.0496,50384.8046,43856.5314,55931.2552,965.7294,-479.2213,26423.9609
57139.948,28483.2269,54223.9398,42694.1067,37073.8953,39682.5224,5779.8028,50389.5879,43851.3458,55927.6789,958.0404,-479.9813,26421.5916
57132.5719,28483.9869,54224.9233,42689.9493,37061.5572,39681.226,5780.7416,50376.6686,43839.0076,55922.4933,945.0763,-490.5313,26416.1378
57117.4175,28478.8013,54223.9398,42676.3147,37041.6641,39675.5934,5778.9087,50356.5073,43825.8648,55917.1289,930.1454,-505.7305,26409.0747
57128.2804,28483.4057,54228.723,42678.2817,37052.7506,39683.8188,5783.7367,50369.6948,43842.0475,55923.9686,941.9024,-493.7947,26412.1592
57147.1006,28494.4028,54231.0476,42695.9842,37080.8691,39694.1006,5790.6657,50399.6462,43852.8657,55931.8364,964.3435,-473.097,26420.1164
57144.5525,28493.5087,54229.8853,42696.0289,37085.25,39689.4515,5787.7153,50406.6646,43847.1884,55931.9705,961.706,-468.269,26423.1563
