FC3,FCz,FC4,C5,C3,C1,Cz,C2,C4,C6,CP3,CPz,CP4
52967.7719,25449.6485,51822.111,39037.0488,34300.7594,36420.8668,5005.1361,49099.0877,44215.7686,55007.6813,-2521.053,-2812.0279,23110.3152
52988.0673,25461.4502,51826.0449,39048.5823,34317.8809,36427.8406,5008.9806,49126.0439,44236.6004,55012.241,-2508.7595,-2804.8754,23115.4114
52987.2626,25471.3297,51828.9506,39053.1421,34323.29,36431.6851,5015.0156,49134.8952,44237.5839,55014.9679,-2509.0277,-2807.1553,23114.4279
52970.8564,25480.0469,51835.7456,39053.6785,34316.0927,36432.9815,5020.1118,49132.973,44233.5606,55013.5821,-2514.1686,-2808.0046,23116.5737
52959.2782,25476.2024,51834.2704,39047.8224,34302.4582,36432.1321,5018.9942,49110.9341,44228.3303,55002.3615,-2526.8197,-2813.8608,23112.9974
52965.7155,25472.8943,51827.1625,39050.594,34311.8012,36429.4946,5016.8484,49124.7922,44235.4381,55003.4344,-2521.1424,-2808.4964,23113.7127
52982.837,25482.8185,51828.0119,39064.8544,34339.2491,36439.8658,5020.0224,49149.3791,44251.0396,55012.8222,-2498.88,-2796.4711,23122.2957
52988.7378,25481.075,51828.146,39073.0798,34342.4678,36447.5995,5016.3567,49151.4355,44247.8657,55007.1448,-2497.673,-2800.0474,23120.2394
52980.9594,25478.9293,51828.0566,39065.3461,34327.8944,36442.0116,5013.3616,49129.4861,44233.65,55001.691,-2511.397,-2812.0726,23116.8419
52977.2043,25474.4142,51825.2403,39057.3889,34316.0033,36440.2235,5010.2323,49117.595,44225.0222,54997.0418,-2525.9256,-2818.7335,23114.562
52989.7213,25476.6941,51826.2684,39056.0925,34326.3745,36447.7783,5009.3383,49138.4715,44233.1135,55000.8863,-2518.5049,-2811.9385,23115.0985
53005.2781,25479.0187,51827.9672,39066.9554,34350.425,36455.1991,5009.8747,49164.7124,44250.5479,55010.8552,-2499.8188,-2798.7957,23120.3735
53006.3957,25476.7388,51828.4589,39070.7552,34350.425,36453.5004,5009.0253,49170.3451,44254.3477,55014.4762,-2498.2095,-2794.1465,23120.8652
52989.319,25467.5299,51822.7369,39059.6241,34325.5699,36440.2235,5002.901,49151.3014,44239.6402,55002.9874,-2516.9849,-2808.5858,23116.1267
52975.8185,25459.6621,51821.3958,39055.2431,34309.7448,36437.5859,5002.9904,49130.4696,44234.4993,54998.517,-2524.5398,-2821.058,23113.8468
52985.2957,25463.6854,51821.9322,39057.5677,34321.2336,36445.0514,5003.6162,49140.7961,44234.4993,55001.691,-2522.1258,-2816.2748,23112.8633
52994.9069,25465.3841,51819.5629,39066.7319,34339.7856,36446.4819,5004.9573,49162.4773,44247.1951,55006.0719,-2508.3572,-2805.5012,23114.875
52985.3404,25461.7631,51816.389,39054.662,34335.5834,36437.7201,4999.9058,49167.6182,44245.9881,55002.7639,-2511.3076,-2811.8938,23110.6281
52978.6795,25464.043,51817.1936,39043.2626,34317.6126,36429.584,4994.899,49153.2236,44234.7676,54997.8018,-2527.3561,-2822.1756,23108.9294
52971.4823,25463.5066,51818.4006,39037.2723,34313.3658,36428.9135,4995.9272,49142.8524,44235.3487,54998.3829,-2535.4475,-2824.0979,23107.8565
52973.2257,25462.836,51820.9487,39039.5969,34334.287,36432.3556,5002.0516,49158.901,44249.028,55007.1001,-2520.0248,-2814.0843,23111.1646
52994.1916,25474.4142,51823.318,39052.5609,34358.874,36437.2283,5008.9359,49191.2216,44264.2272,55017.2031,-2498.5224,-2796.8287,23119.2559
52999.6902,25477.5882,51824.8379,39055.5561,34359.9021,36436.3343,5009.6065,49195.8708,44258.9968,55017.7395,-2499.4612,-2800.1815,23119.7923
52984.3122,25478.974,51827.9672,39048.0906,34343.5854,36433.652,5012.5122,49174.8601,44250.4585,55017.2925,-2511.8887,-2811.3574,23117.736
52973.7622,25483.489,51828.9059,39043.1732,34331.6048,36423.5938,5010.8135,49159.8397,44245.4517,55019.0806,-2524.4057,-2819.6275,23116.1714
52982.3452,25484.2937,51821.5746,39046.4365,34340.2773,36422.0738,5008.5336,49162.6114,44251.6655,55014.655,-2520.4271,-2815.1572,23112.2375
53000.5842,25491.5357,51823.4074,39061.5016,34364.596,36432.7133,5011.6181,49180.9845,44267.9822,55020.4664,-2503.261,-2801.0756,23116.5737
52986.7709,25484.2937,51822.2004,39052.4268,34356.8176,36426.6783,5006.7455,49179.7328,44261.3214,55024.0874,-2509.5642,-2808.8987,23110.6728
52968.3977,25480.7621,51822.6922,39045.1849,34341.8419,36423.9514,5006.2984,49167.9311,44250.9055,55019.483,-2524.6739,-2821.9521,23106.0684
52966.5202,25478.1693,51824.4356,39042.4132,34328.4309,36426.7677,5007.7736,49155.6823,44247.1504,55015.102,-2531.8265,-2829.9987,23107.2307
52974.2539,25475.0401,51824.2121,39043.5308,34335.9858,36428.1535,5006.3878,49153.2683,44251.9337,55013.7162,-2527.6244,-2823.6508,23107.8118
53002.283,25484.1596,51830.9623,39057.5677,34363.3443,36439.2847,5010.277,49172.0438,44265.3,55028.1554,-2505.2279,-2805.2777,23117.9148
52996.4715,25482.2373,51828.9953,39047.42,34358.0693,36433.205,5003.8844,49169.3616,44260.2038,55024.5345,-2510.4135,-2814.3972,23111.3881
52970.4094,25466.6805,51820.0994,39031.0585,34329.8614,36421.7162,4994.005,49147.6804,44241.0707,55015.102,-2531.5136,-2834.335,23101.5533
52952.3492,25458.4104,51811.7845,39018.5863,34301.8323,36413.9378,4991.7698,49129.6202,44224.2175,55003.0321,-2546.8469,-2848.9977,23093.7302
52960.4405,25460.8244,51810.801,39027.6164,34312.9635,36422.3421,4994.8543,49143.2995,44237.0921,55007.1895,-2530.8877,-2835.7208,23098.737
52979.6183,25466.0547,51817.5066,39043.4861,34339.5621,36429.584,4999.28,49162.4326,44250.682,55017.8736,-2511.0394,-2815.0678,23109.1976
52987.0838,25466.3229,51819.2947,39045.4531,34341.3502,36432.7133,5003.5715,49161.2703,44255.5994,55023.7745,-2509.5195,-2815.9618,23112.9527
52975.8185,25457.3822,51815.8525,39032.9361,34320.7866,36421.895,4996.866,49141.3772,44239.2379,55011.6152,-2529.636,-2833.5303,23103.1626
52954.4055,25445.7146,51810.6222,39021.5814,34300.8041,36410.0486,4990.4287,49117.4608,44220.1495,55002.3615,-2544.1647,-2846.3602,23095.2054
52967.1013,25445.2676,51815.4055,39028.5105,34323.737,36419.0787,4990.1158,49132.2577,44229.6267,55006.6978,-2535.1793,-2835.5867,23098.6923
52986.8156,25452.286,51823.0945,39045.2743,34345.7311,36428.7794,4993.7814,49156.2188,44240.3108,55015.1467,-2521.3212,-2823.2038,23104.9955
52983.4628,25452.5989,51819.25,39044.2908,34339.2491,36423.6832,4992.2168,49157.1128,44242.0542,55013.7162,-2522.3494,-2823.8744,23101.9109
52964.5979,25441.2442,51815.5843,39033.4725,34322.4853,36419.4363,4989.4899,49145.8476,44232.9347,55001.7804,-2534.6428,-2837.196,23097.53
52953.6456,25435.4328,51819.2947,39030.9244,34312.9635,36424.2643,4993.2897,49131.0954,44222.9658,55003.4344,-2538.7555,-2842.6498,23102.3133
52955.4784,25436.0586,51820.6358,39041.9662,34328.8332,36425.4266,4996.4637,49139.3656,44234.5887,55009.6482,-2528.7867,-2832.4127,23104.012
52975.9526,25444.0606,51819.0265,39052.6503,34345.3288,36427.7512,4996.4637,49162.2537,44247.3739,55016.3984,-2516.4038,-2818.8676,23107.5883
52984.3569,25450.4532,51816.4337,39061.8593,34345.1947,36431.6851,4996.9107,49164.8018,44251.6655,55019.2147,-2516.4038,-2817.6159,23108.9294
52972.2422,25448.9332,51817.9983,39058.6406,34329.9508,36431.0145,4997.5365,49148.1274,44243.5741,55018.723,-2521.7682,-2827.0483,23107.0518
52951.4551,25439.8137,51815.3161,39045.9895,34310.2813,36421.448,4993.5132,49124.3005,44234.4546,55009.8717,-2537.325,-2837.196,23101.8662
52971.0799,25445.6252,51817.7301,39052.8738,34327.805,36426.9018,5000.8446,49141.0196,44248.0892,55016.1302,-2523.3775,-2827.0036,23110.8516
52985.0721,25446.6087,51814.422,39053.9914,34351.4085,36426.9912,4997.5812,49162.9243,44262.439,55021.8076,-2514.571,-2815.9171,23115.0091
52983.8204,25450.4532,51813.3044,39051.9798,34350.872,36430.4781,4997.4918,49167.6629,44259.9356,55022.344,-2512.8275,-2815.2466,23114.3385
52969.9624,25454.1636,51816.6125,39042.592,34334.0635,36425.4266,4997.313,49151.1226,44255.51,55021.3158,-2524.6739,-2824.2767,23107.3648
52958.3395,25450.632,51814.9585,39030.5668,34316.9421,36419.6151,4994.005,49139.3209,44249.028,55015.0126,-2542.1977,-2834.1562,23102.5815
52976.9361,25459.6621,51823.4968,39042.592,34333.6612,36424.1302,5000.2187,49159.348,44265.4341,55023.104,-2527.7138,-2825.6625,23111.3434
52996.3374,25466.0547,51825.6873,39048.8058,34352.3473,36424.8902,5000.4423,49190.3722,44279.6052,55026.5014,-2518.7731,-2816.3642,23113.3997
52998.1256,25468.6475,51828.9059,39051.6669,34355.0295,36429.9417,5002.901,49190.8193,44277.7723,55025.0262,-2519.4883,-2816.5877,23111.5669
52980.6018,25461.3608,51824.4356,39038.3452,34331.9625,36423.2361,4998.8776,49172.4908,44263.6907,55017.6054,-2535.6263,-2831.4739,23104.6826
52970.0071,25459.5727,51822.7816,39030.2986,34312.0694,36421.6268,4998.0283,49154.8777,44255.5994,55014.5656,-2544.2094,-2836.749,23099.497
52983.6416,25462.8807,51823.2286,39036.3783,34330.4873,36429.137,4999.6376,49168.4228,44267.5799,55020.5112,-2530.9771,-2824.9025,23106.2472
53006.1275,25463.9089,51820.3676,39045.1401,34354.493,36428.4217,5001.5599,49191.0875,44276.5206,55029.0048,-2519.1307,-2810.5974,23108.9294
52996.6056,25461.5843,51815.3608,39042.1897,34354.1801,36421.2245,4997.4918,49191.9816,44270.888,55026.0097,-2519.086,-2814.6207,23105.1296
52985.4745,25457.4716,51816.5678,39029.628,34341.9313,36419.3916,4996.9554,49177.9894,44264.6295,55019.8406,-2530.4854,-2829.3282,23100.8828
52974.5668,25451.8837,51817.596,39023.3696,34323.0218,36418.6317,4994.3179,49162.7008,44263.2884,55014.0738,-2540.8119,-2838.3583,23100.0781
52984.7592,25455.0576,51817.2383,39034.4113,34334.1082,36423.4596,4995.3014,49169.4063,44277.9511,55013.1351,-2528.4737,-2827.6742,23103.9226
52999.9584,25462.8807,51815.0032,39039.5522,34352.1237,36422.208,4994.3179,49192.5627,44286.6236,55021.2264,-2518.326,-2816.3642,23105.3978
52999.3773,25462.1208,51812.0527,39038.4346,34350.0674,36416.2624,4992.3509,49191.0875,44287.5177,55022.5675,-2520.8294,-2818.7335,23106.7836
52979.4395,25448.3521,51809.594,39026.3647,34327.0451,36405.0865,4989.2217,49174.5472,44277.37,55018.276,-2535.5369,-2830.8481,23100.9722
52966.0285,25446.5193,51811.3822,39017.2452,34308.672,36405.9806,4988.9982,49169.2722,44264.5401,55018.6336,-2543.1365,-2841.1746,23096.8595
52969.2024,25445.5358,51811.2481,39022.3861,34314.841,36414.2507,4991.1439,49185.4101,44276.4759,55021.0476,-2534.7769,-2830.0434,23099.7205
52986.4579,25449.7826,51809.2811,39040.9827,34342.0208,36425.1137,4991.591,49203.2915,44293.5079,55025.8309,-2523.4222,-2813.5031,23103.7438
52980.6018,25452.9119,51810.4881,39039.731,34345.4629,36425.9183,4991.0992,49202.3528,44286.4448,55021.137,-2524.3163,-2813.6373,23099.1393
52973.2704,25455.5494,51816.9701,39037.4959,34335.5834,36423.9961,4996.0166,49189.8358,44273.6149,55017.6501,-2535.8945,-2821.8627,23098.737
52959.457,25447.5921,51813.7068,39022.699,34318.3279,36417.1118,4989.0429,49181.9233,44258.9968,55008.7541,-2553.9547,-2841.9793,23088.3658
52968.7554,25449.6038,51810.354,39024.1742,34326.5086,36416.3071,4983.3655,49191.6686,44265.0318,55010.2741,-2547.7409,-2839.2971,23089.081
52995.3539,25451.839,51811.1587,39036.9147,34344.3006,36423.3702,4988.1488,49206.3314,44285.6401,55018.4101,-2528.6973,-2825.1708,23097.9323
52990.4813,25448.218,51810.354,39036.6465,34338.221,36428.6005,4989.0876,49202.3528,44289.6634,55020.1535,-2526.7303,-2820.2087,23098.4241
52970.3647,25438.1597,51804.8108,39023.9954,34317.1209,36420.688,4985.4219,49182.0574,44279.1581,55010.7211,-2545.6399,-2834.0667,23091.048
52963.8827,25437.7574,51809.2364,39016.8875,34307.8226,36419.7493,4985.4666,49169.8533,44269.9939,55011.6152,-2556.0111,-2840.1911,23090.8245
52980.7359,25444.8652,51815.4949,39028.5105,34330.0849,36424.7113,4990.4287,49187.4218,44277.5041,55017.6054,-2542.1977,-2829.06,23096.1442
52999.9584,25451.9284,51819.2053,39048.4482,34354.3589,36433.0709,4996.866,49222.6928,44296.056,55026.1885,-2523.8693,-2811.7597,23103.6544
52998.7961,25449.2462,51820.3229,39055.1537,34352.3026,36433.6967,4999.1459,49224.1681,44301.644,55032.0446,-2520.6059,-2810.1504,23106.1131
52982.8817,25444.5523,51820.8593,39045.006,34336.6563,36430.1205,4996.5978,49204.8562,44292.2115,55026.5461,-2528.3843,-2824.7684,23101.8215
52965.4473,25439.5902,51817.5066,39029.0916,34318.9985,36419.2128,4991.2781,49177.8553,44282.198,55018.8124,-2540.946,-2835.3631,23097.083
52981.317,25440.7972,51817.1042,39037.3617,34325.704,36419.2128,4987.8359,49186.2595,44285.7742,55018.4101,-2533.3911,-2827.2271,23094.7584
52994.3705,25446.3851,51821.3063,39045.6319,34343.8089,36427.3936,4986.2713,49210.1759,44291.4516,55021.0476,-2521.3212,-2818.8229,23095.6525
53000.3607,25453.9847,51823.5862,39053.902,34351.1403,36438.3012,4994.6755,49217.3284,44293.6867,55027.5743,-2512.2017,-2811.9385,23105.5319
52983.5969,25447.7262,51824.1227,39043.1732,34340.6349,36435.7084,4996.6425,49208.1642,44293.1503,55025.8309,-2523.3775,-2820.164,23107.3648
52968.3083,25438.9644,51820.1888,39031.1033,34318.3726,36428.9582,4993.9603,49195.0214,44284.1202,55020.3323,-2538.3085,-2834.4691,23102.0898
52977.3384,25434.8963,51816.3443,39033.2043,34325.9275,36423.1467,4992.3956,49196.8989,44288.8141,55020.2429,-2539.0238,-2832.0551,23098.7817
52995.7116,25440.9313,51816.076,39044.5143,34349.3074,36426.723,4991.3228,49214.1098,44304.8626,55028.2001,-2523.1093,-2818.7335,23098.6923
52994.2811,25435.5669,51813.8856,39038.524,34345.5076,36424.7561,4985.8242,49205.7055,44298.7829,55025.5179,-2527.4903,-2820.5216,23095.0713
52978.0537,25427.8332,51817.8642,39024.1295,34326.8663,36420.241,4985.8689,49193.5015,44284.7461,55022.344,-2544.0305,-2831.9657,23092.8808
52966.3414,25428.6379,51815.8972,39012.149,34306.705,36420.8221,4981.8456,49191.311,44277.2359,55014.208,-2560.1238,-2846.3155,23089.9304
52985.1615,25435.1199,51818.9371,39023.3696,34324.8546,36431.3275,4987.6124,49214.5568,44289.0823,55020.8241,-2544.7011,-2833.4409,23101.0169
53003.7582,25440.6631,51824.0333,39035.9312,34350.0674,36437.0942,4988.6405,49237.8473,44304.9073,55029.273,-2528.2055,-2815.2913,23108.2141
53001.8359,25440.5737,51831.9905,39037.5406,34349.3968,36437.5412,4990.9651,49243.7482,44304.2368,55030.3459,-2526.4621,-2814.3525,23108.3483
52991.2859,25438.4726,51833.8233,39030.7903,34329.9955,36435.7531,4991.8592,49222.2458,44298.3359,55026.9932,-2536.431,-2823.9191,23102.0451
52980.5124,25440.1267,51834.0021,39029.181,34324.0499,36435.7978,4997.1789,49209.6394,44288.7694,55026.5461,-2544.8352,-2832.2339,23097.977
53002.3724,25451.3919,51839.5901,39040.938,34345.8652,36445.1408,5002.4986,49230.6948,44301.8675,55032.894,-2531.0665,-2820.2981,23106.0237
53023.7406,25459.1703,51842.4958,39051.5774,34362.3161,36451.1758,5006.4325,49250.9007,44318.5419,55037.9455,-2511.7546,-2807.6917,23113.2209
53023.2042,25457.9633,51838.6513,39050.1916,34357.9352,36446.7055,4999.8611,49246.9668,44320.9112,55033.6987,-2514.3027,-2810.1057,23106.6942
53012.1624,25455.5047,51833.5104,39041.8321,34343.0489,36441.5199,4994.005,49221.5306,44306.6955,55029.7201,-2531.8265,-2824.679,23096.4124
52991.5541,25451.2578,51832.3034,39029.8516,34315.8245,36433.2497,4988.9982,49208.3877,44292.6139,55026.1438,-2548.5009,-2838.403,23091.0927
52997.3656,25452.6883,51833.7339,39037.2723,34325.7487,36431.998,4989.7581,49223.6763,44300.4817,55027.1273,-2539.6943,-2832.3233,23093.0597
53006.0828,25448.7097,51831.9458,39039.9545,34342.9148,36432.6239,4984.349,49239.5908,44304.9073,55029.1389,-2534.5534,-2826.333,23089.7069
53015.2917,25454.3424,51832.4822,39042.6368,34347.0722,36438.3012,4986.2713,49243.9717,44308.0813,55032.1788,-2532.6312,-2821.6392,23094.0878
52996.1586,25447.4133,51827.0284,39035.3501,34323.3794,36434.0097,4980.9515,49222.4693,44287.7412,55019.2147,-2551.3172,-2839.4312,23089.8857
52983.284,25445.804,51828.5036,39030.3433,34308.359,36430.1205,4978.1352,49198.3294,44279.5157,55015.7279,-2561.2414,-2850.5176,23086.8459
52992.9847,25446.5193,51829.353,39034.9478,34325.5252,36431.5063,4978.1352,49215.4956,44292.7033,55020.1088,-2548.5903,-2844.5274,23088.8128
53010.3743,25455.3258,51829.7106,39046.7048,34349.8886,36436.379,4980.9068,49245.8493,44311.6128,55027.2167,-2530.843,-2832.5021,23093.4173
53004.1605,25450.5426,51826.3578,39037.2723,34342.6466,36429.0029,4975.4977,49243.8376,44312.3728,55027.6637,-2536.7886,-2833.575,23089.5281
52985.0274,25442.7195,51826.8496,39023.7719,34318.8196,36423.102,4975.1848,49229.0854,44303.4768,55023.9086,-2548.4562,-2842.4263,23089.1705
52972.0187,25436.3269,51829.6212,39020.5979,34306.4815,36427.2594,4976.0789,49219.653,44293.9103,55020.1535,-2553.5524,-2846.3602,23089.7516
52982.3005,25438.6961,51828.7271,39025.113,34320.9207,36428.1088,4975.2295,49230.2924,44301.3757,55025.7862,-2545.8634,-2836.7937,23094.8925
52999.3773,25442.2277,51828.2801,39031.7738,34339.0256,36429.584,4978.8952,49242.6306,44316.7984,55030.8377,-2534.0617,-2822.1756,23099.6758
53006.7533,25440.2161,51826.0896,39038.8817,34345.9547,36432.3109,4983.8126,49250.856,44314.4739,55030.1671,-2533.7487,-2817.9288,23098.7817
52990.4813,25433.2423,51822.6922,39028.2869,34328.3862,36426.7677,4980.5045,49235.5675,44303.298,55025.0262,-2549.1267,-2831.4739,23094.6243
52980.0653,25431.4095,51821.5746,39019.838,34308.6272,36420.5986,4974.9166,49218.8483,44299.5876,55021.0029,-2555.2958,-2842.5604,23089.2599
52987.8438,25436.6845,51822.0216,39026.9011,34316.7633,36420.9563,4974.5142,49224.5257,44306.6061,55021.1817,-2544.2541,-2841.7557,23090.1539
53010.1508,25445.1782,51824.5697,39051.9798,34347.8769,36431.998,4982.6503,49253.3594,44320.5535,55029.7648,-2522.5729,-2826.2883,23095.7419
53007.7815,25445.8934,51827.2519,39053.5891,34350.7826,36433.6967,4986.8971,49264.3118,44312.9539,55030.5247,-2522.5729,-2826.4672,23096.5465
52994.1022,25438.2491,51823.1392,39039.731,34327.1792,36425.3372,4981.5327,49243.6141,44301.1075,55024.1321,-2543.7176,-2840.4146,23089.9304
52979.2607,25430.6048,51821.2169,39033.9643,34312.7847,36418.9893,4976.8388,49224.5257,44294.8937,55014.2974,-2555.9664,-2850.607,23087.8294
52983.731,25428.5038,51815.1373,39037.5853,34325.1675,36421.1798,4975.2295,49234.3605,44289.0823,55012.688,-2548.2774,-2844.4827,23083.8954
53005.7251,25436.0139,51813.975,39045.7213,34342.1549,36427.483,4977.6882,49254.9688,44299.0959,55015.415,-2531.3795,-2831.6081,23087.2482
53005.7251,25433.6447,51814.1091,39041.2509,34339.6068,36422.4315,4973.9778,49248.6209,44295.1173,55013.7162,-2535.4028,-2836.0337,23086.6224
52984.7145,25428.8614,51814.869,39035.216,34324.0947,36418.7211,4974.0225,49225.688,44283.6732,55010.8105,-2543.4494,-2845.0191,23084.7895
52964.6426,25419.7866,51812.7233,39023.1907,34301.8323,36410.9427,4972.0556,49210.0865,44269.0104,55004.105,-2555.3852,-2850.7859,23079.7827
52973.4492,25422.8264,51813.9303,39024.8001,34312.6506,36414.0272,4971.4297,49221.9329,44282.6897,55008.7988,-2550.7361,-2843.8568,23081.4368
52994.1469,25426.9838,51815.8525,39051.8457,34335.8964,36423.9961,4976.5706,49247.548,44301.2863,55019.9747,-2528.0714,-2829.3729,23092.9255
52990.9283,25425.6874,51818.4453,39050.5493,34337.461,36424.5325,4979.6551,49258.8133,44305.6673,55021.4052,-2530.3513,-2826.8695,23090.9139
52983.731,25431.7224,51824.7038,39047.0624,34326.1957,36424.5772,4988.5064,49252.0183,44305.6226,55026.0544,-2537.8168,-2830.3117,23092.1656
52968.9789,25428.8167,51826.6708,39040.3569,34308.672,36424.309,4989.5793,49237.445,44294.5808,55029.0942,-2550.1996,-2839.2971,23089.081
52981.7641,25436.2375,51827.386,39048.8952,34325.4358,36431.0145,4992.6639,49258.3662,44302.7169,55032.0446,-2540.0966,-2830.4905,23092.0762
53002.8194,25449.2909,51831.8564,39062.7086,34344.2559,36440.6258,4996.1507,49290.5527,44322.8334,55039.7336,-2523.1987,-2815.7383,23100.3016
53004.9205,25450.0955,51828.9506,39058.2383,34337.8186,36438.9718,4991.4122,49288.854,44321.9393,55037.7667,-2522.9305,-2816.5877,23097.6641
52993.6999,25439.769,51829.4871,39047.1071,34324.2735,36428.69,4993.4238,49267.1281,44308.2154,55035.1739,-2534.1958,-2823.6508,23095.3842
52981.1829,25437.668,51826.8049,39037.3617,34309.7448,36426.5889,4992.7086,49238.8755,44297.0842,55028.379,-2544.7011,-2834.7373,23093.5514
52994.9069,25438.9197,51829.0848,39047.1965,34327.7156,36437.5859,4992.6639,49252.9571,44307.9919,55035.9339,-2531.9606,-2824.6343,23098.5582
53012.6542,25442.943,51828.2354,39061.9487,34349.9333,36441.2516,4995.4355,49276.4711,44321.8946,55041.1642,-2513.7663,-2810.2398,23102.4474
53002.4171,25441.7807,51824.8826,39058.9982,34347.6087,36437.8542,4994.5861,49271.1961,44318.6313,55035.2633,-2522.5729,-2815.2466,23101.1063
52997.6785,25444.9993,51830.4259,39055.7796,34337.014,36438.033,4994.2732,49252.2418,44310.8082,55033.7434,-2533.6146,-2821.9521,23101.0616
52987.0838,25444.597,51835.075,39044.9613,34320.7866,36438.3012,4996.7766,49236.998,44300.437,55028.2449,-2541.706,-2830.8034,23101.4639
52998.3938,25452.8672,51836.4161,39051.6669,34330.7555,36443.8891,4998.9223,49255.237,44310.1376,55031.1953,-2537.4591,-2824.5449,23104.5932
53024.9476,25465.5182,51837.0867,39067.5813,34351.0956,36452.6957,5002.0516,49289.301,44325.2474,55040.9406,-2517.4767,-2807.6917,23112.3716
53028.8368,25470.9274,51836.1479,39068.9224,34346.9828,36456.7637,4999.9505,49291.4468,44324.5769,55037.0514,-2517.432,-2802.7743,23111.1199
53016.9457,25470.2121,51836.6843,39059.1323,34328.2074,36451.3993,4996.9107,49275.0853,44309.7353,55031.3741,-2537.4144,-2815.2913,23103.3862
53002.1936,25459.3492,51838.3384,39044.8272,34307.4203,36444.8726,4993.1556,49259.1262,44298.7382,55029.0495,-2550.9596,-2825.7966,23101.0616
53013.7718,25454.9682,51834.2257,39047.1518,34321.0995,36449.4771,4991.5463,49264.8482,44306.8743,55028.2449,-2539.7837,-2823.8744,23103.1626
53033.933,25457.8739,51836.1032,39059.49,34342.8254,36456.272,4990.1605,49280.2709,44318.2737,55031.24,-2522.3047,-2809.7928,23106.0237
53030.3121,25457.0246,51834.1362,39057.2995,34342.0655,36455.6462,4988.0594,49289.4799,44317.6478,55032.4023,-2523.2881,-2809.3457,23106.2472
53021.8184,25458.9915,51835.7456,39059.3559,34327.8944,36460.34,4992.485,49278.0358,44305.6673,55031.8211,-2527.0432,-2815.7383,23108.3483
53000.5842,25454.5659,51835.5221,39053.455,34312.1141,36454.7074,4989.177,49252.7783,44297.8442,55023.4616,-2536.9674,-2824.1873,23105.5766
53008.5862,25449.9167,51834.7174,39053.5444,34324.944,36452.6957,4987.9253,49258.7239,44300.5264,55023.1934,-2529.2337,-2819.7616,23107.2307
53024.9029,25458.9021,51840.35,39060.6523,34342.9148,36457.032,4994.452,49276.3817,44304.8626,55032.4023,-2509.6983,-2802.4167,23113.9362
53018.108,25463.8642,51841.3335,39064.2732,34347.8322,36461.8152,4998.7882,49273.3866,44303.3874,55035.2633,-2505.5856,-2795.2194,23118.0489
52989.319,25452.733,51840.35,39047.7329,34326.3745,36448.3595,4999.3247,49250.4537,44285.4166,55030.8824,-2523.6905,-2810.6868,23115.8584
52967.4143,25450.632,51841.6911,39036.4677,34308.9402,36437.6307,4997.1342,49227.9679,44273.6149,55023.9086,-2537.0568,-2823.1144,23112.0586
52976.7126,25450.4085,51839.3219,39040.938,34327.2239,36439.5529,5002.0069,49226.0903,44279.8287,55027.2167,-2528.6078,-2815.5148,23112.9527
52990.3024,25464.043,51838.7854,39048.4482,34352.079,36443.0845,5005.4938,49239.6355,44281.7062,55028.826,-2513.5428,-2800.8521,23117.3337
52984.1781,25469.0498,51836.8632,39046.3918,34353.5095,36438.9718,5005.7173,49227.1632,44276.61,55029.8542,-2515.3309,-2804.8754,23117.1101
52956.7748,25457.561,51833.1975,39033.5619,34332.4989,36429.0029,5002.0069,49199.9835,44253.3195,55018.8571,-2533.4805,-2821.6392,23107.633
52941.3521,25456.2646,51831.5881,39031.7738,34322.7535,36429.3605,5004.1974,49175.7989,44240.3108,55011.3916,-2541.8848,-2830.267,23101.2404
52950.114,25466.7252,51836.0585,39037.1382,34333.5718,36431.6851,5009.7406,49181.968,44250.0114,55017.3819,-2529.5019,-2821.7733,23106.5601
52962.6757,25474.8613,51838.5619,39047.3753,34355.6106,36444.9173,5017.3849,49194.4849,44253.9006,55024.3109,-2512.2017,-2807.8705,23114.2938
52961.2005,25475.4424,51837.7572,39049.0294,34353.1072,36442.4586,5016.5355,49190.9087,44246.1669,55023.6404,-2515.0627,-2807.9152,23112.8633
52947.5212,25472.0002,51836.2373,39040.7592,34337.1928,36431.5063,5015.9991,49164.5336,44235.0805,55019.9747,-2528.1608,-2821.0133,23108.7953
52939.4299,25471.7767,51833.5104,39030.9244,34311.1306,36424.1302,5012.4228,49143.6124,44233.2476,55012.5092,-2540.8119,-2832.6809,23105.4872
52947.5659,25470.7485,51827.8331,39025.3812,34312.0694,36419.8387,5007.863,49138.248,44229.269,55008.4859,-2538.4873,-2827.853,23101.4639
52963.7039,25474.8613,51828.4589,39041.9662,34339.0256,36429.6734,5013.898,49153.6707,44236.958,55014.0291,-2516.9402,-2811.1786,23107.4095
52963.2568,25475.8,51827.386,39048.7164,34343.0936,36431.9533,5016.6696,49148.4851,44233.6053,55008.3071,-2514.2133,-2811.8044,23108.7506
52945.1072,25471.9555,51830.3812,39042.145,34323.2453,36426.3207,5014.9262,49123.0041,44225.0222,55005.0884,-2524.6739,-2823.5614,23106.9624
52936.39,25471.9108,51835.7456,39037.7194,34311.4883,36429.6734,5015.4179,49106.1509,44220.2389,55008.0389,-2528.6525,-2827.1377,23111.0305
52947.4765,25471.8661,51836.7738,39046.6154,34316.4504,36435.619,5015.2838,49111.2024,44222.7423,55010.4529,-2518.1919,-2821.1027,23113.0868
52966.7437,25480.3151,51840.8865,39057.3889,34337.5057,36444.2468,5017.2955,49131.3189,44234.3205,55012.9116,-2504.155,-2810.3739,23118.7642
52962.0945,25485.903,51844.2839,39064.4521,34336.2987,36442.2351,5018.8601,49131.3189,44232.3536,55011.3022,-2503.9762,-2808.9434,23118.8089
52942.5591,25481.075,51848.7543,39058.9982,34311.7565,36436.4237,5022.347,49106.8214,44214.1593,55006.8766,-2511.9781,-2815.9171,23116.8419
52931.1597,25472.7155,51845.1333,39043.5308,34292.8916,36426.0972,5022.347,49085.5873,44197.5296,54999.1876,-2521.3659,-2824.4555,23115.5455
52955.4337,25480.8515,51845.5803,39056.5395,34308.9849,36435.7531,5024.9845,49099.5795,44202.4916,55004.1944,-2506.569,-2806.9317,23122.5193
52974.8797,25488.0488,51847.7708,39069.5035,34327.358,36442.0563,5027.2644,49118.3102,44223.7705,55009.2906,-2490.1628,-2793.1184,23129.94
52971.6164,25486.3054,51848.3967,39066.9554,34323.5135,36439.0165,5024.7163,49106.5085,44224.4858,55005.0884,-2493.9626,-2794.0571,23129.6271
52958.6971,25484.2043,51846.9661,39056.9419,34303.9781,36431.3275,5018.9495,49083.218,44212.5499,55004.8202,-2508.9383,-2802.7296,23124.0392
52943.0062,25475.2189,51846.5638,39048.4482,34286.0073,36423.862,5018.5025,49067.7059,44200.6141,55000.9757,-2520.4271,-2817.2135,23118.4512
52955.9255,25473.7437,51847.9943,39055.2431,34299.6866,36428.377,5019.6648,49079.7758,44213.2652,55005.759,-2509.5195,-2808.0493,23122.2063
52981.2276,25474.4142,51848.7543,39065.7037,34323.0218,36435.0826,5021.14,49094.0362,44223.9493,55016.3537,-2494.4544,-2790.5703,23126.8108
52979.7524,25470.1674,51844.6863,39056.8525,34321.0548,36432.5345,5018.279,49089.7894,44220.2836,55011.794,-2497.6283,-2795.8453,23123.771
52963.7039,25463.8195,51840.1712,39045.7213,34301.1171,36421.2692,5011.8864,49063.9061,44204.8609,54998.517,-2514.6604,-2812.8773,23114.0703
52945.1966,25458.321,51841.4676,39036.423,34282.5204,36421.6268,5010.1876,49043.2531,44190.5558,54993.0632,-2529.0549,-2824.0085,23110.494
52954.5397,25453.3142,51837.6678,39035.0372,34286.3649,36419.6151,5006.6561,49046.427,44201.0164,54996.8183,-2525.4339,-2819.0911,23107.6777
52975.3715,25465.0265,51837.8913,39039.9992,34311.0859,36425.7395,5008.7571,49067.84,44219.4343,55004.4179,-2514.3027,-2807.5576,23110.2705
52979.1266,25464.5795,51838.4725,39043.1732,34310.2366,36429.4499,5011.5287,49072.7127,44216.1262,55005.9825,-2512.3358,-2808.1387,23111.7904
52966.2073,25459.9303,51837.2655,39033.249,34288.8683,36421.9844,5008.3101,49051.255,44202.6258,54997.0865,-2528.4737,-2821.7286,23105.5319
52954.0926,25450.4085,51836.4161,39023.8166,34272.2833,36414.4295,5005.2255,49033.5524,44200.3012,54994.4043,-2541.1695,-2832.5021,23100.6593
52968.8895,25456.354,51832.974,39028.6446,34286.6331,36426.3207,5005.3596,49058.1393,44209.9124,54994.7172,-2530.396,-2826.4672,23102.4921
52989.1402,25467.3064,51835.7009,39044.6484,34315.154,36436.4237,5012.0652,49086.3919,44218.8084,55002.5851,-2512.2911,-2811.4468,23108.4824
52993.7893,25469.4074,51837.7572,39048.8505,34323.2453,36434.9484,5012.8698,49097.1208,44219.926,55008.1283,-2510.4135,-2809.3457,23111.0305
52982.7476,25467.0829,51837.7125,39043.3073,34304.8275,36429.897,5013.0934,49085.1402,44212.7287,55000.8416,-2518.5496,-2818.3311,23106.9624
52967.1013,25458.6786,51836.9973,39033.4278,34282.431,36422.5656,5013.2275,49068.5999,44205.1291,54994.449,-2528.742,-2824.0532,23105.3978
52980.6018,25463.0148,51840.8418,39044.2908,34300.6253,36427.4383,5016.9826,49078.3006,44223.5023,54999.9475,-2512.4252,-2810.1057,23111.2987
52998.0808,25463.2384,51840.4841,39050.8622,34323.8711,36430.1652,5017.2955,49092.1587,44229.4478,55000.037,-2501.4281,-2801.3885,23114.2491
52997.4997,25452.6883,51837.0867,39041.3851,34314.5281,36424.309,5012.7357,49085.0508,44223.8599,54998.8747,-2509.5195,-2807.5576,23109.5552
52978.2325,25452.1072,51832.3034,39032.4444,34290.567,36410.3168,5007.3713,49061.7603,44216.4391,54991.8562,-2529.636,-2819.6275,23103.4756
52967.3249,25457.3822,51832.3928,39032.7573,34280.2405,36414.6084,5005.0914,49055.0995,44207.7667,54990.381,-2534.5087,-2824.3661,23105.4425
52980.0206,25459.9303,51833.421,39039.4628,34290.7012,36427.0806,5002.588,49072.6233,44213.4887,54996.103,-2524.2716,-2813.369,23108.08
52995.9798,25465.9206,51830.8729,39053.3209,34313.5893,36429.8075,5002.0516,49107.5367,44233.2923,55005.9825,-2508.1336,-2799.511,23113.2209
52988.6484,25464.4454,51828.593,39054.7961,34319.5796,36427.7959,5006.209,49120.9924,44242.0542,55009.9611,-2508.1784,-2801.9696,23114.4726
52978.456,25467.1276,51831.9458,39054.4385,34310.8624,36430.9698,5014.1215,49105.7038,44233.337,55011.5258,-2515.1521,-2807.8258,23112.2822
52976.8914,25472.6708,51834.181,39055.7796,34300.0442,36429.3158,5014.7027,49101.457,44223.1447,55011.9281,-2522.3941,-2818.8676,23112.6398
52976.355,25468.5581,51830.6047,39054.4832,34310.1472,36428.2429,5010.1876,49102.6193,44225.2904,55011.794,-2517.1191,-2814.6207,23112.7739
52988.2908,25472.1791,51829.1742,39060.9205,34332.633,36439.4188,5012.3334,49121.2159,44239.1485,55014.0738,-2505.3173,-2803.8472,23114.9644
53004.0711,25475.0848,51828.593,39065.7485,34339.9197,36442.9951,5012.9592,49127.8321,44240.7131,55012.9563,-2505.4961,-2800.9862,23113.2656
52989.0954,25467.4405,51824.4356,39053.902,34309.7895,36436.6472,4999.5482,49115.8962,44225.7822,55001.7804,-2527.1773,-2821.7733,23099.9887
52977.249,25468.5134,51828.1013,39051.4433,34292.534,36439.24,4994.8543,49106.285,44225.1563,55000.3946,-2538.085,-2832.6809,23097.3065
52988.5143,25477.8564,51833.1975,39059.5347,34310.326,36449.1642,5000.5764,49118.3549,44235.2593,55007.5471,-2528.8761,-2821.5051,23101.3745
53006.3957,25484.9643,51837.4443,39072.1411,34339.6962,36459.6248,5007.1925,49146.384,44256.2699,55015.3255,-2511.1735,-2806.6635,23107.9459
53013.9506,25482.5056,51836.0585,39073.7951,34342.4678,36459.3118,5009.9641,49148.9768,44258.0581,55018.4995,-2509.6089,-2808.5858,23107.186
52999.8243,25477.9011,51837.3549,39064.7203,34320.7419,36452.3828,5008.7124,49131.766,44242.1883,55013.5821,-2515.2862,-2818.4205,23105.0402
52989.8107,25474.9507,51843.7922,39057.076,34313.0082,36447.0631,5011.7522,49122.0206,44235.2146,55012.5092,-2519.3095,-2824.1426,23106.9624
52992.0906,25473.9672,51845.9827,39057.0313,34324.0499,36446.8843,5013.6745,49138.2033,44239.9979,55018.276,-2511.5758,-2811.9385,23109.1529
53005.7251,25481.6562,51843.5687,39066.866,34343.7195,36448.8065,5014.4345,49154.9224,44253.8112,55025.0262,-2502.5904,-2800.8521,23112.1033
53013.3247,25480.8068,51841.7358,39067.3131,34352.4367,36446.9737,5011.3052,49156.4423,44255.6888,55026.6802,-2500.087,-2798.2593,23115.1879
52994.6387,25472.0896,51838.0702,39054.215,34331.2472,36435.619,5008.0866,49137.5774,44244.0212,55022.1205,-2510.0559,-2805.3224,23110.0917
52973.4492,25459.0362,51831.9905,39038.1217,34306.1686,36425.6948,5002.9457,49114.9127,44236.4663,55012.4198,-2528.0267,-2822.6227,23103.9226
52979.6183,25456.354,51825.3744,39031.1033,34313.8129,36425.069,5000.5317,49125.8204,44240.9813,55012.7327,-2529.9489,-2823.2932,23101.8215
52994.3258,25458.0081,51820.3229,39044.4696,34331.5601,36421.4927,4999.7717,49140.2596,44255.51,55021.4499,-2519.1754,-2812.6091,23101.1063
52994.5493,25456.1752,51822.4239,39042.4579,34327.2686,36416.3965,5000.7105,49141.8689,44256.8958,55022.5675,-2521.9023,-2811.7597,23100.2122
52977.3384,25454.8788,51821.2616,39033.4725,34310.1919,36413.8037,4998.7882,49128.9049,44240.2661,55017.7842,-2529.8148,-2822.9803,23096.9042
52965.2685,25443.6582,51818.3112,39022.8331,34296.2444,36409.6016,4994.9884,49111.2024,44229.3137,55012.9116,-2544.12,-2837.956,23090.0645
52974.7009,25447.4133,51820.5464,39032.802,34310.4154,36412.5967,4997.8942,49124.2111,44246.9716,55024.2662,-2534.017,-2824.0532,23094.6243
52990.6154,25453.9847,51825.1508,39042.6815,34329.5038,36417.1565,5002.588,49146.9651,44259.3545,55031.8211,-2521.0977,-2810.5974,23103.1626
52991.5988,25453.8953,51828.8165,39042.3685,34333.0801,36417.0223,5002.2751,49148.0827,44254.0348,55026.4567,-2521.8576,-2810.5527,23102.805
52986.5921,25449.0674,51827.6989,39042.1003,34324.3629,36417.1565,5001.694,49135.5211,44242.3671,55017.2925,-2533.5252,-2823.4273,23099.0499
52971.7505,25443.4794,51827.2966,39033.4725,34306.3921,36411.6579,4999.9952,49118.8914,44237.8074,55013.5821,-2547.2492,-2835.1396,23095.0713
52976.2208,25442.7195,51825.6426,39031.4609,34316.1374,36411.5685,5000.5764,49126.3568,44238.6121,55018.0525,-2538.6214,-2831.7422,23094.5796
52984.938,25446.4746,51822.6922,39036.87,34333.8847,36412.9543,4999.8164,49148.6192,44254.6606,55021.8523,-2525.568,-2825.8413,23095.3395
52980.5124,25445.7593,51823.2286,39041.8768,34338.9362,36414.2954,5001.2469,49145.1323,44257.9687,55023.104,-2525.7021,-2823.8744,23097.6641
52967.1013,25444.1053,51826.5814,39031.4609,34321.5913,36410.4062,5002.3645,49127.4297,44246.7481,55018.8124,-2540.4543,-2829.6858,23095.0713
52958.6971,25440.529,51831.8564,39019.2568,34303.7099,36399.8562,5002.3198,49113.9293,44239.5061,55017.6501,-2550.9596,-2839.8335,23094.4455
52967.906,25445.2229,51828.1907,39022.8331,34309.566,36399.7668,4999.4588,49117.7738,44245.3623,55021.6287,-2544.7905,-2835.8102,23094.1325
52985.6086,25454.7447,51829.5318,39039.3734,34333.7506,36408.484,5000.934,49143.3889,44260.5168,55026.8143,-2531.3795,-2822.0862,23094.5796
52991.9118,25461.0032,51829.1295,39040.8039,34347.8322,36414.9213,5005.6279,49155.1459,44261.8132,55029.7648,-2527.4009,-2814.6207,23095.3395
52969.113,25459.8856,51830.6047,39025.8729,34325.0334,36408.3499,5001.9622,49134.1799,44247.7763,55019.6171,-2540.186,-2828.4341,23092.2997
52959.0994,25455.7729,51836.3267,39025.2918,34314.4387,36411.7473,5001.2916,49112.4094,44240.0873,55014.2527,-2543.4941,-2834.4691,23094.5349
52972.5552,25462.0314,51839.3219,39039.5522,34334.3765,36422.9679,5005.4938,49130.0225,44249.5644,55023.551,-2529.9937,-2821.1027,23099.8099
52994.2364,25467.8428,51837.8913,39054.215,34359.2316,36433.8309,5010.3217,49154.4306,44263.2884,55031.0165,-2515.7779,-2803.9366,23103.8779
52998.3938,25466.5017,51837.2208,39056.8078,34355.4318,36435.3955,5011.9758,49155.8164,44263.9589,55029.5413,-2517.2979,-2801.7461,23104.3696
52978.009,25460.9138,51838.1149,39042.1897,34323.9605,36426.3207,5008.176,49130.7378,44254.0348,55022.9251,-2532.9888,-2819.3146,23098.0664
52960.5746,25452.7777,51832.0799,39032.042,34309.7001,36421.4033,5004.7338,49109.8613,44246.1222,55014.5209,-2548.5009,-2830.6246,23090.7798
52972.6446,25454.8788,51832.0352,39045.006,34328.7438,36429.7628,5008.623,49122.0653,44251.3973,55016.6667,-2536.5651,-2821.0133,23098.0664
52990.0342,25463.7748,51834.2257,39060.8311,34356.2365,36436.8707,5012.9592,49157.3811,44267.0435,55028.2449,-2514.3027,-2807.1105,23105.8449
52993.4317,25465.6971,51834.0915,39059.0876,34359.2316,36433.3391,5015.6415,49163.9972,44271.6032,55028.3343,-2512.9616,-2805.4565,23107.7224
52977.562,25456.4434,51827.6989,39043.3073,34335.047,36423.4149,5007.9972,49136.9963,44259.2651,55019.3489,-2532.7206,-2825.1261,23096.323
52961.0217,25447.0557,51822.871,39036.6018,34316.5845,36416.3071,4999.4141,49114.3763,44246.2564,55014.1633,-2543.2259,-2837.7771,23090.7351
52972.6446,25448.2627,51822.1557,39041.7427,34327.9392,36415.2342,5001.0234,49130.8719,44254.9288,55020.1982,-2530.396,-2826.1095,23094.5349
52994.0128,25458.1869,51819.8311,39052.4268,34352.392,36423.3255,5007.8183,49148.8427,44259.3098,55028.3343,-2517.2979,-2808.4069,23100.3463
52995.041,25456.7564,51821.3511,39052.0245,34351.0956,36422.5656,5007.9077,49145.2664,44265.9259,55029.1389,-2515.8674,-2807.7811,23102.0451
52973.0916,25445.0887,51822.5133,39045.8107,34327.1345,36411.1215,5002.588,49131.5871,44255.8676,55020.7794,-2530.843,-2823.9191,23097.7982
52960.0382,25440.4843,51825.732,39040.1781,34310.7283,36408.1264,5001.4257,49117.9973,44248.6256,55019.2595,-2542.153,-2829.507,23097.8876
52966.3414,25443.0324,51823.5862,39037.5853,34320.1607,36409.9145,4998.4753,49130.8719,44260.025,55024.1768,-2535.0004,-2821.058,23098.5582
52992.9399,25447.5027,51821.1275,39044.8272,34335.3152,36410.898,4995.2567,49154.7436,44266.1047,55029.4966,-2523.154,-2812.6091,23100.2122
52993.0741,25447.771,51820.2782,39041.8768,34334.7788,36405.623,4996.7766,49161.4938,44266.4176,55030.8377,-2527.0432,-2817.8394,23096.77
52977.1596,25444.0159,51829.9788,39032.3102,34319.222,36402.5384,5000.3082,49144.3723,44261.5002,55030.6588,-2538.532,-2827.3612,23095.4736
52969.2918,25440.3502,51831.9458,39023.5484,34300.9382,36400.035,4996.7766,49126.5804,44251.1737,55023.9086,-2548.4115,-2834.2903,23092.702
52978.9478,25440.5737,51828.8612,39029.6727,34316.3162,36404.6395,4994.0944,49132.1683,44256.5829,55025.6073,-2542.0189,-2832.9939,23092.5679
52991.6435,25447.7262,51826.4472,39034.3219,34332.0966,36408.931,4993.2003,49150.6308,44274.2854,55035.9786,-2531.8712,-2824.3214,23096.4124
52996.4268,25453.5377,51828.4589,39035.8418,34336.7904,36412.0156,4996.7319,49155.6823,44282.9579,55042.6841,-2530.9324,-2821.3263,23097.7535
52981.5853,25451.4813,51831.4093,39033.249,34330.4425,36408.7522,4998.0283,49150.8543,44270.4409,55037.275,-2543.0471,-2828.9258,23096.1442
52975.6844,25446.9663,51836.6843,39031.4162,34323.6923,36409.3781,5002.7221,49148.1721,44263.5566,55040.6277,-2545.9975,-2834.8714,23097.3512
52986.4132,25445.6252,51835.1644,39037.3617,34333.8847,36420.1069,5003.4821,49163.1478,44273.3467,55041.5665,-2534.6428,-2825.1708,23101.5533
52999.8243,25455.8623,51832.4822,39048.18,34354.6271,36427.7065,5004.3762,49184.6055,44285.1931,55043.0864,-2521.6788,-2813.9502,23105.1296
52992.1353,25455.1917,51831.454,39046.526,34353.8672,36428.5111,5007.1031,49193.3227,44290.2893,55043.9805,-2519.8907,-2812.6091,23107.0071
52980.5124,25455.6835,51834.0468,39037.6747,34329.4144,36418.9446,5004.9573,49185.0525,44284.8802,55040.7618,-2531.2006,-2822.3097,23106.0684
52972.9128,25454.6106,51838.5172,39033.9643,34324.497,36419.034,5005.3596,49172.4461,44270.128,55035.0845,-2544.12,-2827.8977,23101.8215
52978.0537,25457.1587,51837.9807,39038.1217,34339.6515,36426.9465,5004.8679,49189.2099,44283.9861,55038.4372,-2532.5865,-2816.2748,23104.9061
52991.6883,25465.4735,51836.6396,39050.3258,34359.2316,36435.7978,5008.2654,49210.5782,44300.8393,55039.6889,-2513.7216,-2802.3273,23111.8798
52992.4482,25462.9701,51835.835,39053.7232,34354.8059,36435.2167,5007.5948,49209.2818,44296.1901,55037.1408,-2514.7498,-2805.5906,23111.9692
52982.3899,25456.6222,51835.7456,39041.7427,34337.3716,36431.998,5003.8844,49196.8542,44282.4215,55031.5082,-2526.3727,-2820.7451,23105.9343
52965.6261,25451.9731,51834.9856,39033.2043,34329.012,36430.3887,5003.7056,49187.1983,44276.0289,55028.826,-2537.8168,-2826.9589,23103.6097
52974.0751,25447.4133,51829.6212,39044.9613,34340.6796,36433.3838,5004.3315,49203.1127,44286.9812,55031.7317,-2527.9373,-2814.7995,23103.4756
52994.3705,25454.3424,51828.8165,39058.0148,34361.735,36436.9601,5003.2586,49220.3683,44299.4088,55035.7997,-2512.6487,-2804.2048,23104.5038
52999.2431,25456.2646,51825.5979,39058.283,34363.8361,36437.1836,5004.5997,49221.0388,44302.538,55032.9387,-2511.397,-2807.5576,23104.8614
52976.7126,25446.2957,51821.664,39041.3851,34339.8303,36431.0592,5000.2187,49201.1458,44286.8024,55027.7531,-2531.603,-2822.8909,23096.0995
52958.6971,25430.426,51817.3277,39028.5105,34310.9965,36421.0904,4993.7367,49188.0924,44272.1844,55019.93,-2548.7691,-2836.2572,23087.2929
52969.56,25434.5387,51817.8642,39035.7077,34322.7088,36426.8571,4996.8213,49206.5549,44283.5391,55024.3109,-2534.911,-2826.7354,23093.1491
52992.8952,25444.2841,51818.1771,39047.7329,34346.1335,36434.6802,5001.381,49226.0456,44296.7713,55028.6919,-2520.4718,-2812.6091,23097.6194
52993.8787,25440.1714,51818.8477,39044.7378,34344.5688,36428.6453,4996.0613,49223.0505,44300.437,55026.5908,-2523.0199,-2816.2748,23097.7535
52970.6776,25422.9605,51816.6125,39028.1975,34322.2618,36419.3469,4985.9583,49198.5977,44284.7908,55017.5607,-2539.8731,-2830.6693,23089.841
52951.321,25409.4154,51808.5659,39013.2219,34301.6088,36407.5899,4975.1848,49171.105,44264.1377,55009.6035,-2556.0111,-2844.885,23081.7497
52973.0916,25416.6573,51809.2811,39028.6446,34318.0597,36418.1846,4982.3821,49180.5822,44270.128,55014.4762,-2547.3833,-2837.956,23087.6058
52977.3831,25416.255,51798.9099,39030.8797,34332.0519,36417.3353,4978.8952,49192.2945,44280.0522,55014.208,-2540.5884,-2828.5682,23086.9353
52970.8117,25415.8527,51792.9643,39027.8846,34328.6544,36407.9922,4976.5706,49189.5229,44277.0571,55011.9281,-2538.532,-2826.4672,23083.4484
52960.3064,25405.3473,51793.8584,39019.2568,34308.2696,36404.416,4974.5589,49168.1546,44266.7305,55009.1565,-2550.0208,-2838.8053,23083.5378
52946.6271,25392.8304,51796.8982,39013.0877,34297.0043,36410.0486,4972.8602,49149.5132,44261.7238,55005.2226,-2560.7944,-2848.9083,23082.152
52949.8458,25396.3172,51799.5805,39023.6378,34312.5165,36412.3732,4979.0293,49169.7192,44278.3087,55013.3586,-2548.5456,-2836.0337,23089.9304
52963.7039,25403.0228,51800.7874,39034.7689,34331.5601,36415.3236,4981.488,49192.4286,44292.0327,55025.6968,-2533.4358,-2820.0299,23099.5864
52968.2636,25403.5145,51800.0722,39035.4842,34333.8847,36420.3751,4979.6999,49200.654,44295.2067,55027.4402,-2533.5252,-2818.8229,23097.0383
52952.081,25395.0655,51791.802,39022.8331,34308.3143,36410.8086,4972.9943,49180.4928,44283.2261,55015.0573,-2552.6583,-2833.3962,23087.4717
52931.428,25383.5768,51786.4823,39010.2267,34281.8052,36401.6443,4970.625,49162.7008,44272.1397,55005.5355,-2571.4338,-2845.4661,23079.738
52941.8439,25392.741,51790.3715,39023.7719,34308.0014,36416.1283,4980.5939,49177.587,44285.1037,55008.8882,-2554.1335,-2834.4691,23085.8177
52970.4094,25397.5242,51787.4658,39034.6795,34336.0752,36422.6103,4982.6056,49203.2915,44295.8325,55012.1963,-2534.464,-2824.3214,23089.1258
52977.1149,25396.4067,51787.1082,39034.9925,34340.2326,36421.0457,4983.902,49207.0466,44290.9598,55015.5044,-2538.1744,-2829.1494,23087.3823
52963.078,25392.6069,51790.4609,39024.4871,34316.0927,36412.3732,4977.7776,49195.0661,44276.4312,55011.3469,-2555.0276,-2841.6216,23080.2745
52940.3687,25381.1181,51789.4775,39009.288,34291.1035,36404.863,4971.6085,49177.587,44266.4176,55009.2012,-2567.7234,-2850.2494,23072.3172
52939.2958,25377.3183,51788.7175,39013.8924,34292.981,36407.7687,4969.9545,49189.1652,44274.509,55009.6929,-2555.4746,-2844.7956,23074.5971
52950.114,25380.7604,51786.5717,39023.2801,34310.773,36407.4558,4964.143,49212.5452,44287.8306,55009.2906,-2543.5835,-2833.9326,23077.637
52955.5678,25380.1793,51784.2472,39028.0634,34314.8857,36403.9689,4962.936,49212.6346,44289.1717,55010.8552,-2548.1433,-2829.4623,23077.1452
52934.4678,25371.6856,51779.0616,39017.9157,34292.3552,36394.0448,4958.2422,49194.5297,44270.6198,55003.2109,-2563.2977,-2844.5274,23071.7808
52915.3347,25368.8246,51772.0878,39009.4668,34274.6526,36385.864,4954.4424,49175.2625,44254.3924,54997.4889,-2572.6855,-2859.9948,23068.428
52919.9839,25370.2104,51769.048,39012.6407,34288.8683,36388.0545,4954.7553,49181.968,44260.2932,54999.5452,-2563.4319,-2850.92,23071.0655
52936.3453,25375.4854,51765.4717,39022.5202,34306.9732,36394.4024,4953.4589,49204.3644,44270.6198,55003.345,-2551.4066,-2841.8452,23073.5242
52925.7953,25370.7469,51759.4367,39008.3939,34303.7546,36385.7299,4944.25,49204.3644,44269.5469,54997.3547,-2556.9499,-2848.9977,23068.5622
52918.3298,25367.0365,51759.7049,39002.1801,34281.7158,36382.3324,4940.5396,49185.8572,44253.9006,54989.8893,-2572.0149,-2859.2348,23062.706
52905.0529,25360.6886,51757.0674,38994.8934,34265.8013,36381.8854,4940.5396,49170.1216,44239.7743,54983.1837,-2587.9294,-2870.9024,23056.3134
52902.4601,25358.6322,51757.738,38999.8108,34284.4874,36386.7134,4940.182,49176.0224,44249.1621,54987.52,-2582.1626,-2868.3096,23058.9062
52912.0266,25358.811,51759.5261,39010.8973,34304.9169,36388.2333,4938.8409,49197.2566,44257.0746,54992.7503,-2562.9848,-2860.1289,23060.6496
52908.7186,25358.2746,51755.1899,39005.9352,34300.3571,36377.728,4935.8457,49201.7269,44254.6159,54993.1526,-2566.9634,-2861.2912,23055.5087
52889.6302,25351.122,51756.2628,38997.3521,34276.5749,36375.4481,4937.6786,49187.243,44244.5576,54988.9058,-2581.5815,-2869.7848,23056.1793
52889.7196,25347.0093,51755.6369,38998.4697,34268.26,36378.4432,4938.3044,49176.6036,44240.8025,54985.553,-2588.0635,-2872.78,23056.0005
52904.6059,25348.6633,51755.8157,39003.2977,34278.5418,36380.9466,4938.1256,49181.5209,44253.3642,54987.6988,-2577.3346,-2864.9122,23056.0005
52913.9936,25349.6915,51755.2346,39006.2034,34294.4115,36380.9019,4937.8127,49192.8756,44264.3613,54991.9456,-2568.7963,-2857.402,23056.671
52918.6428,25354.2513,51753.1335,39010.8973,34293.741,36377.6386,4938.8856,49187.5559,44257.5663,54990.2469,-2570.5397,-2859.1901,23053.7653
52905.947,25350.1385,51750.0043,38999.185,34278.8547,36375.1352,4932.6271,49163.2372,44247.4186,54987.6541,-2579.4804,-2872.8247,23050.5913
52891.9995,25341.1978,51746.875,38986.9809,34259.2299,36368.5638,4927.5756,49150.6308,44237.0474,54980.278,-2589.941,-2881.3183,23045.2269
52899.2862,25345.4447,51749.8702,38994.2229,34269.1541,36372.453,4928.6038,49161.7173,44241.4284,54982.5579,-2578.7652,-2872.467,23048.4009
52917.3464,25351.2561,51757.9615,39005.7564,34295.3503,36381.1255,4935.9351,49187.2877,44249.2962,54990.7386,-2561.7778,-2861.6041,23052.2901
52924.7671,25357.0229,51761.4484,39008.2598,34297.6749,36382.6454,4941.7913,49196.2284,44255.6888,54993.0185,-2561.7778,-2859.2795,23057.7439
52913.9042,25357.2464,51762.8789,38998.2462,34281.5816,36377.6386,4942.3724,49186.0807,44259.3992,54989.7999,-2577.5582,-2867.1026,23057.6545
52903.0412,25351.0326,51762.8789,38989.4843,34273.6244,36375.5822,4942.9536,49166.4112,44259.4886,54989.5763,-2589.8069,-2875.7751,23054.0782
52918.6875,25358.4087,51759.3026,38996.2792,34284.3086,36378.8456,4941.0313,49178.9728,44265.9706,54994.6725,-2583.2355,-2869.2037,23058.5486
52933.9314,25363.8178,51757.2016,39005.4882,34300.1336,36380.4102,4939.9585,49197.6142,44272.3632,54999.4111,-2565.8458,-2857.9831,23061.7672
52926.2871,25359.7945,51754.2511,38998.8273,34294.0539,36375.0905,4937.8574,49192.3392,44260.8744,54995.9242,-2569.6903,-2865.6274,23055.8664
52905.0529,25346.2493,51747.7691,38987.0703,34266.3378,36366.6862,4932.6718,49168.3781,44245.6752,54983.6308,-2582.8332,-2877.5632,23047.6856
52889.0938,25339.812,51744.3269,38980.4989,34247.7858,36358.5502,4926.458,49155.2353,44237.5839,54973.4384,-2591.8186,-2887.7109,23038.4767
52901.879,25339.5885,51741.6447,38987.2491,34263.0297,36358.9525,4921.4959,49167.2605,44238.3438,54970.935,-2585.5154,-2879.8431,23038.879
52919.5368,25344.1036,51737.532,38997.5756,34284.5768,36362.0371,4918.5455,49185.1866,44248.7597,54977.0147,-2572.1043,-2866.8344,23041.3824
52918.7769,25345.3106,51736.9509,38998.5144,34287.259,36362.2159,4922.1218,49186.3936,44247.5528,54980.0992,-2574.3395,-2867.505,23042.8576
52905.3658,25344.3271,51738.739,38988.9926,34265.9801,36360.0701,4922.6135,49166.6794,44240.132,54976.5676,-2588.734,-2878.6361,23042.3212
52889.1832,25341.9131,51738.8284,38985.5951,34252.9714,36359.3102,4923.597,49156.6658,44235.7063,54974.9136,-2597.0936,-2889.052,23042.7235
52903.6224,25349.4233,51741.0636,38997.5309,34270.6293,36368.0273,4930.3919,49176.2459,44252.0231,54980.4121,-2586.0071,-2876.848,23046.7916
52931.3833,25367.9305,51744.5505,39010.6291,34300.7147,36381.2149,4937.4551,49211.4276,44272.6761,54990.1575,-2564.2365,-2858.8772,23055.464
52929.9974,25366.8129,51745.221,39011.7913,34302.2794,36382.2877,4937.7233,49221.6647,44277.6382,54990.7833,-2565.2647,-2859.816,23057.3863
52911.7584,25358.9004,51745.0422,39007.6786,34279.3912,36377.8621,4939.9137,49202.1739,44265.7918,54986.8047,-2581.2685,-2870.9471,23054.3911
52892.4465,25351.9714,51745.0422,39001.9119,34268.4835,36372.4083,4939.422,49191.1769,44257.8346,54984.3013,-2589.8516,-2875.5069,23054.6594
52895.3075,25349.7809,51743.7011,39001.1519,34278.0501,36370.2625,4937.008,49203.6045,44266.3282,54988.1011,-2586.0965,-2872.3776,23056.2687
52910.1491,25351.8373,51742.0918,39007.7233,34291.0141,36369.5025,4936.2034,49218.2225,44272.095,54991.3645,-2573.9372,-2863.7499,23057.878
52913.9489,25355.2794,51744.2822,39012.9089,34297.1385,36371.9612,4936.7398,49216.9261,44268.5187,54984.7484,-2570.4056,-2860.2183,23059.085
52899.0179,25342.3154,51743.567,39002.3589,34275.4573,36367.3568,4932.3589,49200.8328,44261.0532,54976.3441,-2584.3978,-2874.0317,23052.7371
52883.9082,25342.0025,51744.5505,38993.9994,34255.6983,36370.7989,4928.2461,49186.7512,44250.9949,54971.6949,-2592.9362,-2884.984,23047.6409
52904.8741,25353.983,51748.1714,39003.4765,34272.2833,36381.4384,4934.0576,49207.7172,44259.0415,54980.0098,-2580.0616,-2869.9189,23052.7371
52930.0869,25365.8742,51752.9994,39021.8496,34299.5524,36391.7202,4945.3676,49231.9018,44266.6411,54983.899,-2562.1802,-2852.7081,23059.2638
52933.9761,25371.1939,51753.8041,39024.2636,34302.5029,36396.3246,4946.4852,49232.7064,44266.507,54984.9719,-2561.2414,-2852.6634,23062.4825
52921.772,25374.3678,51755.5922,39021.939,34285.4708,36395.1176,4943.5794,49217.1496,44267.3117,54986.5365,-2571.2997,-2859.2795,23061.6331
52909.2103,25374.4125,51754.6982,39013.8924,34268.4835,36395.1623,4940.7631,49209.6394,44259.8909,54983.2284,-2578.0052,-2867.5497,23058.2356
52926.8682,25384.5602,51756.7545,39023.1907,34288.7342,36409.0204,4946.7534,49229.1749,44268.2505,54988.9058,-2560.0791,-2857.3126,23065.8352
52942.1568,25391.1763,51760.5096,39037.2276,34308.5825,36413.8931,4947.558,49241.6918,44276.7888,54988.5482,-2546.1316,-2844.3485,23071.1102
52939.117,25384.2473,51757.6486,39033.4725,34303.5758,36408.6628,4940.0032,49237.1768,44271.6032,54985.106,-2547.875,-2841.8452,23067.3105
52920.7885,25369.7634,51750.3619,39013.0877,34283.1463,36399.9009,4936.6504,49211.5617,44249.1621,54974.243,-2566.1588,-2858.6537,23059.9791
52900.4931,25356.4417,51747.8585,38992.2112,34259.4981,36390.8708,4934.8176,49192.2945,44222.6529,54966.554,-2583.5037,-2873.4952,23055.9558
52913.0101,25356.4864,51749.0655,39007.9916,34274.8761,36396.1011,4935.7116,49208.4324,44232.8453,54971.4267,-2574.6077,-2861.8276,23056.0005
52917.4358,25362.8343,51750.8984,39014.4289,34297.9431,36395.1623,4935.801,49225.9562,44246.4352,54976.97,-2563.4319,-2850.8753,23060.0238
52910.3279,25361.9403,51752.1948,39011.7913,34295.395,36391.9437,4938.4385,49223.0952,44244.3788,54977.8193,-2558.7827,-2849.2659,23061.4096
52886.0092,25349.7809,51747.4562,38995.2958,34272.6856,36381.5278,4934.9517,49191.8921,44233.337,54966.867,-2574.7865,-2865.0463,23053.8547
52874.5204,25351.9267,51747.2774,38984.701,34260.6604,36378.4879,4936.1587,49166.1429,44218.4955,54963.4248,-2583.8614,-2869.8742,23054.7935
52887.5291,25354.5195,51749.602,38992.2559,34275.8596,36382.6454,4942.9089,49176.4247,44222.2953,54973.8407,-2570.6291,-2859.6818,23061.2755
52906.0364,25365.606,51755.5028,39006.3375,34301.6982,36388.2333,4949.7038,49197.1225,44233.1135,54985.3295,-2554.8041,-2843.5439,23069.188
52901.566,25369.361,51757.5592,39004.7729,34307.7332,36383.8971,4954.6659,49192.518,44232.8006,54984.7037,-2554.3123,-2841.4875,23070.1715
52882.9247,25362.879,51754.4299,38990.3337,34280.777,36372.2742,4950.8661,49156.7552,44212.1476,54979.6522,-2570.1374,-2856.8655,23066.1035
52870.363,25363.4602,51755.6369,38979.2472,34268.1706,36363.0205,4948.1839,49125.1945,44194.2662,54974.7348,-2581.0003,-2867.5497,23064.4941
52872.777,25367.7964,51748.9314,38983.1811,34280.0617,36362.7076,4945.7699,49129.7096,44196.9484,54972.3208,-2573.2219,-2862.7217,23063.1083
52881.0471,25374.9937,51746.2939,38990.5572,34297.5408,36365.8816,4949.2568,49147.8592,44204.548,54974.7348,-2553.6865,-2851.9034,23067.5787
52872.5535,25380.5369,51745.3998,38988.8585,34295.6632,36361.7241,4952.2966,49138.6503,44195.1156,54971.6949,-2552.1666,-2852.2611,23067.6234
52855.3426,25379.2405,51743.7458,38973.4358,34268.6176,36351.8894,4949.1674,49104.7204,44174.2837,54960.3403,-2570.048,-2866.8344,23059.2191
52849.263,25378.9723,51744.774,38978.5767,34259.6769,36357.3879,4950.1956,49080.6252,44157.8329,54950.5502,-2578.0946,-2876.4009,23052.8265
52854.9403,25375.9325,51739.2308,38985.1928,34267.2765,36363.1099,4950.1508,49081.7875,44157.4305,54948.5832,-2566.0694,-2872.78,23051.1725
52870.9888,25390.2823,51742.5835,38999.2744,34289.6283,36364.9875,4957.1693,49096.8972,44172.2274,54954.7523,-2551.6301,-2857.9384,23058.1015
52876.398,25394.4397,51746.2492,39000.4367,34294.188,36367.625,4960.9691,49096.4502,44176.7871,54954.7076,-2552.5242,-2854.0492,23061.3202
52857.8013,25383.4873,51745.7575,38989.3055,34270.1823,36361.6347,4959.0468,49070.3881,44160.4704,54946.5716,-2563.9236,-2863.3475,23058.1909
52845.329,25378.3464,51746.4727,38987.7409,34248.6799,36360.8748,4961.6843,49050.9421,44142.4102,54941.7436,-2574.0713,-2871.26,23057.7886
52856.1026,25390.9975,51755.4134,39002.1354,34265.3096,36370.7095,4967.5852,49066.0518,44152.7367,54948.4044,-2563.1189,-2859.5477,23063.0189
52874.8333,25403.3804,51759.6155,39015.9041,34291.9976,36377.0127,4973.9778,49078.3006,44169.4558,54955.6911,-2545.5952,-2845.0191,23068.3833
52875.638,25406.2414,51756.3969,39021.3579,34289.9412,36377.1468,4973.8437,49072.5785,44163.8231,54958.0604,-2545.4611,-2847.6566,23066.4611
52863.0763,25398.9547,51756.6204,39009.0644,34269.6905,36377.6833,4971.5191,49053.669,44152.2449,54951.2208,-2559.7662,-2860.6206,23066.7293
52848.9053,25396.0043,51759.1685,39000.7049,34255.743,36373.9729,4970.8039,49040.7944,44143.3489,54946.0799,-2570.2715,-2867.3261,23067.8022
52856.192,25392.4727,51754.3852,39003.4765,34268.0365,36376.7445,4967.5852,49044.5048,44148.311,54944.1576,-2564.1024,-2861.5147,23067.3552
52874.3416,25395.5126,51754.1617,39015.1441,34283.4592,36379.2926,4968.1664,49063.1014,44160.068,54949.2091,-2544.3435,-2852.4846,23071.5126
52878.3649,25393.5009,51757.3804,39022.1179,34281.4475,36381.3937,4969.418,49065.1131,44160.9174,54951.6678,-2536.0733,-2850.2047,23072.3172
52857.6672,25384.6049,51755.5028,39011.7466,34249.9763,36369.1002,4967.2723,49041.8673,44153.5413,54941.833,-2550.6467,-2864.0628,23067.981
52843.8538,25378.5253,51754.8323,39004.2365,34237.0123,36361.6347,4962.3996,49015.1793,44142.6337,54934.0099,-2559.4085,-2877.0715,23060.3367
52868.396,25388.9412,51755.8604,39016.3958,34262.0015,36371.5142,4964.1877,49030.0208,44154.4354,54941.1625,-2542.6894,-2862.677,23065.4776
52889.7196,25394.9761,51752.7312,39024.4424,34277.1113,36376.074,4964.0536,49051.9702,44161.7221,54944.9623,-2527.2667,-2851.367,23069.635
52892.4912,25395.5126,51753.7147,39028.5105,34275.3679,36381.2149,4967.2723,49053.2219,44164.8513,54945.9457,-2526.2833,-2847.1202,23072.7643
52879.6613,25392.2939,51754.8323,39022.7437,34259.4981,36374.1517,4968.7475,49027.2492,44154.6142,54945.6775,-2541.4824,-2852.7528,23072.4514
52872.6429,25390.8634,51755.8157,39013.7583,34239.918,36370.1731,4967.0935,49004.8975,44141.6055,54947.9127,-2553.5077,-2857.4914,23073.9713
52881.7624,25393.4115,51759.5261,39012.7748,34249.5292,36374.3752,4970.4015,49027.0704,44155.7765,54957.9263,-2539.7837,-2846.7178,23080.5427
52895.7099,25391.3552,51758.5427,39013.0877,34264.1473,36367.9826,4969.1051,49044.3707,44164.4043,54961.3237,-2535.2687,-2841.8005,23080.5427
52894.9052,25379.2405,51752.91,39003.8341,34265.4884,36362.0818,4961.9973,49032.5689,44163.8231,54959.8485,-2546.4445,-2845.4661,23075.7594
52881.7177,25373.6973,51751.703,38994.0888,34242.779,36359.8466,4962.489,49015.9392,44153.6754,54954.4841,-2557.9333,-2854.6304,23074.5077
52867.4126,25363.7731,51748.0373,38976.7885,34219.9802,36346.7932,4957.6163,48998.1025,44137.5822,54947.1974,-2577.1111,-2868.8908,23065.8799
52871.2571,25363.7731,51745.8916,38978.1296,34225.1211,36341.7864,4951.492,49008.6973,44139.0574,54951.3996,-2576.7982,-2865.3145,23062.6613
52883.7293,25371.9538,51745.8022,38990.4231,34245.8189,36348.2237,4949.972,49028.6797,44157.5646,54964.9447,-2563.4766,-2852.9316,23064.8965
52887.7079,25374.7702,51746.9198,38991.2277,34250.4233,36347.7319,4948.2286,49029.5738,44162.3032,54961.5026,-2563.4766,-2856.2844,23063.5107
52874.9675,25365.293,51740.8401,38976.0733,34226.954,36339.7747,4940.5843,49015.0899,44149.4733,54951.3996,-2584.9789,-2870.8577,23051.9772
52859.2318,25360.6439,51740.7507,38971.4688,34215.8228,36337.8525,4940.182,49004.361,44138.2527,54949.0303,-2594.0984,-2881.5418,23048.9373
52875.5039,25364.5778,51747.5456,38985.5057,34235.7159,36347.5531,4945.5017,49012.2288,44155.1507,54960.5191,-2578.4969,-2865.3145,23056.7604
52884.5787,25367.707,51749.9596,38992.703,34251.4962,36349.9224,4949.7038,49027.6515,44165.1642,54965.8835,-2563.566,-2851.9928,23060.6049
52891.5524,25367.6176,51754.6535,38999.5873,34260.7051,36355.6892,4952.2072,49033.5077,44163.3761,54966.2411,-2556.0111,-2849.6683,23064.2706
52888.5126,25366.7235,51764.1306,39005.9799,34253.1055,36361.2324,4959.4045,49028.9032,44157.7882,54968.5657,-2557.1734,-2855.1221,23070.3503
52879.259,25365.6954,51767.0363,39004.1471,34236.8782,36359.7572,4957.3928,49014.9111,44150.6803,54962.6201,-2564.2365,-2860.6653,23068.1598
52898.705,25379.464,51770.0762,39015.9041,34260.9286,36371.1566,4962.6678,49031.496,44165.7901,54964.4977,-2548.5456,-2850.1153,23074.0607
52926.8682,25390.7293,51770.9255,39029.2704,34288.3319,36384.0759,4967.0488,49058.6758,44189.8406,54974.9136,-2529.8148,-2830.8928,23080.4533
52930.8915,25392.428,51773.1607,39036.5571,34291.327,36391.9437,4969.731,49061.7603,44192.9251,54977.417,-2524.4057,-2828.9258,23082.2861
52911.8478,25398.3289,51772.669,39028.9128,34273.3115,36391.139,4969.6416,49048.3493,44184.655,54974.1536,-2534.2852,-2840.8617,23080.0509
52895.4417,25400.7876,51775.4406,39018.0051,34257.2629,36385.4617,4971.8767,49042.4484,44181.1681,54973.0808,-2542.7788,-2845.645,23083.4484
52906.841,25403.6039,51770.2103,39024.8448,34267.1871,36390.4685,4973.2178,49064.5766,44190.824,54979.071,-2536.9227,-2837.5536,23087.5611
52922.8449,25411.2482,51768.8692,39036.2889,34292.9363,36396.9952,4975.0954,49087.0625,44200.4353,54977.5958,-2523.5564,-2825.439,23092.6573
52919.8498,25407.8954,51765.2035,39036.9147,34291.6846,36395.3412,4973.9778,49084.8273,44196.1437,54973.1702,-2522.3494,-2827.7636,23090.9139
52901.0296,25396.0937,51759.9285,39019.2121,34268.3941,36387.0263,4965.7077,49066.7224,44186.756,54965.4365,-2543.4047,-2845.4214,23079.5592
52885.6069,25389.6564,51752.0607,38998.7826,34242.6896,36375.8057,4952.5648,49044.3259,44169.4111,54956.5852,-2563.0742,-2864.9122,23065.0306
52898.705,25394.2162,51748.9314,38998.0674,34252.3456,36382.1536,4948.8097,49062.6991,44177.8153,54956.2722,-2560.4814,-2860.5312,23062.3037
52914.1277,25392.3386,51746.2045,39003.2083,34273.4456,36386.3558,4948.9886,49084.4697,44186.309,54956.004,-2553.0607,-2850.7859,23059.6215
52909.4338,25389.567,51743.9693,39001.1519,34271.3892,36381.1702,4944.5182,49081.2063,44184.7444,54952.6066,-2556.6816,-2859.1454,23055.2852
52897.8556,25377.7206,51744.774,38994.7146,34253.7761,36372.453,4938.8409,49056.3959,44174.6861,54947.1974,-2567.1422,-2869.9636,23049.2502
52882.88,25366.5894,51744.6399,38984.254,34240.1415,36364.6299,4934.4599,49025.0587,44161.8562,54939.5084,-2581.045,-2881.4077,23043.4835
52893.6535,25371.0151,51749.7808,38995.564,34249.9316,36369.9049,4940.0032,49042.1802,44178.7988,54941.9224,-2569.4221,-2871.1259,23049.5632
52910.4173,25378.3464,51749.5573,39012.9089,34280.7323,36375.4034,4946.9322,49074.8137,44188.0971,54951.489,-2553.4183,-2854.4068,23054.2123
52916.3629,25386.8401,51754.9217,39019.2568,34289.3153,36380.3208,4955.6047,49078.9711,44197.2166,54961.4131,-2545.3717,-2849.713,23062.3484
52911.0432,25388.6282,51759.7049,39012.3278,34277.6477,36378.8903,4961.8185,49067.7506,44198.7365,54959.9826,-2550.1549,-2846.6731,23068.5174
52899.465,25390.8187,51762.7895,38999.2744,34264.2814,36376.2528,4960.9244,49061.0898,44197.1719,54960.7426,-2558.6486,-2851.7693,23071.7808
52910.3279,25390.2823,51768.0198,39007.8574,34282.1628,36381.6172,4970.4015,49085.9002,44215.2768,54975.5394,-2544.2988,-2834.335,23083.4484
52929.8633,25398.9995,51777.5416,39027.0352,34313.4105,36393.1507,4982.9185,49106.2403,44231.3254,54988.9058,-2524.6739,-2816.1854,23094.7584
52935.0042,25402.6204,51779.2851,39024.7554,34319.1773,36391.2731,4985.2878,49108.0731,44235.3487,54992.7503,-2525.0316,-2817.6606,23094.9819
52921.1909,25394.842,51780.4027,39006.5163,34293.1151,36383.45,4982.4268,49095.422,44215.5898,54989.8893,-2543.7623,-2830.1328,23087.3376
52895.4864,25384.8732,51777.1393,38989.9313,34271.6128,36369.3237,4975.453,49074.4561,44208.0796,54984.3013,-2560.2132,-2843.3204,23077.637
52894.5476,25386.0354,51773.0266,38987.6068,34274.3397,36366.1051,4971.4744,49079.9993,44209.4207,54981.0827,-2557.084,-2840.1911,23074.0607
52908.4951,25387.0189,51770.702,38992.5689,34292.3105,36372.2742,4969.5075,49103.6475,44221.6247,54988.2799,-2546.2657,-2831.2504,23074.8653
52908.6292,25382.7721,51769.2715,38995.9216,34293.2045,36372.4977,4971.6532,49106.8214,44229.4478,54993.0185,-2547.0257,-2831.4739,23074.0607
52898.1239,25376.603,51767.7069,38992.9712,34279.0782,36366.3733,4972.1897,49089.6553,44217.0203,54987.2965,-2557.6204,-2842.0687,23073.4795
52881.8071,25364.6225,51758.6768,38980.2754,34260.7051,36360.8748,4967.1829,49070.1646,44203.6092,54978.5346,-2569.8692,-2853.2892,23069.188
52888.9596,25367.7964,51757.6486,38987.6068,34278.7206,36366.1498,4969.8204,49087.6436,44219.0319,54984.3013,-2554.8935,-2841.5322,23074.2842
52897.9003,25365.1142,51753.7594,38995.6534,34295.6632,36370.7095,4967.1382,49111.4259,44229.9396,54988.2799,-2541.706,-2833.1727,23077.7711
52896.0228,25359.8839,51748.2162,38992.5241,34289.5836,36361.0089,4962.5784,49103.4687,44228.375,54983.9884,-2548.635,-2839.8782,23076.6088
52884.3552,25360.1968,51743.9693,38990.4678,34275.6808,36356.6726,4957.5716,49080.9828,44212.7287,54972.0973,-2555.2958,-2849.9365,23073.1666
52866.295,25356.8441,51741.0636,38985.2822,34260.3475,36357.2985,4958.4657,49071.6845,44199.1836,54962.1731,-2561.0179,-2856.9549,23069.8138
52870.5418,25356.9335,51740.6166,38983.7176,34265.8013,36358.0137,4952.0284,49083.0392,44202.134,54961.0555,-2559.5427,-2853.6022,23065.3435
52887.6632,25360.1968,51741.0636,38991.7642,34289.6283,36361.3665,4953.3248,49102.2617,44210.3148,54966.6435,-2552.7477,-2843.8568,23066.2376
52888.5126,25361.4932,51738.8731,38990.6019,34290.6117,36357.6114,4953.3248,49092.8292,44205.7997,54964.3189,-2552.3454,-2849.2212,23061.7225
52867.3679,25357.1123,51731.6759,38980.0072,34262.8062,36347.5978,4943.4453,49069.5387,44192.031,54951.5784,-2573.5348,-2869.7848,23047.0598
52855.0744,25355.6371,51728.5913,38976.4309,34245.64,36347.7319,4939.5114,49054.2501,44180.274,54946.7951,-2586.7224,-2883.8217,23038.6555
52872.4194,25361.4932,51731.5865,38984.5222,34261.5992,36354.5269,4942.1489,49073.562,44189.4382,54948.6279,-2572.6408,-2873.5846,23041.6954
52896.1122,25377.1842,51740.2142,38999.7214,34288.5107,36367.4909,4950.9555,49106.3297,44206.1126,54957.0322,-2562.0461,-2854.8092,23048.5797
52900.4931,25378.5253,51747.1433,39000.079,34289.6283,36372.2295,4954.2189,49111.9623,44216.3497,54962.6201,-2560.4814,-2853.1551,23053.8994
52889.6749,25376.5583,51751.4795,38995.9216,34274.3397,36377.3257,4958.6892,49101.3229,44208.3478,54962.0837,-2571.2997,-2859.9054,23056.1793
52889.8537,25388.5388,51759.9285,38996.6369,34273.6244,36385.3276,4968.2558,49097.8807,44201.1505,54966.6435,-2575.6359,-2859.6818,23061.5884
52908.2268,25406.152,51769.1374,39007.0528,34296.8255,36395.52,4978.8952,49110.0401,44215.9474,54978.8028,-2557.3075,-2843.0074,23074.9547
52926.1976,25416.4338,51767.2598,39019.9721,34319.7137,36399.4986,4979.4316,49133.7776,44237.1815,54988.1458,-2534.7322,-2830.1328,23081.2132
52924.7671,25423.7205,51773.5183,39020.4191,34321.8148,36399.2751,4980.5939,49135.6552,44239.5061,54990.7833,-2532.7653,-2830.3564,23086.5777
52915.4688,25416.2997,51774.0548,39013.7583,34302.4135,36393.9553,4977.6882,49120.3219,44226.4974,54987.7882,-2545.4611,-2841.0852,23080.9003
52900.672,25402.2181,51770.702,39003.0742,34283.1016,36388.1886,4971.0274,49101.5464,44223.5023,54981.3956,-2556.324,-2851.5011,23071.7361
52905.0529,25399.9829,51769.3609,39004.7282,34291.774,36387.4733,4968.2558,49114.5998,44230.8784,54980.5909,-2550.9596,-2851.6352,23069.9927
52926.1976,25412.7681,51773.876,39025.3812,34321.3677,36395.0282,4972.7261,49142.6736,44237.8521,54992.6162,-2532.7653,-2836.0784,23075.223
52930.3998,25414.4222,51773.4736,39027.4376,34325.7934,36393.5083,4970.8933,49140.6173,44236.8239,54990.1575,-2538.1297,-2834.782,23070.5291
52916.3182,25405.1238,51774.5912,39009.3327,34298.3007,36385.3276,4968.3452,49120.0536,44223.0999,54980.9933,-2552.9712,-2852.5293,23064.3153
52904.3823,25398.463,51775.3065,38999.8108,34277.2454,36380.4102,4968.971,49113.8846,44211.5217,54979.6522,-2563.3425,-2860.0842,23058.8615
52914.0383,25405.1685,51778.2122,39004.6388,34294.1433,36386.4899,4972.0556,49126.0439,44227.0786,54984.346,-2556.1005,-2849.8471,23064.0024
52932.5455,25404.4533,51777.3181,39014.6971,34316.1821,36389.8873,4969.6863,49148.3957,44235.4381,54988.9952,-2547.2939,-2841.1299,23064.8965
52930.3104,25400.117,51769.5844,39010.5844,34310.9965,36384.4335,4960.2985,49143.523,44231.5489,54984.1672,-2552.256,-2846.092,23058.5933
52916.6758,25392.8304,51764.3541,39002.8059,34290.2988,36375.4928,4955.0235,49117.0138,44228.0173,54977.3276,-2563.6107,-2860.4418,23055.5534
52905.2764,25389.9693,51767.081,38995.1169,34276.1278,36372.3636,4956.007,49103.1557,44216.6179,54976.1206,-2573.5348,-2872.467,23053.2736
52916.0053,25397.8372,51770.6573,39001.7331,34292.3105,36379.7843,4959.0915,49125.9545,44225.4692,54986.2236,-2562.5825,-2861.3359,23059.4426
52936.0324,25407.6719,51774.4124,39015.8147,34311.22,36392.1672,4965.5735,49150.2285,44240.579,54994.3596,-2547.1598,-2843.5439,23070.0821
52934.4678,25398.7312,51772.4007,39014.8759,34308.5378,36384.7911,4964.456,49150.6308,44244.2,54993.0632,-2550.5126,-2846.7625,23072.809
52921.4144,25390.5505,51776.1558,39005.4882,34295.9315,36378.935,4966.0206,49133.9564,44240.8919,54991.6774,-2564.3706,-2858.0725,23072.6302
52918.3298,25391.3999,51778.7486,39005.354,34284.1297,36384.3888,4968.3899,49127.7426,44231.5489,54991.0516,-2571.4785,-2860.3971,23074.1054
52931.7409,25397.3454,51781.7885,39008.3492,34300.5806,36383.3159,4971.3403,49144.9088,44242.2777,54999.0982,-2561.4202,-2847.2096,23078.3075
52942.3803,25402.084,51781.6097,39013.9371,34319.2667,36384.3441,4969.0604,49161.2256,44253.1854,55004.4179,-2546.8916,-2838.0007,23079.4698
52939.8322,25408.9236,51781.1626,39018.2734,34320.5631,36388.2333,4971.5191,49160.0186,44259.4886,55005.0437,-2544.5223,-2838.0454,23078.3969
52927.0917,25401.7264,51788.0917,39010.6291,34305.945,36390.9602,4976.8835,49143.7465,44248.8939,54999.6346,-2556.9946,-2847.3437,23074.7759
52918.911,25396.9878,51790.3268,39000.2578,34291.327,36392.346,4977.4647,49144.6853,44239.819,54992.9738,-2569.4221,-2859.7713,23069.5903
52940.5922,25412.2764,51795.4677,39010.7632,34308.7167,36400.8844,4984.4831,49172.4908,44255.4653,55000.7522,-2559.8109,-2849.9365,23072.4066
52962.7651,25424.5698,51799.2228,39032.3997,34332.3648,36407.4558,4990.831,49199.0,44269.5916,55012.0622,-2542.1977,-2829.9093,23075.0889
52960.5746,25428.3696,51799.3122,39033.4725,34337.0587,36409.8251,4992.038,49203.6939,44269.4575,55013.4033,-2538.8002,-2827.8977,23072.0043
52945.6437,25421.3512,51799.2228,39030.7456,34321.5019,36406.7852,4991.2781,49187.1536,44263.9142,55007.9495,-2550.0208,-2838.4924,23068.9198
52932.9479,25418.5796,51796.3171,39026.4988,34309.2084,36403.3431,4989.0429,49169.8086,44260.0697,55003.8815,-2559.2297,-2849.3553,23067.5787
52940.5922,25423.4523,51791.5785,39034.456,34321.2783,36407.9028,4990.2946,49188.8076,44265.1659,55005.9825,-2544.1647,-2843.0969,23072.9431
52952.528,25423.7205,51789.1645,39042.6815,34340.9032,36408.7075,4989.0429,49216.9261,44275.7159,55006.206,-2529.3678,-2831.5634,23076.5194
52952.6174,25419.0713,51789.3881,39039.1499,34334.4212,36401.4208,4986.0924,49217.4625,44273.2573,55006.3401,-2532.7206,-2836.5254,23076.877
52927.3599,25410.4435,51788.2258,39032.802,34316.9421,36397.9787,4976.7941,49192.7862,44260.7403,55001.4228,-2551.4066,-2845.645,23073.5689
52921.9061,25404.9003,51791.2656,39030.7903,34303.5311,36401.4208,4978.4482,49176.5589,44257.4769,54996.3713,-2561.4202,-2849.6683,23073.0772
52935.2725,25415.1821,51794.529,39040.044,34325.5252,36408.931,4986.9418,49185.9019,44269.9939,55005.312,-2544.9246,-2837.0172,23082.4202
52959.6359,25425.5086,51798.1052,39053.9467,34356.1023,36418.5423,4993.7367,49209.9971,44288.9035,55015.3255,-2531.2901,-2821.058,23086.9353
52962.8098,25426.5815,51801.458,39051.2198,34355.4318,36418.9893,4993.245,49223.1399,44290.5575,55017.2031,-2532.497,-2820.8792,23086.533
52947.8788,25424.2569,51806.0178,39036.9147,34331.5601,36411.1662,4995.0778,49212.8581,44279.8734,55012.688,-2545.9975,-2834.335,23086.6671
52944.1684,25428.9955,51809.9517,39029.7621,34318.8196,36414.4295,5001.6046,49197.8377,44275.1348,55011.5258,-2552.1666,-2836.0337,23087.6952
52960.4405,25430.6942,51807.2248,39037.1829,34338.3551,36415.7259,4999.6823,49205.3032,44286.8918,55016.4878,-2544.6117,-2829.8646,23085.4601
52968.3083,25436.2822,51807.3142,39046.8389,34353.8672,36422.5209,4999.1012,49230.0689,44300.5711,55024.9815,-2527.5797,-2816.1854,23088.3211
52967.5484,25434.0917,51803.425,39045.0954,34352.9731,36422.1185,4998.3412,49234.2263,44293.8656,55022.5228,-2535.7157,-2818.0629,23084.7001
52954.6738,25418.7584,51802.3521,39033.2043,34334.8235,36413.0884,4996.0166,49215.138,44281.9744,55017.6501,-2551.1831,-2831.7422,23081.8391
52945.4201,25411.9635,51799.9828,39020.9109,34314.3493,36409.0651,4991.8592,49195.379,44273.8831,55014.8338,-2564.0577,-2846.5837,23077.8158
52961.2899,25423.0499,51804.2743,39027.9293,34331.426,36415.9048,4995.5696,49211.4723,44285.5954,55023.5063,-2553.5077,-2835.3631,23083.5825
52977.4725,25422.1112,51804.0955,39036.2442,34351.1403,36415.3683,4994.9884,49228.6384,44300.437,55028.0213,-2539.5602,-2827.8977,23084.6554
52969.6047,25419.2054,51800.1169,39034.9925,34345.0159,36412.9096,4991.1886,49225.3751,44294.7596,55024.0427,-2540.2755,-2833.575,23085.8177
52952.7515,25412.9916,51802.2627,39029.9857,34324.8993,36408.5734,4991.2781,49209.1924,44289.2164,55020.7347,-2547.7409,-2845.1979,23083.7613
52947.5212,25403.2463,51801.8156,39021.2685,34309.8789,36400.3032,4987.4783,49197.1225,44285.1931,55011.034,-2553.8653,-2852.2611,23080.1851
52949.3988,25405.8391,51800.3404,39021.8496,34316.5398,36399.6327,4985.0643,49202.0398,44297.7995,55018.4101,-2548.2327,-2846.092,23081.1238
52964.7768,25414.9586,51798.5523,39033.7408,34341.8419,36409.6463,4984.5725,49217.999,44299.4982,55025.2944,-2534.5087,-2831.4292,23084.1637
52969.4706,25416.8808,51796.5406,39034.3666,34341.8866,36411.1662,4984.349,49229.3984,44291.1834,55022.9698,-2535.0004,-2827.5847,23087.2482
52965.492,25413.7069,51799.9828,39027.1693,34330.1296,36406.6958,4987.7465,49218.6695,44289.4846,55017.9183,-2547.0704,-2837.3301,23083.8954
52956.5513,25408.7448,51799.9381,39018.4522,34315.2434,36401.7785,4984.3043,49210.3994,44278.9793,55009.9611,-2560.4367,-2848.506,23075.4018
52965.5367,25413.4387,51802.7097,39022.9672,34328.0733,36410.7639,4986.6289,49231.41,44282.7791,55012.5539,-2552.8371,-2840.1464,23077.0111
52978.1431,25428.9508,51807.18,39040.6251,34357.9352,36417.1565,4994.1838,49255.3264,44295.6984,55022.3887,-2536.5204,-2825.1261,23079.0675
52967.8613,25429.2637,51808.1635,39039.9545,34359.9021,36413.1778,4994.6755,49257.5169,44294.1338,55021.7628,-2541.2589,-2827.4506,23073.9266
52957.0431,25429.9343,51810.3093,39027.6611,34334.6447,36410.7192,4994.8096,49244.5529,44291.3175,55021.6287,-2552.9712,-2840.8617,23074.6865
52948.0577,25428.5485,51810.8457,39022.5202,34315.6904,36408.1264,4994.0944,49223.1846,44288.1882,55015.9514,-2562.1355,-2848.193,23072.6302
52967.6378,25433.0635,51811.0693,39031.1033,34332.6777,36412.0603,4995.212,49237.9814,44299.0512,55022.0311,-2549.3056,-2840.5935,23078.3969
52989.2743,25440.7972,51811.4716,39048.4035,34355.7447,36421.8056,4996.7319,49266.7705,44310.4059,55028.2001,-2533.6146,-2826.5566,23086.6224
52993.387,25444.0606,51819.3841,39058.73,34363.1655,36431.7298,5001.5599,49282.9084,44310.9423,55032.7152,-2531.2006,-2825.6625,23093.5067
52969.7835,25433.4211,51814.869,39039.1499,34331.426,36417.38,4992.6639,49253.8065,44289.9317,55020.7347,-2555.2064,-2843.5439,23080.5874
52947.8788,25419.0713,51810.9351,39020.9109,34308.0014,36411.5685,4985.8242,49231.2759,44280.9016,55012.8669,-2569.3774,-2854.5409,23071.9149
52957.6689,25418.3114,51808.9682,39029.0022,34318.5514,36420.2857,4986.763,49251.5713,44293.7762,55016.7561,-2557.9333,-2846.8966,23073.4348
52968.5318,25418.8031,51804.1402,39037.6747,34338.3104,36421.7609,4983.0079,49267.3069,44306.1143,55024.3556,-2544.9246,-2835.989,23078.5757
52963.078,25412.5446,51801.7709,39040.8486,34335.9411,36418.7211,4980.5492,49259.5732,44300.7499,55023.6851,-2544.8799,-2837.1513,23078.0393
52944.1684,25407.806,51803.2014,39031.9973,34321.5913,36412.552,4980.3257,49244.1952,44287.473,55016.4431,-2560.4814,-2846.7178,23073.6583
52934.289,25402.3969,51795.9595,39019.9274,34300.4465,36407.0982,4976.9729,49232.9299,44279.2475,55012.8222,-2573.4901,-2857.0443,23067.5787
52950.1587,25405.3921,51797.4347,39028.1975,34317.0315,36407.9922,4977.9564,49242.72,44283.9861,55019.7065,-2563.7001,-2846.3602,23070.0374
52965.8943,25411.8294,51803.3803,39047.1518,34342.736,36416.173,4986.8524,49261.9425,44299.4088,55027.2614,-2539.7837,-2827.2718,23076.5194
52973.1363,25419.9654,51811.3822,39053.455,34349.2627,36422.4315,4994.3626,49272.2243,44309.6012,55032.6705,-2532.3182,-2823.7402,23084.3425
52962.7204,25412.6787,51813.7515,39042.9497,34329.9061,36421.2692,4995.6143,49263.5071,44302.4039,55027.2614,-2551.9431,-2836.7937,23081.1685
52950.7846,25413.1705,51809.8623,39033.3384,34311.6224,36415.7706,4992.2168,49245.7598,44292.4798,55023.2828,-2564.8177,-2843.231,23078.9781
52957.6242,25419.4289,51805.6601,39034.456,34321.7254,36416.3071,4993.692,49256.444,44297.7995,55025.8756,-2553.91,-2833.9773,23080.2298
52977.249,25426.8944,51810.9351,39052.1139,34343.6301,36423.6832,4998.6988,49282.1485,44315.7256,55032.8046,-2534.7322,-2820.6557,23091.3609
52978.0537,25433.4211,51814.1985,39052.5609,34345.5523,36423.9961,5000.0399,49282.2379,44322.0735,55035.0845,-2535.4475,-2817.4818,23094.4455
52958.1606,25427.2968,51814.1985,39039.2393,34328.2521,36416.9329,4996.419,49259.305,44312.9539,55032.5364,-2547.6068,-2830.9822,23088.4999
52946.2695,25418.9819,51814.0644,39032.042,34317.2997,36413.1778,4996.866,49245.894,44302.538,55027.1273,-2557.7545,-2842.6945,23087.1141
52957.2666,25422.7817,51815.8972,39040.1781,34324.3629,36410.0933,4998.1177,49258.7686,44306.6508,55030.2118,-2551.4066,-2834.3797,23091.3162
52978.8584,25436.5504,51820.9934,39053.6785,34343.5407,36420.6433,5001.8281,49277.3205,44324.5769,55035.1739,-2534.464,-2819.4934,23096.5465
52986.1897,25444.3288,51822.2004,39055.7796,34344.5241,36426.723,5001.1575,49285.0989,44323.6381,55033.9222,-2534.6428,-2819.0464,23091.5844
52970.6329,25439.7243,51821.8875,39044.5143,34328.6544,36423.2808,5000.7999,49273.8783,44315.502,55024.7133,-2543.9411,-2830.1328,23082.4202
52959.9041,25431.0071,51816.5231,39036.9594,34315.5563,36417.9164,4994.005,49257.5169,44299.4088,55018.3207,-2554.7594,-2844.1697,23076.4747
52973.8069,25433.6894,51818.1771,39046.0789,34328.3415,36421.0904,4999.9058,49272.4031,44306.1143,55025.2497,-2543.5835,-2834.2903,23081.3473
52985.2957,25441.6913,51818.1324,39054.215,34350.5591,36424.8008,5001.9175,49292.6091,44320.5088,55035.6209,-2528.7867,-2820.9686,23084.8342
52988.2014,25439.8137,51818.7582,39054.5726,34347.7428,36426.4548,4999.9058,49286.4847,44320.5535,55033.0728,-2529.9042,-2823.9191,23083.806
52966.4308,25430.4707,51816.6125,39043.7543,34325.9722,36423.3255,4997.4024,49264.3118,44311.7023,55022.2546,-2544.0305,-2834.1562,23081.392
52949.9799,25420.2336,51812.0527,39034.3219,34312.0694,36417.6035,4993.6473,49249.649,44299.23,55017.6054,-2556.2793,-2840.9511,23079.3804
52969.9624,25416.7467,51812.1868,39039.0158,34323.9158,36420.2857,4991.9486,49270.0785,44296.369,55020.9582,-2549.7526,-2835.4973,23079.3357
52982.524,25421.7088,51816.2996,39051.5774,34348.3239,36427.93,4997.0448,49293.0114,44314.7868,55032.4023,-2534.5981,-2822.265,23088.1423
52981.2276,25425.151,51818.2665,39055.1537,34349.8439,36430.9251,4998.6541,49303.8297,44322.0288,55038.1243,-2534.4193,-2822.1756,23092.4785
52961.7816,25421.2171,51812.1421,39041.2509,34328.1627,36421.1798,4992.9768,49288.7199,44307.9472,55035.0845,-2551.8984,-2835.4973,23084.2531
52951.6339,25425.0616,51812.2762,39033.8749,34311.8906,36422.208,4994.005,49274.3254,44310.3164,55032.4917,-2560.0344,-2838.9841,23082.3308
52970.9011,25433.4211,51815.629,39045.8107,34329.1909,36433.6967,4996.5531,49298.5994,44323.8616,55038.6608,-2546.6233,-2826.1095,23088.3658
52985.9215,25435.9692,51817.9983,39056.8078,34347.9663,36432.4003,4995.7037,49321.8452,44330.6118,55044.2487,-2535.0004,-2816.7218,23089.5281
52981.7641,25427.2521,51818.6688,39053.4103,34343.4066,36426.0077,4992.3956,49310.714,44326.9014,55040.7618,-2541.0354,-2820.8792,23085.0577
52961.6922,25416.2103,51815.7631,39042.2344,34327.0451,36418.1846,4989.3558,49284.6966,44311.6128,55032.1341,-2551.0043,-2834.7373,23080.4533
52944.0343,25410.1306,51813.8856,39036.0206,34319.7584,36412.6414,4988.6405,49262.7025,44303.4768,55027.8872,-2559.3638,-2844.125,23076.43
52950.4269,25411.1141,51811.4716,39034.5454,34324.6311,36410.4509,4988.1488,49261.7637,44307.6342,55027.8872,-2554.6253,-2839.1182,23077.1005
52973.4939,25422.6476,51812.1421,39045.1401,34341.6184,36415.0107,4990.4287,49283.7131,44318.1843,55032.1341,-2539.8284,-2825.3496,23080.8556
52977.1596,25426.2239,51810.7116,39046.1236,34335.2258,36413.5355,4988.417,49292.922,44312.0599,55028.9154,-2542.0189,-2828.8364,23080.0062
52964.0615,25421.0383,51804.9896,39037.4959,34316.808,36408.6181,4984.349,49276.8288,44300.6605,55024.9815,-2554.2676,-2843.0969,23074.9547
52958.1159,25417.4173,51802.665,39030.7009,34300.1336,36409.1545,4984.6172,49256.444,44295.5196,55024.0427,-2564.8624,-2854.8539,23071.2891
52966.5202,25427.2074,51799.6699,39037.63,34317.3444,36416.7094,4985.0643,49267.6198,44295.9666,55020.1535,-2558.7827,-2847.5672,23069.9927
52983.6416,25438.2044,51804.6767,39052.8738,34342.0655,36428.9582,4988.5064,49292.1174,44311.747,55026.3226,-2540.7672,-2832.0998,23077.5476
52984.5357,25437.2209,51808.387,39050.9963,34340.6796,36431.1486,4985.6007,49290.3739,44312.5516,55025.965,-2539.0238,-2834.9608,23080.3192
52973.941,25430.9624,51802.3968,39036.7359,34314.7963,36422.0291,4976.8835,49271.0173,44298.3806,55017.7842,-2558.8274,-2850.5623,23073.0772
52966.7437,25431.8118,51800.2957,39034.1878,34300.8935,36420.1069,4976.7941,49256.4887,44292.1668,55010.3635,-2564.9071,-2856.5526,23069.3668
52971.0352,25431.9012,51801.6815,39033.6961,34306.7497,36422.1185,4976.66,49264.7588,44296.7266,55013.1351,-2556.2346,-2846.1367,23074.5524
52980.423,25434.1811,51804.319,39036.0653,34326.911,36423.4596,4976.5706,49284.2048,44305.4885,55017.9631,-2541.2142,-2839.3865,23078.7098
52976.8914,25427.1179,51806.5095,39036.9147,34323.7817,36420.5539,4975.8554,49287.7364,44304.0133,55017.069,-2540.7225,-2842.0687,23079.9168
52958.2947,25412.3211,51801.9944,39019.7486,34302.9052,36411.1662,4972.7261,49270.8832,44287.3389,55007.5471,-2558.6039,-2852.6187,23072.9878
52941.5756,25406.5096,51805.1237,39012.8642,34288.3766,36409.7804,4976.9729,49247.0562,44275.7607,55006.9213,-2570.495,-2857.6255,23070.6185
52950.7846,25413.081,51811.6951,39019.8827,34305.051,36414.8766,4984.796,49259.9308,44287.6965,55013.3586,-2558.0227,-2843.231,23077.324
52966.1626,25426.0451,51817.6407,39031.0138,34331.0684,36418.7658,4992.5745,49290.1057,44302.2251,55022.0758,-2540.2308,-2827.6294,23085.0577
52950.3375,25417.8643,51812.4551,39021.5367,34326.3298,36407.3217,4989.2664,49279.0639,44288.9035,55016.5325,-2547.9198,-2836.2572,23075.3124
52943.6767,25415.6739,51817.1042,39009.0197,34307.465,36402.0467,4992.7533,49257.8745,44280.3204,55013.6268,-2559.3191,-2849.9812,23073.1666
52930.4445,25416.0315,51818.8477,39003.0742,34291.5058,36396.414,4994.005,49231.3206,44267.5352,55010.9446,-2568.081,-2857.3573,23071.0208
52931.5174,25424.6593,51816.1207,39007.1869,34309.0743,36399.7668,4995.6143,49225.5092,44263.8248,55011.794,-2559.0062,-2847.8801,23075.1336
52941.8439,25430.0684,51814.5114,39017.6922,34339.1597,36401.9573,4999.5035,49234.3605,44265.1212,55015.1467,-2545.8187,-2835.8549,23080.8109
52936.0324,25428.2355,51815.4949,39018.2734,34341.7525,36397.621,5004.4656,49229.6666,44260.4274,55012.2857,-2540.2308,-2831.3845,23084.3872
52920.9226,25435.1199,51820.0099,39012.3725,34330.979,36396.8611,5011.6628,49214.1098,44246.7481,55014.3421,-2549.082,-2834.5585,23087.4717
52907.9586,25434.1364,51823.0945,39008.4833,34316.0927,36398.2916,5010.7241,49191.311,44235.1252,55014.7444,-2561.3308,-2841.2193,23084.3872
52921.2356,25445.044,51827.6095,39019.4356,34326.8216,36404.4607,5015.5967,49200.7881,44243.3059,55016.1749,-2545.9081,-2830.3564,23090.288
52937.2394,25454.5659,51826.939,39031.1927,34346.357,36415.6365,5019.933,49214.2439,44252.1125,55021.6734,-2528.742,-2815.4254,23094.2219
52933.8866,25451.526,51823.765,39028.9575,34343.183,36414.0719,5018.8154,49198.2847,44244.0659,55021.0923,-2528.0267,-2821.2816,23094.3114
52916.4076,25448.218,51822.6475,39017.1558,34322.7088,36407.1429,5016.8484,49171.418,44233.3817,55013.3139,-2539.4708,-2833.1727,23092.0762
52904.6953,25449.0674,51823.9886,39013.3113,34304.738,36405.2206,5018.7707,49151.5249,44223.8599,55012.3751,-2546.8469,-2836.9725,23092.702
52912.7866,25453.6271,51824.078,39020.4638,34320.3396,36408.4393,5018.3237,49152.8213,44226.2292,55011.8387,-2541.5272,-2829.0153,23093.5067
52927.8517,25454.4318,51821.7534,39028.421,34342.1996,36411.9262,5017.8766,49168.6016,44233.5606,55008.0836,-2531.8712,-2819.7169,23094.2219
52926.6894,25449.9614,51818.6688,39025.3812,34332.4542,36408.484,5018.1448,49164.9806,44227.4362,55004.8649,-2534.7769,-2823.7849,23092.6126
52905.9023,25443.1665,51817.5513,39016.977,34312.8741,36402.896,5016.4461,49143.8359,44215.3662,54997.9806,-2544.3882,-2837.0172,23086.0859
52896.0675,25438.6961,51817.283,39015.7253,34299.3289,36403.1196,5013.1381,49131.6766,44209.7336,54992.9738,-2547.9645,-2843.4545,23085.3707
52909.7021,25441.9148,51814.7349,39026.2753,34305.7662,36405.5783,5012.9592,49139.6785,44218.8978,54995.6113,-2534.8663,-2835.1843,23088.1423
52934.1996,25448.665,51817.9536,39039.731,34319.1326,36409.4228,5014.8815,49150.9885,44228.1514,55000.931,-2520.9188,-2822.1756,23089.081
52926.0635,25446.8769,51819.9205,39041.2062,34318.5961,36409.7357,5011.1264,49144.5512,44225.0669,55000.037,-2523.0199,-2823.6061,23086.4882
52907.7351,25443.5688,51819.5629,39029.8069,34299.3289,36406.5617,5007.5948,49123.3617,44213.2652,54995.7454,-2537.5485,-2836.0337,23082.7332
52902.326,25437.7574,51818.7582,39024.6212,34285.4261,36401.1079,5007.8183,49096.9867,44203.9669,54990.6939,-2547.3386,-2842.2028,23081.6603
52920.3862,25435.7457,51818.49,39033.0702,34305.5874,36402.7172,5006.6113,49104.8098,44211.2088,54994.002,-2537.0121,-2834.2456,23084.9236
52932.0091,25438.4279,51813.7068,39035.7077,34325.4358,36405.6677,5002.141,49114.5551,44216.7073,54993.2867,-2529.9042,-2828.2106,23083.5825
52933.9314,25439.8137,51813.1703,39034.6795,34323.8711,36402.4937,5002.2304,49117.5503,44209.6889,54994.4937,-2529.3678,-2831.0269,23083.4484
52923.9178,25435.701,51809.0576,39023.1907,34300.4018,36391.5414,4998.7882,49089.0741,44193.238,54987.2965,-2544.1647,-2842.8733,23076.6982
52915.3347,25430.1578,51809.8176,39016.8875,34280.017,36385.0147,4993.7814,49076.8254,44187.1583,54984.7037,-2552.3007,-2851.9928,23072.9431
52931.875,25436.9974,51815.0032,39028.1081,34299.5971,36396.6376,5001.6493,49090.5493,44201.1505,54994.8066,-2538.7555,-2841.3087,23079.7827
52951.5445,25440.7972,51814.7796,39037.1382,34314.3493,36398.381,4998.4306,49105.1674,44210.27,54998.6064,-2524.9422,-2828.747,23081.5262
52953.3774,25438.875,51813.3044,39035.3501,34309.8342,36392.1225,4995.7484,49102.4852,44204.0563,55000.9757,-2528.4737,-2832.0551,23081.705
52934.1996,25430.4707,51811.561,39021.8496,34285.8285,36384.7911,4993.5579,49083.9332,44200.8376,54997.0865,-2544.9246,-2845.4661,23078.531
52919.7156,25427.8332,51808.0741,39014.0712,34274.3397,36383.003,4992.8874,49069.494,44201.9999,54992.348,-2556.8604,-2852.6187,23077.1005
52941.9333,25442.4959,51816.0313,39030.9244,34299.8654,36397.3975,5002.9457,49090.4599,44220.2836,55002.4956,-2540.4543,-2831.0269,23089.9751
52961.1558,25446.1616,51814.8243,39033.1149,34319.7584,36400.9738,4999.0118,49114.0634,44226.0951,55005.4908,-2530.7983,-2827.3612,23087.4717
52952.7515,25441.1995,51809.5493,39025.0683,34310.7283,36399.1857,4996.419,49113.9293,44223.1894,55003.7473,-2537.1015,-2832.5021,23083.5825
52940.6816,25431.0519,51810.0411,39018.2734,34291.9976,36395.0729,4996.7319,49098.6854,44214.204,55002.5403,-2548.8138,-2840.8617,23082.1967
52928.4775,25421.5747,51807.0012,39008.3045,34275.5467,36394.1342,4993.9603,49086.2578,44204.7715,54998.83,-2555.564,-2850.2494,23074.5524
52942.6038,25428.1908,51807.8953,39015.2782,34286.7672,36397.7998,4997.5365,49103.4687,44215.8133,55003.8815,-2542.5553,-2840.9064,23078.1734
52966.3861,25442.0489,51813.975,39034.5901,34317.4338,36406.4723,5007.2819,49131.766,44229.2243,55016.3984,-2523.5564,-2820.2534,23087.9188
52964.3744,25437.3103,51817.0595,39037.4959,34317.5679,36402.449,5011.3052,49122.5123,44232.2642,55017.516,-2519.3989,-2815.5595,23088.8128
52944.6602,25422.9158,51813.3044,39022.9672,34297.9431,36392.8378,5004.6444,49093.0974,44218.6743,55007.5471,-2542.913,-2833.7538,23084.2084
52935.9877,25415.2715,51814.0644,39013.2666,34278.4524,36383.0477,5003.5715,49085.9002,44210.3148,55003.8815,-2556.6369,-2845.1085,23083.4037
52947.2977,25424.3016,51819.8311,39022.699,34295.4844,36392.7037,5007.2819,49100.5182,44225.4692,55012.1516,-2537.1909,-2830.3117,23086.22
52967.0566,25436.8633,51821.1722,39033.5619,34314.9751,36403.2984,5006.8349,49114.9575,44240.3108,55017.4266,-2520.6953,-2818.644,23092.1209
52963.2568,25436.2375,51817.1042,39032.4444,34315.3328,36402.449,5003.348,49112.8564,44236.7345,55014.0738,-2523.4669,-2821.9074,23088.7234
52941.1286,25436.6845,51817.1042,39027.9293,34298.2113,36399.7668,5001.0234,49107.5814,44229.4478,55012.1516,-2533.5699,-2831.8316,23086.3988
52930.0869,25429.9343,51814.0197,39013.3113,34279.3018,36394.6706,4995.1226,49102.664,44219.479,55002.0933,-2554.5359,-2847.8801,23078.4416
52951.0975,25437.3103,51819.25,39020.2403,34295.6632,36408.6181,4998.6541,49117.4161,44233.0688,55007.1448,-2541.9295,-2832.7256,23082.6437
52968.8001,25445.2676,51820.1441,39033.1596,34313.6787,36408.931,4998.6541,49138.1139,44249.6091,55013.0457,-2526.1492,-2823.6955,23087.0247
52966.0732,25448.0392,51818.2665,39035.3054,34314.1705,36406.5617,4997.0001,49150.9885,44252.2466,55014.208,-2530.7536,-2829.6411,23084.3872
52946.7613,25444.15,51814.6455,39028.5552,34296.9149,36406.1594,4992.6192,49138.3374,44236.8239,55008.4859,-2546.6233,-2841.4428,23076.9664
52943.3638,25443.2559,51815.5396,39030.1198,34287.9742,36411.1662,4992.1721,49124.524,44233.0241,55006.0272,-2550.9149,-2842.5157,23078.3522
52963.4804,25443.3006,51811.9186,39034.5454,34298.3454,36417.2459,4989.8475,49127.9662,44239.6402,55007.3236,-2541.706,-2831.2057,23080.5427
52977.9196,25446.6534,51809.2811,39038.9711,34318.909,36419.3022,4986.8077,49147.0098,44253.9901,55009.6035,-2531.7371,-2823.6955,23082.8226
52966.0285,25446.6087,51809.907,39043.1732,34320.4737,36425.4713,4984.3043,49150.452,44251.889,55008.4859,-2532.4076,-2824.232,23081.0344
52945.599,25437.2209,51813.215,39033.249,34299.8207,36422.6103,4980.4151,49143.0312,44243.5294,55003.2556,-2542.5553,-2837.2854,23076.2064
52938.6699,25431.9906,51812.6339,39025.6494,34289.5389,36412.3285,4983.142,49134.2247,44239.0591,55002.7639,-2554.2229,-2847.5225,23077.2346
52959.9041,25442.6748,51817.5513,39033.8749,34309.3425,36418.0058,4991.8592,49153.4024,44251.129,55015.9961,-2540.5437,-2832.4127,23086.3988
52978.7689,25458.6786,51823.8544,39048.8505,34337.5057,36425.9183,4998.0283,49184.2926,44264.7189,55022.2546,-2522.0364,-2818.644,23094.669
52975.9079,25466.5017,51827.1178,39054.7067,34346.4911,36430.7016,5006.6113,49193.4121,44272.3185,55023.6404,-2518.9966,-2813.1455,23098.5582
52960.9323,25459.975,51826.4472,39041.0274,34332.7671,36417.3353,5003.7056,49174.8154,44265.7918,55019.17,-2536.1627,-2823.7402,23092.1656
52948.4153,25453.3142,51827.4307,39029.941,34315.0198,36408.4393,4999.5482,49152.5084,44257.3875,55014.5656,-2548.635,-2832.1445,23086.9353
52956.2384,25455.9517,51823.765,39031.7738,34322.2618,36411.5685,4998.6541,49162.2537,44261.0532,55015.5938,-2539.4261,-2827.4506,23086.3988
52974.2539,25463.5513,51821.7981,39041.2956,34347.7428,36414.966,5002.6774,49183.4432,44273.3914,55022.8804,-2520.6506,-2815.4701,23090.1539
52974.5221,25460.2432,51821.0828,39041.698,34346.0888,36414.966,5002.9457,49184.7396,44272.989,55022.791,-2523.0199,-2818.1523,23089.4834
52959.8147,25454.9682,51819.6523,39033.4278,34320.9207,36405.8465,5002.9457,49163.9972,44258.4604,55020.1535,-2536.4757,-2827.1377,23086.22
52952.1257,25450.2743,51818.3559,39027.3482,34308.7614,36409.6016,5005.1808,49154.073,44251.3525,55018.9465,-2540.9013,-2832.9492,23087.6952
52956.0149,25449.2015,51818.6241,39034.1431,34324.6311,36417.1565,5008.3101,49173.2061,44265.5683,55028.2449,-2533.0335,-2822.9356,23091.8527
52972.2422,25456.1305,51821.7534,39044.3802,34348.5028,36420.8221,5011.3499,49196.0496,44275.3583,55034.6375,-2521.9917,-2809.7034,23095.5631
52982.6134,25461.0032,51822.6027,39045.8554,34347.6534,36421.9397,5016.5355,49195.0661,44278.3087,55038.8843,-2518.6837,-2808.1387,23096.3677
52975.7738,25458.9915,51821.3511,39038.837,34328.7438,36418.6317,5015.3285,49167.8864,44272.1844,55038.3925,-2528.0267,-2818.1523,23097.7088
52967.9954,25455.7282,51823.0051,39034.7242,34328.565,36420.0175,5018.4578,49159.6609,44269.3233,55039.4207,-2536.0286,-2824.1426,23101.6874
52975.1033,25460.3326,51824.3462,39034.009,34338.5339,36421.6268,5019.3965,49174.7707,44280.3204,55041.9688,-2525.2551,-2815.4701,23103.8779
52979.663,25458.9021,51819.2947,39038.0323,34347.3852,36418.3635,5014.658,49189.8358,44288.5458,55039.9572,-2519.6671,-2811.3574,23101.8662
52973.4492,25454.7447,51819.5629,39040.3569,34348.1004,36420.5539,5014.7474,49191.0875,44287.92,55038.929,-2521.6341,-2810.508,23101.2851
52953.0197,25446.9216,51815.9866,39022.0731,34323.1559,36410.898,5004.9126,49172.8932,44269.5916,55028.5578,-2544.9246,-2827.4059,23090.8692
52948.1024,25444.9099,51817.3724,39012.6407,34304.6039,36405.5336,5004.9126,49155.0118,44257.0299,55024.8474,-2554.8041,-2836.1231,23086.8012
52961.424,25441.6913,51818.5794,39025.3812,34326.8216,36410.2274,5009.2489,49172.312,44264.7636,55028.4684,-2543.807,-2825.886,23092.9703
52981.8088,25440.3055,51814.7796,39034.3219,34344.5688,36414.519,5008.7124,49186.3489,44279.2922,55033.2963,-2531.2006,-2815.2913,23094.8478
52979.8865,25442.8983,51813.0809,39034.0984,34342.736,36414.8766,5011.8417,49181.7445,44281.4827,55032.3129,-2531.8265,-2818.2864,23094.4902
52961.6475,25431.3201,51809.5046,39022.6096,34329.2803,36410.6745,5005.4938,49164.0866,44266.1047,55025.6968,-2545.014,-2832.4127,23086.7118
52947.7894,25429.3084,51813.6173,39019.7039,34314.2599,36414.6978,5005.4044,49152.1508,44262.7519,55023.8639,-2554.4465,-2838.2242,23086.8906
52952.1257,25431.8118,51812.8127,39024.0848,34322.1724,36418.0505,5004.7338,49162.6114,44263.0649,55023.1934,-2545.7293,-2833.3515,23089.1705
52966.4755,25436.1033,51812.1868,39031.5503,34343.0936,36419.4363,5006.1196,49174.9048,44268.2505,55029.9883,-2532.4523,-2822.6674,23092.6573
52968.8448,25433.287,51814.0197,39029.3151,34345.7311,36416.3518,5006.6113,49182.2362,44266.6858,55033.4305,-2534.5534,-2819.7616,23094.4455
52952.6621,25426.7156,51813.7068,39021.5814,34327.7603,36412.3732,5001.4257,49168.4675,44257.5216,55025.3391,-2549.082,-2832.5468,23088.8128
52938.0441,25419.2054,51818.6241,39018.8098,34312.427,36409.4675,5002.2304,49157.8728,44256.9852,55021.6734,-2558.4251,-2835.989,23089.7516
52950.114,25427.4309,51818.7582,39024.6212,34328.2521,36414.206,5002.9457,49168.1546,44268.474,55030.793,-2546.5339,-2824.6343,23093.462
52967.9954,25436.5504,51818.0877,39038.3452,34345.7311,36421.6715,5007.6842,49192.7862,44279.784,55038.6608,-2531.3348,-2813.1455,23099.0052
52976.8914,25438.4726,51820.457,39044.2908,34348.5028,36424.7113,5011.8864,49206.4655,44276.2077,55034.4139,-2528.9208,-2812.7879,23096.5912
52964.7321,25434.1364,51824.078,39037.5853,34334.0188,36423.9961,5016.8037,49185.589,44275.1795,55036.3809,-2537.2803,-2819.9404,23095.3395
52949.8905,25433.1082,51819.9205,39024.9789,34312.4717,36415.1448,5013.8086,49161.5832,44267.8928,55029.9436,-2546.8469,-2834.2903,23087.6505
52964.1956,25447.5474,51822.2004,39036.2889,34336.3434,36421.4033,5015.865,49179.3305,44270.4409,55031.2847,-2538.7555,-2826.2883,23091.7186
52979.6183,25445.6252,51821.664,39049.1188,34355.5659,36424.4878,5013.451,49196.0496,44279.471,55037.3644,-2530.3513,-2812.3856,23093.7749
52977.4725,25442.5406,51820.3229,39039.5075,34346.7146,36421.1351,5012.1099,49190.104,44275.1348,55038.8843,-2533.4358,-2816.0512,23091.9421
52958.563,25439.4561,51817.9089,39026.4094,34327.2686,36416.62,5010.6347,49168.6016,44266.4176,55037.5879,-2549.4397,-2828.747,23088.2317
52944.1237,25433.287,51815.629,39017.3346,34308.2696,36411.792,5005.1808,49162.2537,44256.4487,55032.7152,-2564.2812,-2840.2358,23082.912
52962.4522,25443.3453,51816.9701,39021.8496,34315.1093,36416.62,5006.8796,49181.3421,44272.4973,55037.722,-2554.0441,-2831.161,23087.2929
52982.1664,25449.4697,51818.6688,39031.2821,34339.2044,36421.1798,5006.8796,49204.3644,44289.4846,55043.1311,-2539.9178,-2821.3263,23092.6573
52983.8651,25447.771,51819.8758,39034.5454,34345.6417,36417.2906,5006.4772,49200.6093,44280.991,55041.2089,-2538.532,-2820.611,23092.8361
52968.7554,25440.2161,51818.8477,39026.0518,34329.4591,36414.6531,4999.5035,49175.7989,44268.2952,55037.4985,-2549.1714,-2833.1727,23086.6224
52957.2219,25442.3618,51820.6358,39025.8729,34315.4669,36419.4363,5002.8563,49167.6182,44266.5964,55036.4256,-2554.1782,-2839.0288,23088.2764
52967.3249,25443.1218,51818.1771,39027.3929,34328.9673,36419.3916,4999.9058,49178.7493,44275.1795,55038.0349,-2544.9693,-2831.3845,23089.6175
52980.6018,25448.4415,51820.2335,39033.1596,34350.0674,36420.9563,4999.0118,49200.2517,44287.6518,55047.065,-2529.7701,-2816.4983,23093.1938
52978.1431,25450.0061,51820.1888,39036.0653,34351.9896,36420.3304,5001.8728,49209.5947,44291.0492,55052.3847,-2527.8479,-2817.0794,23093.9984
52955.9255,25439.5455,51814.8243,39025.7835,34324.0947,36408.8863,4998.6988,49193.5462,44287.2494,55045.9027,-2541.9742,-2833.6197,23086.0412
52948.4153,25434.5387,51812.4104,39012.9536,34307.1073,36397.3975,4996.0166,49173.8319,44278.577,55042.1029,-2557.4863,-2847.1202,23081.4815
52960.1276,25441.8254,51812.8127,39016.4852,34318.6855,36404.5054,4994.9437,49193.9038,44289.4846,55043.6676,-2549.3056,-2839.8782,23084.9683
52976.2208,25452.1966,51815.5396,39029.1363,34343.7195,36413.0884,5003.2586,49219.1613,44302.7616,55045.858,-2535.4028,-2825.3496,23092.2103
52968.9342,25444.0159,51808.8341,39024.6212,34344.8371,36406.9194,5001.5599,49208.4324,44292.4351,55041.2089,-2540.0519,-2829.507,23087.9188
52952.0363,25433.5105,51805.0343,39015.5464,34324.944,36404.9524,4996.866,49199.9388,44280.1863,55035.4868,-2553.7312,-2838.4924,23081.3026
52942.7826,25426.3133,51804.6319,39004.3259,34304.0675,36402.9855,4994.9884,49181.1186,44268.3399,55032.894,-2562.1355,-2846.8966,23075.1783
52949.7564,25424.1228,51807.0012,39013.5795,34321.6807,36406.9641,4997.3577,49193.9932,44279.7393,55040.1807,-2551.049,-2838.4924,23077.0111
52958.9206,25433.287,51808.7447,39027.2141,34338.1763,36411.792,4994.7649,49215.3168,44293.642,55044.4275,-2537.9062,-2827.54,23080.5427
52955.1655,25439.5902,51810.8904,39031.1927,34342.3337,36416.0389,4997.5812,49217.8202,44294.7149,55048.3614,-2535.0004,-2825.7966,23081.1238
52941.6203,25428.8167,51808.8788,39020.0615,34328.118,36409.3781,4996.7319,49197.1225,44286.1319,55040.4936,-2551.7642,-2837.8665,23074.5077
52931.115,25417.8196,51804.8108,39009.3327,34312.1588,36399.2751,4988.9088,49176.5589,44278.3087,55037.0067,-2565.9353,-2848.193,23068.2045
52947.4765,25423.7205,51805.7048,39017.6922,34323.29,36405.6677,4989.4005,49188.9864,44286.6683,55046.8415,-2553.8653,-2838.0454,23074.2842
52962.1392,25430.6495,51805.6601,39031.8185,34341.4396,36417.0223,4995.1226,49207.1807,44300.7052,55050.9095,-2536.4757,-2825.1261,23078.7545
52962.5863,25434.0023,51807.8506,39037.2723,34337.8633,36419.5704,4996.5978,49214.7803,44301.7781,55049.8813,-2539.1579,-2824.9025,23079.8274
52946.046,25425.7768,51810.6222,39028.0187,34321.2783,36411.3897,4994.452,49200.5199,44289.4846,55042.0135,-2551.049,-2837.7324,23078.7545
52936.7924,25418.669,51810.7563,39019.5698,34312.2929,36408.5734,4996.2401,49202.7998,44279.471,55037.3644,-2562.4484,-2846.092,23078.084
52948.5494,25429.5319,51816.3443,39026.0518,34333.2589,36418.5423,5005.1361,49219.1166,44291.1386,55044.8298,-2545.2822,-2833.7985,23086.4882
52974.7903,25438.2938,51817.5066,39035.8865,34364.9536,36425.6501,5008.0419,49244.8211,44308.126,55051.4013,-2524.8975,-2819.7169,23092.0762
52979.9759,25445.1334,51826.0449,39043.9332,34366.3841,36430.5675,5013.7639,49244.8658,44313.6245,55055.8716,-2520.74,-2812.8773,23094.3114
52970.1859,25447.6815,51829.9788,39040.7145,34339.5621,36429.4946,5014.1215,49231.6782,44303.4321,55052.2953,-2533.2123,-2821.9521,23094.1772
52958.4736,25440.976,51827.0284,39034.456,34323.6923,36423.9514,5010.4111,49227.2079,44295.7431,55045.0981,-2544.1647,-2831.1163,23089.6175
52973.3151,25436.461,51824.2568,39039.5075,34340.8138,36429.9864,5012.7357,49238.9202,44310.5847,55044.9193,-2533.8829,-2819.0464,23091.1821
52985.5192,25443.9265,51819.2947,39046.7495,34351.4085,36430.791,5010.3217,49253.6724,44323.9063,55047.9591,-2524.0034,-2808.8093,23089.7516
52983.1499,25438.562,51815.7631,39039.5969,34345.8205,36425.8289,5008.9359,49244.8211,44314.5186,55043.1311,-2530.396,-2815.5595,23088.0976
52967.8166,25431.7671,51817.1936,39032.355,34328.1627,36419.5257,5004.2868,49216.9261,44298.2018,55039.2866,-2545.4611,-2831.921,23083.1355
52952.528,25429.5319,51817.7748,39027.3929,34318.9538,36416.0389,5000.0846,49202.5316,44290.5575,55035.4421,-2554.7594,-2838.5818,23080.3639
52962.3181,25428.9508,51820.9487,39032.802,34331.6942,36421.448,5001.0234,49218.2672,44297.576,55039.2866,-2544.4776,-2827.1377,23085.6836
52979.7971,25425.0616,51820.1888,39039.5075,34347.2958,36419.3916,4998.9223,49240.5295,44313.7139,55046.3498,-2533.6593,-2815.6042,23089.4387
52974.6562,25421.6194,51813.7068,39037.4959,34343.0042,36409.2886,4994.1391,49237.6238,44315.1891,55047.1991,-2537.3697,-2822.6674,23087.1588
52956.3278,25410.1306,51812.0527,39026.6329,34320.1607,36406.6958,4992.2168,49218.3566,44298.1571,55039.1078,-2551.8984,-2839.0735,23078.2181
52947.0742,25409.4154,51815.3161,39020.6873,34304.1122,36404.416,4989.3558,49202.4422,44288.68,55035.7997,-2565.8458,-2850.4729,23074.6418
52965.7602,25420.7253,51815.4949,39027.8399,34324.5864,36407.9922,4989.7581,49222.6034,44301.4205,55040.8512,-2554.9829,-2838.9841,23078.084
52982.6134,25422.3347,51816.5231,39039.9992,34347.9663,36416.3965,4991.0098,49242.4965,44309.6906,55044.0699,-2531.4242,-2827.9424,23085.326
52981.63,25424.1675,51815.2714,39042.7262,34345.5076,36419.7046,4993.4238,49242.5859,44312.9092,55045.6345,-2531.4242,-2829.5517,23087.1588
52961.5581,25422.3794,51813.0362,39034.3219,34329.772,36415.1448,4992.485,49228.102,44306.8743,55040.1807,-2545.7293,-2836.749,23085.013
52948.0577,25418.4455,51813.3938,39027.3929,34318.5067,36410.7192,4990.4287,49215.7638,44302.8957,55038.9737,-2553.4183,-2842.1134,23082.6885
52951.0975,25418.222,51810.8904,39029.5833,34325.4805,36411.4344,4984.6172,49231.9018,44305.4438,55039.7336,-2548.5009,-2834.8267,23079.1122
52960.217,25425.4639,51810.4881,39040.3122,34341.3502,36418.6764,4986.9418,49253.8065,44311.1211,55044.7851,-2535.1346,-2824.1873,23081.4368
52963.7039,25424.704,51810.7116,39039.0158,34340.2326,36418.274,4990.2052,49256.1758,44308.7965,55043.444,-2535.8051,-2827.7636,23084.9236
52951.7233,25416.7914,51809.5046,39025.6941,34321.1889,36408.6628,4982.0244,49241.8259,44305.8908,55036.2021,-2550.6467,-2840.8617,23078.084
52941.1733,25418.3114,51807.6271,39015.457,34306.8391,36408.8416,4976.3024,49221.9776,44293.5526,55032.3576,-2560.7049,-2850.92,23074.016
52954.2267,25421.6194,51806.1966,39017.4687,34323.4688,36412.5073,4979.9681,49235.5675,44298.6488,55032.5364,-2550.1996,-2842.8733,23076.0276
52973.8069,25426.2686,51806.8224,39028.4657,34337.3269,36414.6531,4981.9797,49255.8628,44317.8713,55038.1243,-2540.0519,-2832.5915,23078.4416
52974.2092,25422.6029,51806.5989,39029.4492,34334.7788,36417.1565,4980.3257,49250.4537,44316.7537,55042.4606,-2542.3318,-2835.8996,23075.3124
52962.0051,25412.8575,51807.3589,39017.3793,34314.5728,36411.1215,4977.1965,49233.3323,44309.8694,55037.8561,-2554.2229,-2850.8753,23070.5291
52942.5144,25406.4202,51804.1402,39005.3988,34302.2794,36405.3547,4971.2062,49218.1331,44302.1357,55026.3673,-2566.8293,-2859.9501,23064.4494
52956.9983,25413.9751,51805.4813,39012.7748,34313.8576,36408.931,4973.8437,49230.1136,44301.7781,55029.7201,-2558.3357,-2846.0473,23067.3105
52983.6416,25424.0334,51810.1752,39025.6494,34332.4989,36414.5637,4979.6551,49241.4683,44318.4078,55041.0748,-2545.5058,-2830.5352,23077.324
52982.3005,25417.9537,51808.8788,39023.9507,34328.3862,36415.5918,4979.9234,49247.0562,44314.608,55041.2983,-2544.8352,-2835.542,23073.6136
52970.9905,25415.2268,51810.8904,39018.6757,34310.2366,36413.312,4982.5162,49238.3838,44300.7946,55033.5646,-2554.1782,-2848.9977,23071.7361
52956.6854,25410.1753,51813.4385,39015.6806,34301.9217,36410.585,4982.0244,49222.1564,44290.4681,55032.7152,-2562.9401,-2853.1551,23074.4183
52971.3035,25415.8974,51816.9701,39027.974,34325.9722,36420.9563,4988.6405,49245.2681,44309.2436,55041.03,-2544.4776,-2839.9676,23081.6603
52986.6368,25422.1112,51814.9585,39041.2509,34349.8886,36427.8406,4988.0147,49268.2904,44321.9841,55047.3332,-2526.2833,-2825.0813,23083.4931
52987.9332,25423.0052,51815.629,39040.044,34351.185,36426.0077,4986.763,49268.6033,44328.6002,55048.4508,-2531.6477,-2825.1261,23081.7944
52965.9837,25417.3279,51815.7184,39036.2442,34336.5222,36419.8834,4984.7066,49253.0912,44321.6264,55041.4324,-2546.2657,-2836.0784,23078.2181
52947.8788,25410.533,51811.2481,39032.2655,34319.7584,36411.1662,4983.6338,49241.6918,44307.5448,55036.7832,-2560.8838,-2847.5672,23077.7711
52956.1937,25414.3327,51809.4152,39034.9478,34329.5485,36411.3897,4985.2431,49250.4984,44311.7917,55041.79,-2553.0607,-2840.6382,23077.3687
52975.8185,25419.5184,51811.8739,39045.9895,34349.8886,36418.4082,4989.8475,49274.5936,44323.4146,55049.1214,-2537.9062,-2826.6907,23082.1967
52974.1645,25417.6408,51809.4599,39043.9332,34348.4133,36412.6414,4987.2994,49277.4993,44318.0948,55045.411,-2540.0966,-2826.6907,23078.7992
52961.5134,25416.7467,51809.2364,39030.6562,34320.3396,36399.1857,4979.9234,49258.7239,44306.2037,55034.7716,-2558.4251,-2840.7723,23070.4397
52948.4153,25410.0859,51804.1402,39021.6261,34300.3124,36396.9058,4973.5308,49237.6685,44296.7713,55027.9766,-2570.9867,-2853.1998,23063.2424
52955.8361,25409.1471,51799.5358,39024.7554,34317.1209,36403.8348,4973.6649,49250.7666,44302.9851,55030.793,-2562.6719,-2847.8801,23067.5787
52971.3482,25416.4338,51797.9711,39032.0867,34341.1714,36409.5569,4973.3967,49277.544,44319.3018,55038.482,-2547.3386,-2834.2903,23070.7526
52965.3132,25423.4076,51799.1781,39035.1266,34339.6068,36411.8367,4974.0225,49286.1718,44317.6925,55036.4256,-2548.4115,-2835.6314,23068.2492
52943.7214,25413.8857,51797.1665,39027.0799,34316.1374,36405.8465,4968.6134,49260.2438,44312.5069,55025.8756,-2566.9187,-2850.8753,23060.4708
52937.8206,25407.8507,51801.6368,39024.4424,34296.7808,36405.2653,4971.7426,49246.9668,44309.02,55024.4451,-2570.5844,-2853.4681,23064.0024
52956.596,25410.3094,51801.5921,39035.1713,34310.2813,36409.2886,4974.7825,49259.4838,44318.9442,55028.9154,-2559.0062,-2839.9676,23066.6846
52974.5221,25415.6739,51806.0178,39050.4599,34336.701,36415.2789,4982.5609,49281.2544,44336.2445,55040.3148,-2541.3483,-2822.3097,23076.6535
52976.1314,25412.8128,51806.286,39050.2363,34334.8682,36414.966,4982.8738,49282.2826,44337.7644,55043.0864,-2542.8683,-2822.4438,23079.4698
52955.5231,25411.6058,51808.5212,39041.7427,34316.0927,36409.6463,4979.4316,49271.9114,44331.1483,55042.55,-2553.5971,-2834.8267,23076.7429
52942.2909,25412.8575,51808.5212,39031.9973,34303.1734,36408.7969,4979.521,49258.7239,44313.1328,55040.5383,-2561.3308,-2843.5886,23073.9713
52957.7136,25416.6573,51811.6057,39040.938,34324.5864,36416.7541,4987.2994,49269.855,44326.4544,55047.1544,-2549.9761,-2828.6129,23080.2298
52971.527,25421.3512,51817.3277,39050.5046,34344.5688,36423.7726,4992.2615,49300.164,44347.1968,55053.6811,-2533.3911,-2815.6042,23084.8342
52974.2092,25426.9838,51817.1936,39048.18,34339.3385,36424.9796,4993.3791,49307.0036,44346.1239,55052.3847,-2537.6379,-2822.1756,23083.4037
52960.6193,25421.2618,51813.3938,39039.9992,34318.8643,36413.2226,4989.9817,49288.4964,44330.9695,55049.0767,-2553.2842,-2833.4856,23077.7711
52951.6786,25413.3046,51814.1538,39035.4842,34308.7167,36408.7969,4987.7018,49273.6995,44321.4476,55047.6015,-2557.5757,-2843.6333,23075.7594
52954.495,25412.6787,51811.5163,39038.2111,34315.4222,36409.8251,4983.5443,49271.1961,44328.1531,55047.3779,-2549.9314,-2837.8665,23076.117
52971.974,25421.8876,51811.6504,39046.3471,34331.3366,36414.8319,4982.5162,49283.4896,44333.3834,55050.4625,-2539.8731,-2829.0153,23076.7876
52981.9429,25425.1063,51809.5046,39051.041,34333.3036,36410.9427,4983.0526,49289.4351,44332.9811,55049.6578,-2542.0189,-2831.6975,23075.2677
52961.2899,25418.4455,51806.1072,39040.5357,34305.051,36398.381,4979.2528,49272.6713,44323.4593,55044.7851,-2558.4251,-2846.3602,23071.602
52943.8555,25408.3425,51800.1616,39027.8846,34288.5107,36392.1225,4971.2956,49243.48,44308.3942,55037.5432,-2574.4289,-2856.7314,23064.0471
52959.0547,25408.4319,51799.8487,39036.6018,34311.2648,36401.8679,4970.8486,49261.4955,44313.848,55042.1029,-2563.0295,-2847.4778,23068.4727
52966.1179,25406.1073,51795.9148,39039.5522,34326.0169,36403.8348,4966.4229,49279.6451,44317.3349,55038.6161,-2550.5573,-2840.1017,23072.5408
52965.2685,25401.324,51800.2063,39040.5357,34325.1675,36407.4111,4966.2888,49277.4546,44316.3514,55037.5879,-2549.4397,-2838.7159,23074.3736
52956.0149,25393.7691,51801.4133,39037.4064,34304.3804,36408.1264,4966.2441,49255.5946,44310.7635,55034.9951,-2557.2181,-2846.7178,23071.9596
52936.9712,25383.9344,51797.1218,39026.767,34292.8022,36400.9738,4961.4608,49239.3672,44305.1755,55033.1175,-2564.9965,-2854.2727,23068.9198
52951.6339,25387.6448,51794.976,39029.7621,34309.1637,36407.4558,4963.249,49257.0698,44317.0667,55037.3197,-2554.1335,-2844.2144,23070.2609
52963.078,25390.0588,51793.4561,39036.6018,34324.4523,36415.2789,4961.5949,49272.5819,44320.2853,55036.2021,-2544.1647,-2832.4574,23073.2113
52963.4356,25393.0539,51789.6116,39032.355,34320.5631,36417.9611,4961.1032,49277.0523,44315.1444,55030.8377,-2547.8303,-2834.2903,23072.7196
52950.9187,25385.9013,51786.3929,39022.1179,34309.6554,36411.0768,4959.2257,49262.5237,44302.4039,55021.9417,-2560.2132,-2847.3437,23067.0422
52931.5174,25374.0549,51783.3084,39017.1111,34291.774,36407.6793,4956.8564,49250.0067,44288.1882,55018.8571,-2570.4056,-2853.5128,23064.8071
52939.2958,25374.0996,51785.1412,39023.1013,34306.3921,36415.9495,4961.0138,49264.4012,44299.5429,55022.4334,-2557.3522,-2842.3369,23069.5009
52954.8526,25373.6526,51782.5484,39026.4988,34324.8546,36413.3567,4962.936,49287.1106,44309.4224,55024.0874,-2547.6962,-2835.7655,23070.3056
52945.6437,25367.7517,51776.1558,39019.6145,34316.0033,36402.0467,4958.6445,49283.7131,44306.7849,55019.4383,-2554.8488,-2842.2028,23065.6564
52920.3415,25369.6293,51782.4143,39015.01,34295.9762,36394.6706,4961.1926,49266.4576,44291.3622,55012.9563,-2568.8857,-2851.814,23063.0636
52906.0811,25367.4388,51781.4755,38999.5426,34274.1162,36385.7746,4957.974,49246.1622,44275.6265,55006.9213,-2580.3298,-2864.8674,23060.7837
52912.7419,25367.0365,51778.6145,39003.253,34284.9344,36386.8922,4959.5386,49251.5713,44284.0308,55013.7162,-2573.3113,-2860.2183,23061.9013
52924.0072,25377.1842,51776.3793,39012.0149,34310.8177,36389.038,4961.729,49264.3118,44290.2446,55017.6948,-2559.3191,-2849.713,23064.1365
52919.9839,25379.3299,51773.1607,39006.1587,34311.6671,36381.4831,4964.5007,49258.5897,44281.885,55013.0457,-2560.3473,-2851.2776,23062.4378
52898.0345,25376.2007,51771.9984,38993.6417,34294.8586,36376.6551,4964.5454,49238.5626,44262.9755,55004.1944,-2576.53,-2860.6206,23058.1909
52879.6166,25368.8693,51765.5611,38984.701,34278.2289,36370.7095,4959.0021,49205.1244,44248.0892,54994.5831,-2591.3715,-2874.8363,23053.3183
52885.4281,25373.0267,51759.6602,38989.9313,34286.6331,36369.3684,4955.56,49198.9106,44244.1553,55001.6016,-2577.1111,-2867.4603,23054.7488
52893.7429,25375.6195,51755.4134,38994.6699,34303.4863,36369.5472,4954.5318,49200.654,44239.819,55006.7872,-2565.7117,-2858.296,23054.257
52888.6467,25378.3911,51758.2744,38993.8653,34304.9616,36369.5472,4956.0964,49190.9981,44234.4546,55002.7639,-2568.3045,-2858.5196,23054.4806
52870.5865,25372.0433,51757.738,38978.8002,34286.1861,36363.1994,4953.8612,49160.1527,44222.1165,54997.7571,-2584.3531,-2870.9918,23051.843
52857.5778,25371.5962,51758.9897,38973.2122,34279.7041,36360.4724,4958.421,49141.1984,44215.5004,54991.0069,-2585.7389,-2873.5846,23055.017
52876.7109,25381.2522,51759.8391,38985.9527,34295.5291,36371.4695,4963.6066,49154.1624,44225.4245,54997.7571,-2560.8838,-2857.7149,23063.913
52887.7079,25388.2259,51756.1734,38994.0888,34308.9849,36373.1235,4961.5949,49154.3859,44222.9658,55000.6628,-2553.0607,-2847.5225,23062.2143
52878.3649,25387.8236,51755.8157,38990.5572,34303.3522,36369.9943,4957.661,49137.8903,44210.9853,54996.0583,-2557.978,-2851.6799,23057.878
52861.1094,25382.8168,51759.2579,38990.0655,34291.327,36376.7892,4962.1314,49119.4725,44200.5694,54992.4821,-2564.9518,-2856.5526,23061.2308
52844.0326,25376.6477,51756.3075,38981.2142,34267.1871,36369.5472,4959.3598,49096.2267,44184.9679,54985.553,-2579.2122,-2869.2931,23054.0335
52850.7382,25375.5748,51754.0723,38981.2589,34270.7634,36369.3237,4954.2189,49106.9108,44195.9202,54987.1624,-2570.2268,-2866.8791,23055.1064
52871.5253,25380.224,51757.8274,38990.1996,34297.809,36374.1517,4956.2752,49120.1431,44209.376,54990.9621,-2557.4416,-2855.9715,23060.2026
52865.4903,25379.017,51758.3638,38990.9148,34294.188,36371.5142,4956.9458,49113.5269,44206.1126,54987.1624,-2558.4251,-2855.9268,23057.2522
52844.8373,25375.1725,51755.8604,38980.1413,34265.3543,36362.1712,4953.7718,49085.0508,44189.0359,54976.7911,-2573.0878,-2869.3378,23049.6079
52835.7625,25359.9286,51752.0607,38964.9868,34240.2309,36353.5434,4947.7369,49054.2948,44177.0554,54964.7212,-2591.8633,-2885.744,23039.9519
52856.9072,25367.26,51758.7215,38977.1909,34264.5943,36358.9525,4953.7718,49065.0237,44186.2643,54971.4714,-2578.8099,-2873.7634,23046.121
52871.8829,25374.189,51758.498,38987.9197,34285.292,36358.9525,4952.0731,49080.5805,44191.5393,54972.2314,-2564.9071,-2862.4535,23049.2502
52870.0501,25375.2172,51758.9897,38984.4775,34283.6827,36354.5716,4952.9225,49069.5387,44187.5607,54969.5939,-2568.5728,-2866.8344,23046.121
52856.1026,25368.467,51757.4251,38971.8711,34258.4252,36346.7932,4951.939,49046.427,44175.5801,54963.5589,-2583.0567,-2878.502,23042.6788
52845.0608,25362.1191,51755.8157,38961.6787,34242.1085,36340.8476,4951.9837,49027.3386,44168.8746,54959.7144,-2589.2705,-2882.6147,23044.2435
52862.8528,25365.7848,51758.4532,38971.5582,34250.3786,36347.6425,4953.1013,49040.5709,44178.7988,54968.1187,-2573.4007,-2870.5001,23050.0549
52888.4232,25372.8926,51763.6836,38985.5057,34270.5399,36356.7621,4955.2023,49057.4241,44196.1437,54981.0827,-2556.5475,-2856.2397,23057.6992
52896.2016,25379.4193,51771.8196,38989.2608,34270.1375,36363.8252,4962.1314,49061.4474,44207.5431,54989.6657,-2551.049,-2848.3719,23065.7011
52883.9529,25377.0053,51775.3959,38977.8167,34254.1784,36360.5171,4963.1149,49051.0315,44196.2779,54987.5647,-2564.5494,-2857.6255,23066.6846
52876.9791,25374.0996,51775.7535,38966.4173,34250.0657,36356.0468,4959.0915,49038.6486,44188.4547,54985.4189,-2575.1889,-2865.7168,23063.8683
52891.5524,25377.5418,51771.3726,38972.8546,34264.5943,36355.2421,4958.7339,49036.5028,44194.9368,54987.8329,-2564.3259,-2854.7198,23064.0471
52906.0364,25382.0121,51772.4901,38982.6447,34272.7304,36358.1479,4959.0468,49044.5942,44206.5597,54996.0583,-2551.8984,-2844.1697,23064.36
52906.7069,25388.4047,51773.4289,38982.1529,34269.4223,36360.4724,4958.1528,49053.3113,44208.2137,54999.724,-2552.1666,-2843.9909,23065.1647
52894.0111,25385.5884,51774.0101,38974.1063,34252.435,36355.5998,4957.661,49036.2346,44200.3906,54994.0467,-2565.22,-2856.0609,23063.7789
52887.7079,25380.3581,51772.1325,38969.8595,34234.8665,36355.4657,4954.6659,49022.8683,44196.1884,54991.588,-2578.5416,-2866.7897,23060.4261
52901.9237,25391.1763,51774.1442,38977.1909,34256.9947,36363.9146,4956.8564,49042.3143,44205.6209,54997.9359,-2569.6456,-2859.4136,23060.9179
52921.0567,25401.0111,51778.3463,38987.4727,34288.6448,36372.3636,4961.9079,49086.079,44223.5023,55007.5024,-2549.5291,-2845.1085,23068.4727
52925.2142,25404.2298,51779.0616,38988.7691,34286.1861,36370.039,4962.7572,49094.1256,44226.0951,55006.1613,-2548.6797,-2842.6051,23067.4446
52908.048,25393.1433,51779.1063,38982.6894,34269.1541,36358.4608,4961.8185,49068.2423,44216.0368,54997.31,-2565.4882,-2855.4797,23060.6496
52895.3075,25383.2638,51777.9887,38973.3464,34258.6488,36346.525,4960.6115,49057.3347,44212.2817,54991.7221,-2577.0217,-2868.3543,23057.7439
52913.5019,25390.327,51781.6991,38986.8468,34270.4058,36353.901,4967.8087,49074.5008,44224.4411,54999.1876,-2560.7944,-2854.4068,23062.5719
52923.3813,25392.6963,51783.1296,39001.4201,34296.3338,36363.1099,4972.0109,49087.733,44231.8171,55004.6414,-2545.0587,-2839.61,23069.635
52919.8945,25392.4727,51783.5766,39000.392,34294.5009,36366.418,4972.5026,49093.6786,44232.8006,55007.9942,-2547.9645,-2840.057,23071.9149
52905.4552,25385.9013,51777.9887,38987.0703,34265.1308,36365.5686,4967.0488,49071.0586,44221.0436,55005.1332,-2564.2365,-2854.7198,23062.4378
52897.5874,25386.9295,51778.391,38981.7953,34251.3174,36372.9447,4967.8534,49062.7438,44211.5664,55001.6016,-2570.9867,-2863.3028,23063.2871
52907.4222,25396.4961,51781.7438,38991.8983,34276.1278,36369.7708,4968.971,49086.0343,44217.0203,55006.6531,-2561.2414,-2853.2445,23068.1151
52927.2705,25402.7992,51779.6427,39001.6884,34302.5029,36373.3917,4970.2227,49109.1907,44232.9347,55007.9942,-2545.9975,-2843.8568,23067.5787
52929.1928,25409.9071,51785.1412,39010.182,34304.3804,36375.6269,4975.3189,49120.7242,44237.8074,55007.3236,-2543.5835,-2842.2028,23071.9596
52915.9158,25411.5164,51788.047,39007.1869,34287.8401,36377.5045,4977.42,49109.6824,44227.8385,55004.9096,-2555.7876,-2850.16,23068.741
52914.7983,25414.9586,51790.2821,39007.2763,34280.4641,36384.0759,4980.3704,49103.9157,44217.512,55002.9874,-2563.8342,-2856.6867,23066.5058
52931.7856,25428.9955,51793.5008,39018.5416,34293.9645,36398.5151,4983.902,49122.8253,44235.9298,55010.0058,-2550.5126,-2840.4146,23072.7643
52949.1305,25438.6961,51793.4114,39028.2869,34314.7069,36407.3664,4983.0973,49133.8223,44255.7782,55019.1253,-2536.2074,-2824.0979,23075.7594
52952.4386,25442.3618,51796.0042,39032.042,34315.8245,36413.0884,4982.1585,49146.4734,44251.2184,55020.3323,-2535.4028,-2828.7023,23073.256
52936.8818,25429.6213,51794.6184,39024.5318,34296.5573,36409.6016,4977.6882,49125.9992,44236.6451,55012.4645,-2548.8138,-2845.5555,23068.2492
52932.2326,25423.944,51796.1383,39016.4852,34276.0831,36409.0204,4978.4034,49118.802,44235.3934,55009.4247,-2556.1899,-2849.7577,23067.7128
52940.5028,25429.666,51797.3453,39018.7204,34285.9179,36415.0107,4980.0128,49141.7348,44252.5148,55014.2527,-2547.2492,-2839.1182,23071.155
52952.4833,25430.426,51797.7923,39028.2869,34311.6671,36421.9844,4982.3821,49167.9311,44269.5022,55019.3042,-2537.2356,-2828.7917,23075.5359
52950.2928,25430.9177,51795.8701,39025.2471,34318.909,36419.3022,4980.1469,49168.691,44265.8812,55015.9514,-2537.6379,-2831.2504,23075.4465
52940.9498,25428.3696,51797.5241,39019.1674,34302.2794,36414.966,4979.9234,49153.4024,44256.8511,55012.5986,-2547.6515,-2841.8899,23073.8372
52936.703,25424.4357,51799.0887,39012.149,34287.4378,36412.2391,4981.041,49142.316,44253.9006,55010.4976,-2554.4465,-2849.4,23074.9547
52946.3142,25425.9557,51792.6961,39012.5513,34299.9101,36407.1429,4978.5376,49159.6609,44261.0085,55014.6997,-2548.2327,-2843.8568,23071.7361
52960.6193,25427.2521,51793.9478,39017.2452,34318.2832,36406.3382,4974.9613,49175.6648,44271.8714,55021.0923,-2542.8236,-2834.2456,23072.9878
52957.7136,25422.5582,51795.9595,39010.942,34312.5612,36402.2255,4972.9049,49170.4345,44262.2155,55016.309,-2551.4066,-2835.0502,23070.842
52936.2112,25415.7186,51791.0868,38998.6038,34295.3503,36393.2401,4972.9049,49149.6921,44248.3127,55013.6268,-2564.3259,-2843.5439,23064.7177
52923.0237,25414.2433,51789.8351,38989.082,34284.5321,36385.7746,4974.0225,49144.2829,44241.1602,55013.6268,-2572.8643,-2854.3621,23064.5388
52941.0392,25424.0781,51791.1762,38993.7758,34300.8488,36387.5628,4978.0011,49157.2469,44253.9006,55018.9465,-2562.7613,-2846.539,23067.3552
52964.3744,25433.3764,51792.0256,39005.7117,34322.9771,36394.1789,4980.5492,49174.4131,44269.0998,55027.5743,-2547.5174,-2834.0667,23072.9878
52965.8049,25434.9858,51793.6796,39007.4551,34320.7866,36394.0448,4982.5162,49176.4694,44268.5187,55028.379,-2548.1433,-2833.9326,23076.2064
52948.0129,25433.7341,51797.9264,38998.6932,34302.2346,36393.0613,4986.5842,49157.9622,44257.7451,55030.1224,-2556.5475,-2840.8617,23075.4465
52937.91,25422.1559,51797.7476,38993.597,34287.259,36387.3392,4985.0643,49142.8077,44250.9949,55024.7133,-2562.8954,-2850.0259,23073.9266
52955.0761,25425.8215,51798.9993,38998.4697,34301.8323,36391.452,4982.695,49162.4773,44266.0153,55028.5578,-2550.7361,-2839.7888,23077.6817
52968.0401,25434.8516,51799.6252,39006.7399,34325.0781,36398.7386,4983.3655,49177.9447,44271.5585,55032.9834,-2537.7721,-2831.0269,23080.8556
52962.8545,25433.6894,51795.3336,39006.6952,34319.2667,36396.6376,4980.4151,49180.4928,44263.199,55025.6073,-2541.1248,-2835.1843,23076.5194
52949.4882,25426.4921,51796.2277,39000.9284,34303.2628,36389.7085,4979.1187,49165.0254,44254.4818,55021.6287,-2553.4183,-2846.6284,23072.9878
52930.221,25415.8527,51794.529,38994.5358,34287.6166,36386.4899,4975.2742,49142.0925,44246.7034,55015.0573,-2559.5874,-2854.8986,23069.7691
52933.2161,25416.4338,51795.1548,38998.425,34296.4679,36389.932,4974.7825,49148.6639,44246.1222,55016.2196,-2552.0772,-2852.574,23071.5573
52948.0129,25415.6739,51792.0256,38995.1169,34315.2881,36386.8028,4969.3286,49161.6726,44253.9454,55017.2478,-2549.5291,-2848.193,23066.5058
52946.0013,25408.9236,51787.9128,38990.5572,34309.3872,36377.281,4968.3452,49147.5016,44254.75,55015.9067,-2556.1452,-2850.1153,23062.4378
