FC3,FCz,FC4,C5,C3,C1,Cz,C2,C4,C6,CP3,CPz,CP4
52760.2136,25266.9901,51656.9763,38802.3108,34162.9833,36208.123,4906.7885,48952.9073,44144.6453,54977.3723,-2730.2206,-2973.0499,22902.9804
52772.373,25267.8841,51656.6187,38811.6539,34182.3399,36211.3863,4907.8166,48971.7722,44159.5763,54979.4286,-2716.2284,-2959.3259,22906.2885
52778.6314,25271.6839,51655.1435,38824.1708,34196.4215,36217.2872,4908.5766,48989.1171,44171.7803,54982.3344,-2708.8523,-2951.0558,22911.34
52770.4954,25270.4769,51653.3107,38820.4157,34184.3963,36219.5224,4908.6213,48982.4563,44161.9456,54977.3276,-2715.6919,-2960.8458,22908.926
52750.6918,25261.4021,51655.5011,38812.4585,34163.028,36211.4757,4907.9508,48959.434,44149.3392,54966.4646,-2731.1146,-2974.838,22899.9853
52745.0591,25255.9483,51658.1833,38802.7132,34158.96,36208.6147,4909.2025,48948.9287,44153.139,54973.9301,-2732.7687,-2975.5086,22899.9853
52767.0979,25263.5479,51662.0278,38811.2962,34186.9444,36216.4825,4909.873,48966.1396,44165.8348,54981.1721,-2719.7599,-2964.2433,22902.2652
52780.9113,25268.5547,51662.8772,38818.5829,34198.2991,36218.3601,4910.8118,48985.4068,44167.3547,54982.8708,-2710.8639,-2955.7943,22905.2603
52769.8249,25258.6752,51660.2397,38812.8161,34183.234,36214.292,4906.9226,48972.8004,44157.5199,54974.9136,-2720.0729,-2966.7914,22902.2652
52750.0212,25250.6286,51661.5808,38806.9153,34165.5314,36214.2026,4905.9838,48945.5312,44148.5792,54971.5608,-2730.5335,-2977.4755,22899.4042
52742.6004,25254.2049,51663.4136,38809.0163,34158.8259,36211.9675,4910.0965,48940.3009,44147.864,54971.9185,-2725.7502,-2978.4143,22900.2982
52754.1786,25258.1835,51664.3077,38814.0231,34172.5945,36219.3435,4909.3813,48961.8927,44159.5763,54977.0594,-2714.7084,-2968.1772,22900.7006
52769.6908,25259.3905,51670.1639,38826.3613,34194.7675,36226.7196,4910.1412,48978.1648,44173.6579,54984.9719,-2705.4101,-2958.1189,22906.512
52761.5547,25257.6917,51672.4437,38823.0979,34183.234,36223.188,4909.0683,48962.0715,44169.0981,54984.0778,-2716.3625,-2962.4552,22907.9425
52748.3672,25256.6636,51669.4933,38812.1903,34161.7316,36220.4611,4909.7836,48947.5876,44162.2138,54977.8193,-2725.1691,-2970.8594,22906.8249
52747.7413,25252.6402,51667.0793,38810.3575,34155.2496,36217.8683,4906.6097,48948.884,44164.2702,54972.7231,-2728.1642,-2971.0382,22905.4838
52761.3312,25252.5508,51665.6935,38818.4041,34174.8744,36218.1365,4906.252,48969.0006,44169.4558,54972.6337,-2718.1506,-2963.1704,22904.5004
52771.613,25257.0212,51663.9501,38825.9143,34181.5352,36221.5787,4905.2238,48972.4874,44173.8814,54972.3655,-2709.7464,-2956.1967,22905.7074
52769.4225,25258.7646,51663.9054,38824.9308,34179.613,36216.706,4907.9508,48955.5895,44167.6676,54967.9846,-2715.1555,-2957.2248,22906.1544
52758.7384,25254.9648,51666.5429,38820.2369,34169.063,36217.8236,4911.84,48945.263,44159.0846,54968.4316,-2723.515,-2965.8526,22906.1097
52758.0678,25257.96,51667.3476,38817.063,34165.1738,36218.8965,4913.7622,48945.6654,44154.8377,54970.488,-2727.4042,-2966.1208,22906.0203
52778.4526,25269.717,51666.0959,38827.166,34185.9609,36222.0705,4911.527,48967.8383,44173.5238,54974.7348,-2713.2332,-2954.9897,22907.1379
52789.3603,25271.2369,51668.1969,38835.7043,34193.4264,36226.5408,4907.5037,48984.1104,44178.3965,54979.2945,-2703.8008,-2950.8322,22909.7754
52781.3137,25265.7384,51668.4204,38824.5285,34181.6694,36223.4563,4904.4192,48966.8995,44164.4937,54973.1255,-2715.5131,-2958.2083,22903.8745
52764.0134,25254.8307,51666.8558,38813.9784,34165.5761,36214.5603,4899.6806,48951.1192,44155.3742,54965.8835,-2732.6792,-2971.7535,22897.7501
52758.0678,25252.5955,51666.7217,38817.51,34167.7219,36219.4777,4903.6145,48952.1027,44157.8329,54966.8223,-2735.1826,-2969.116,22897.4819
52775.4128,25261.0892,51665.5147,38823.9473,34181.1329,36226.2279,4903.2122,48969.8946,44169.5452,54973.3937,-2725.6161,-2960.9799,22901.1029
52791.6402,25264.6208,51668.8675,38831.2787,34197.3156,36230.43,4906.5202,48988.8936,44180.0505,54984.346,-2714.0379,-2955.3473,22906.2885
52777.5586,25259.9269,51665.2018,38819.164,34182.6528,36222.2493,4900.5747,48976.6449,44174.552,54983.4073,-2719.8046,-2962.9022,22901.5499
52757.2185,25258.4964,51663.6819,38805.2166,34157.5295,36214.8732,4899.7253,48964.262,44159.2634,54972.9466,-2737.3284,-2976.8944,22895.8279
52761.0183,25255.1436,51663.6819,38808.167,34160.4799,36217.5107,4901.9158,48963.8597,44161.4985,54972.6337,-2742.6928,-2979.6213,22895.3809
52770.1825,25257.96,51666.0959,38814.649,34179.613,36219.5671,4906.0732,48983.4398,44177.4577,54980.4121,-2727.4489,-2965.5397,22900.4771
52783.7723,25267.8841,51668.6887,38822.5615,34198.6567,36226.9431,4909.6048,48998.4602,44185.3702,54986.6706,-2715.379,-2953.0227,22902.3546
52781.1348,25265.5596,51667.0793,38814.9172,34191.7276,36224.708,4909.426,48986.0326,44179.4246,54984.659,-2722.9339,-2960.1753,22897.929
52760.0795,25254.8754,51665.7382,38807.0047,34167.0513,36215.3649,4909.7836,48962.7421,44168.6511,54979.1604,-2737.4625,-2976.5368,22893.3692
52759.856,25258.6305,51666.23,38814.9619,34169.063,36220.327,4909.6942,48959.6128,44176.4295,54982.3791,-2731.0699,-2974.4357,22898.376
52772.9988,25262.3856,51665.7829,38825.3331,34190.9677,36224.4397,4906.0732,48978.7012,44189.2594,54987.4306,-2718.9106,-2960.1306,22904.0086
52778.1844,25263.9502,51665.1124,38830.1164,34204.2893,36223.6798,4905.2238,48995.1968,44191.8969,54987.3412,-2712.1156,-2954.0062,22904.098
52770.1825,25263.9949,51664.0842,38823.3662,34197.0026,36220.1929,4905.358,49002.0365,44188.0077,54981.7085,-2716.7201,-2961.1588,22902.0864
52752.7481,25257.6023,51661.7596,38809.374,34169.8676,36211.2075,4900.5747,48988.8936,44170.8863,54972.0973,-2731.7852,-2979.9789,22893.3245
52753.5528,25254.3837,51666.5429,38808.7481,34158.6471,36210.4028,4897.4007,48985.9879,44168.1594,54977.864,-2735.4062,-2982.2141,22896.3643
52766.9638,25256.8424,51663.056,38819.2534,34176.2155,36210.2687,4893.0645,48994.7945,44181.9727,54979.831,-2727.8513,-2971.7535,22899.6277
52774.7422,25256.1718,51657.781,38824.6179,34192.13,36213.3086,4890.9187,49004.5846,44187.6501,54981.2168,-2720.5199,-2963.0363,22895.9173
52768.7967,25255.1883,51657.4681,38822.2039,34184.6645,36209.017,4891.8575,48994.7051,44182.5986,54975.3606,-2726.0631,-2970.6359,22891.4469
52751.3623,25248.304,51655.2329,38806.5577,34147.4712,36203.2503,4887.3425,48970.2076,44167.5335,54968.7445,-2744.5704,-2987.9361,22886.2613
52748.099,25244.0125,51652.1931,38801.2826,34141.7491,36201.8198,4884.9732,48964.1279,44165.343,54969.9068,-2752.3488,-2991.1548,22883.2215
52772.7306,25249.1087,51653.1765,38819.7452,34169.3759,36210.4475,4891.7234,48987.3737,44176.9212,54978.6687,-2738.7142,-2979.666,22884.652
52783.9065,25256.753,51655.1882,38827.9706,34190.163,36218.0918,4896.3279,49006.3727,44191.9416,54987.8329,-2727.4042,-2973.4969,22889.4353
52771.1213,25254.0708,51651.5225,38817.51,34177.3331,36211.0734,4888.0577,48995.4203,44175.7143,54978.7581,-2740.3682,-2982.7505,22885.0543
52757.3079,25250.6286,51653.5789,38808.8822,34153.6403,36204.4126,4884.5708,48980.5341,44163.3761,54967.3587,-2748.8172,-2990.0819,22882.5063
52751.8541,25244.1913,51657.5128,38805.5295,34158.5129,36204.8596,4885.0179,48984.5574,44161.0068,54965.9729,-2753.3323,-2989.4114,22882.6404
52770.853,25250.3604,51661.1785,38824.4838,34182.3399,36215.7673,4890.1588,49005.568,44181.6151,54971.5608,-2734.6462,-2975.6427,22887.6919
52782.6548,25254.6072,51662.1619,38828.9094,34193.0687,36215.8567,4892.3492,49019.8284,44189.617,54973.4831,-2719.6258,-2966.3891,22891.7152
52776.7539,25256.3059,51661.6702,38826.4954,34195.5274,36220.1482,4895.5232,49011.9606,44187.4266,54972.6337,-2724.9008,-2968.803,22893.9503
52767.2321,25251.3438,51659.9715,38815.5878,34177.3331,36216.1249,4893.5115,48993.1405,44178.9776,54970.2644,-2737.1496,-2981.0518,22891.0893
52765.7121,25252.372,51659.3903,38812.1903,34170.4041,36214.3368,4892.2598,48994.6157,44173.6579,54966.0176,-2743.6763,-2983.2423,22890.3294
52784.4876,25255.1436,51662.5643,38821.7121,34186.5867,36222.5622,4894.3609,49017.325,44190.6005,54971.0691,-2729.997,-2967.5514,22895.3809
52798.5692,25254.7413,51662.7878,38833.8268,34195.3486,36228.4184,4899.8147,49031.2725,44191.3158,54974.6454,-2717.033,-2957.1801,22899.3148
52784.9346,25253.4449,51665.4253,38833.1115,34187.6596,36222.9645,4902.5863,49027.6963,44184.0738,54972.9466,-2722.0845,-2965.2715,22898.9124
52759.4537,25247.097,51661.849,38819.0746,34166.3361,36216.6613,4898.7865,49001.1871,44172.0486,54970.2644,-2737.3731,-2981.1412,22896.9455
52753.4634,25242.4479,51654.5177,38808.9269,34157.306,36210.6711,4892.4834,48991.0394,44167.9806,54966.6435,-2745.5091,-2989.3667,22894.3974
52777.6927,25254.339,51659.6138,38823.6791,34184.7986,36222.1152,4896.2384,49020.9907,44188.3206,54974.4666,-2726.6443,-2968.9372,22898.9571
52794.7694,25263.8161,51662.2514,38834.8997,34202.9929,36226.8537,4903.7039,49038.5592,44199.4071,54981.3062,-2712.3392,-2959.0577,22902.9804
52785.337,25257.8706,51660.7314,38826.4507,34188.3302,36219.5671,4898.5183,49025.8634,44196.7696,54982.0662,-2723.6938,-2968.5795,22899.0465
52767.0532,25250.718,51662.6537,38814.7831,34168.5712,36213.845,4895.9702,49008.3843,44183.5374,54978.9816,-2740.86,-2978.9507,22896.0514
52762.5829,25244.0125,51662.609,38806.5577,34162.4469,36213.4427,4895.8808,49015.3134,44183.0009,54972.8125,-2744.0339,-2982.2141,22896.8114
52782.2077,25254.2049,51670.1192,38824.5285,34191.5935,36224.2609,4903.0781,49040.1685,44202.5363,54982.0215,-2725.6161,-2959.8176,22905.0815
52788.1533,25256.9765,51675.3048,38829.7588,34207.7315,36232.5311,4907.3249,49050.0927,44209.6442,54991.2751,-2717.0777,-2948.8653,22910.133
52782.4312,25255.1436,51673.2931,38827.9259,34201.6071,36230.4747,4906.0285,49039.5427,44201.5082,54989.4422,-2719.8046,-2953.425,22909.8201
52763.2087,25243.5207,51666.9005,38820.9969,34173.2651,36219.8353,4901.0664,49009.7255,44185.3255,54979.0263,-2738.1778,-2972.2005,22900.4771
52760.1689,25239.1845,51661.2679,38812.7267,34162.7151,36217.466,4893.8245,49004.9869,44177.9047,54966.9564,-2746.6267,-2983.5999,22893.5033
52775.3681,25245.8006,51657.2446,38817.0183,34177.5119,36221.1764,4893.9139,49020.3202,44187.516,54970.0409,-2735.9426,-2972.3793,22891.894
52779.4361,25247.5888,51653.2212,38814.8725,34194.3204,36218.8965,4890.4717,49037.1734,44190.8687,54970.1303,-2734.378,-2970.8147,22888.5859
52764.5946,25236.1,51651.5672,38807.5858,34182.6975,36212.0569,4883.9003,49021.7507,44182.1963,54962.2625,-2745.0621,-2984.5834,22880.3158
52752.3011,25232.479,51651.8354,38808.5693,34162.8939,36206.156,4878.8935,48998.1472,44170.7969,54954.1265,-2758.1155,-2998.0838,22873.655
52753.6422,25234.4459,51651.3437,38806.2,34153.7297,36209.017,4881.4416,48998.7284,44173.9261,54955.2888,-2756.3274,-2995.5357,22875.3537
52775.7257,25244.4148,51649.6897,38816.0795,34172.5051,36219.1647,4886.4931,49026.6681,44180.3634,54960.5191,-2741.3964,-2980.113,22880.4052
52788.7344,25246.9182,51648.6615,38823.0979,34188.8666,36220.9976,4888.1471,49038.2463,44183.3138,54961.9943,-2728.8795,-2972.424,22883.3109
52785.3817,25252.9532,51658.0492,38828.8647,34188.509,36224.6633,4892.841,49031.809,44182.6433,54968.6998,-2726.8678,-2974.838,22888.72
52777.648,25252.8191,51669.2251,38825.8249,34174.1592,36224.7527,4899.9041,49025.4164,44193.9086,54969.3704,-2732.6792,-2975.1956,22897.8395
52780.7325,25255.1883,51683.1726,38832.7092,34180.5518,36234.498,4913.1811,49035.9217,44209.1525,54982.5579,-2721.9504,-2964.4668,22910.893
52806.4817,25264.7102,51686.2124,38836.5537,34208.8491,36246.1656,4919.2607,49061.3133,44228.6879,54994.1361,-2705.276,-2948.3736,22921.9794
52815.5118,25269.717,51687.0618,38843.3486,34221.8131,36250.4572,4918.5455,49082.6368,44237.3157,55001.2439,-2699.6434,-2941.8916,22925.4663
52800.5809,25262.6538,51685.0054,38839.4594,34205.8092,36243.0364,4915.2821,49077.7194,44227.3021,55003.9262,-2708.6288,-2952.8439,22921.5771
52777.2903,25256.8424,51681.7421,38834.6314,34183.0552,36238.4766,4912.1976,49053.2219,44206.202,54996.0136,-2723.2915,-2965.495,22919.2972
52764.5946,25258.407,51677.6741,38829.9823,34173.578,36223.0539,4904.9109,49039.8556,44201.7317,54995.2537,-2732.2322,-2972.7817,22916.0339
52784.577,25262.2962,51674.5895,38835.749,34187.1232,36221.6234,4900.3512,49054.6525,44218.9425,55000.4393,-2725.6161,-2966.2549,22911.8317
52797.541,25263.4585,51672.1308,38839.7723,34199.6849,36221.0423,4896.7302,49072.3103,44217.4673,54992.5268,-2722.0398,-2960.4435,22906.3779
52788.0639,25254.2943,51669.091,38828.1047,34186.9444,36213.8003,4894.495,49059.8828,44209.5995,54984.3013,-2733.1263,-2970.1889,22899.2701
52768.4391,25250.4498,51665.47,38814.3808,34157.4401,36209.777,4889.9353,49033.1054,44199.0495,54973.8407,-2753.7793,-2986.8186,22891.134
52774.0717,25251.6568,51667.1687,38822.6509,34160.6587,36218.4495,4891.0081,49026.4893,44199.3177,54971.0244,-2747.2079,-2986.0586,22890.687
52787.0357,25248.8405,51664.1736,38835.4808,34185.3797,36228.4184,4891.4999,49043.119,44207.3196,54970.488,-2726.0631,-2975.0615,22891.894
52799.3739,25249.8686,51665.0677,38846.1202,34196.645,36232.7099,4895.7914,49059.7039,44211.7006,54973.7066,-2717.9271,-2968.9372,22897.616
52794.0542,25250.4498,51668.5545,38842.7675,34187.6596,36231.8605,4896.7749,49048.3046,44203.0728,54977.5958,-2726.1078,-2975.2403,22899.4936
52777.8715,25241.7773,51667.3923,38831.3681,34163.4303,36225.0656,4893.8692,49022.4212,44198.3789,54974.243,-2741.1729,-2986.3715,22897.4819
52771.2107,25242.4479,51668.6887,38822.3827,34157.0824,36221.2658,4892.2151,49015.9839,44200.927,54975.4947,-2741.8882,-2986.9974,22899.9406
52797.0493,25253.2661,51675.8412,38836.5984,34184.0386,36226.7643,4898.563,49040.0344,44214.3828,54983.0496,-2719.7152,-2968.803,22908.6578
52801.8773,25259.0775,51678.2999,38845.3603,34198.2096,36232.7099,4901.2005,49058.6311,44217.4673,54990.1575,-2711.9815,-2955.2579,22913.307
52792.266,25254.786,51676.7353,38839.9065,34189.2689,36233.7381,4899.323,49051.5232,44213.5781,54982.9602,-2721.3246,-2962.7234,22908.1661
52776.888,25243.2972,51671.9073,38832.3069,34164.9055,36229.223,4896.1043,49024.3435,44199.9435,54972.4996,-2735.0038,-2980.6495,22900.2088
52770.6742,25245.5324,51669.4039,38832.2622,34158.96,36229.5359,4895.6573,49017.6827,44196.5461,54971.1138,-2737.8649,-2982.527,22897.7501
52790.3438,25254.4731,51664.2183,38838.923,34181.4458,36231.7264,4896.4173,49048.2599,44206.1126,54976.0312,-2726.2866,-2971.7088,22895.6938
52803.6207,25256.4847,51663.3242,38844.4662,34195.0804,36238.3872,4895.6126,49063.3696,44208.8395,54977.2829,-2721.1457,-2966.1208,22895.6491
52788.7344,25252.5955,51660.8208,38841.6499,34180.6859,36234.1404,4893.1539,49061.5815,44205.9785,54977.1935,-2726.689,-2973.8098,22890.7764
52766.2039,25248.2593,51658.1833,38835.8831,34162.8939,36229.8489,4890.1588,49038.8721,44189.4382,54967.8952,-2742.8269,-2987.2656,22884.9649
52765.6227,25242.8055,51656.0823,38830.6975,34159.3623,36226.809,4888.1918,49028.5009,44184.6102,54958.9992,-2748.6384,-2991.7359,22885.6802
52788.5109,25244.5489,51661.2679,38838.3418,34182.7422,36229.983,4892.9751,49045.8906,44201.9105,54968.2081,-2729.6394,-2974.2569,22891.9387
52792.266,25250.7627,51664.1736,38844.4662,34196.8238,36229.5359,4896.9984,49063.459,44216.8415,54977.5064,-2712.3839,-2962.3657,22899.9853
52785.6946,25248.9299,51664.0842,38836.2855,34189.1795,36223.501,4893.7798,49063.5931,44204.5033,54975.4947,-2720.1176,-2970.9488,22899.1359
52771.3448,25243.5207,51665.1124,38827.4789,34168.8842,36221.7128,4890.427,49033.0607,44191.137,54971.3373,-2736.5237,-2986.595,22895.2914
52765.891,25241.2856,51665.1124,38818.9852,34160.3458,36215.1414,4884.6602,49020.7672,44195.205,54975.1818,-2749.7113,-2991.2889,22894.9785
52783.1912,25251.8803,51669.3592,38827.1213,34177.5119,36219.7906,4883.6321,49038.0675,44209.6889,54985.8212,-2737.5072,-2981.32,22902.0864
52790.4779,25261.2233,51672.1308,38833.2903,34191.817,36222.8304,4882.2463,49056.977,44222.787,54990.4704,-2724.8561,-2971.4853,22906.512
52777.2009,25253.9814,51667.7946,38823.7685,34177.5119,36218.2707,4875.4513,49055.2783,44213.0417,54982.9602,-2734.7803,-2982.4376,22898.1972
52758.7384,25245.6665,51664.71,38811.6091,34154.1767,36213.1298,4873.082,49030.7808,44199.0495,54982.6026,-2753.377,-3001.4813,22891.3575
52753.374,25245.0854,51663.3242,38805.6636,34144.8784,36215.4096,4871.1598,49014.1958,44193.1486,54977.2829,-2757.8026,-3005.0576,22888.7647
52780.5984,25254.7413,51665.2912,38816.5265,34169.063,36223.5457,4873.1714,49029.7973,44205.9338,54978.4005,-2742.4246,-2986.908,22890.4635
52799.1503,25265.336,51662.3408,38832.9327,34190.923,36230.9217,4878.3123,49053.6243,44212.8628,54975.7183,-2732.0087,-2978.1908,22890.5082
52790.2097,25265.5149,51662.9219,38831.681,34183.9045,36233.0228,4881.2628,49047.5446,44204.101,54967.4034,-2735.8979,-2986.4609,22888.7647
52774.3846,25256.3059,51662.609,38817.2865,34160.7928,36229.223,4878.5359,49029.2609,44186.9348,54957.211,-2751.0971,-2994.1946,22885.1438
52774.8317,25255.1883,51668.1969,38826.4507,34168.9289,36237.6273,4889.4882,49043.6554,44188.6783,54961.5026,-2737.9096,-2986.9527,22892.0281
52787.6168,25261.2233,51670.4768,38837.0901,34199.3272,36242.8576,4896.0149,49064.0849,44201.5082,54966.867,-2720.0729,-2971.3959,22897.9737
52799.2398,25268.0182,51669.4486,38845.5838,34219.0862,36245.7186,4901.6476,49077.0489,44205.3974,54968.3422,-2708.6735,-2960.8011,22901.9076
52788.2427,25265.4254,51669.9851,38845.8073,34213.9453,36245.1375,4904.7768,49072.3997,44195.7414,54963.5589,-2708.5394,-2961.114,22905.1262
52766.9191,25263.7714,51671.3709,38832.3069,34183.5916,36235.1239,4903.838,49050.5844,44186.5325,54963.5142,-2718.5082,-2967.3278,22904.6792
52758.0231,25258.1835,51670.6556,38826.7189,34181.7588,36231.9052,4906.9673,49031.7643,44176.966,54965.2129,-2720.6093,-2971.2617,22903.8745
52779.3467,25265.7831,51676.9141,38838.8783,34212.6042,36237.4485,4914.1645,49044.6836,44183.9397,54972.0526,-2703.5326,-2955.6155,22913.1281
52789.9861,25274.7238,51678.881,38844.7791,34223.0201,36239.3707,4920.6465,49054.4736,44189.0806,54980.5462,-2694.6813,-2945.3337,22919.2525
52772.82,25274.0085,51677.8082,38834.9891,34209.8325,36234.8109,4919.8866,49047.1423,44172.0039,54976.657,-2709.4334,-2954.7215,22915.8551
52754.8939,25277.1825,51675.1707,38820.5498,34194.0522,36228.4631,4919.7525,49014.9558,44156.6706,54969.3704,-2724.2303,-2969.6971,22912.0553
52746.0426,25280.3564,51670.3427,38815.2748,34188.4643,36219.7459,4919.7525,49005.4339,44145.003,54967.9846,-2725.5267,-2977.2967,22906.2438
52755.2068,25285.0503,51670.8791,38824.7073,34208.5361,36220.9529,4923.3288,49015.4922,44148.9816,54970.6668,-2715.6472,-2967.6408,22906.4226
52764.1475,25285.8996,51669.3592,38827.7918,34222.126,36225.915,4924.5358,49015.7157,44154.5695,54972.2314,-2709.0758,-2959.1024,22908.6578
52746.132,25279.5964,51667.0346,38816.4371,34206.9268,36218.8965,4923.3735,48995.8227,44143.3489,54965.3471,-2722.8445,-2966.6573,22907.5402
52727.893,25278.9706,51664.3971,38807.4964,34179.4789,36212.8615,4921.5853,48966.676,44131.726,54957.7922,-2736.9708,-2977.2073,22904.4557
52722.9756,25274.4555,51661.4914,38814.3361,34173.3098,36215.9461,4919.3501,48960.0599,44128.3286,54952.4724,-2733.2157,-2976.1791,22904.7239
52733.5703,25280.3117,51661.7596,38823.992,34190.6101,36219.4777,4920.1548,48976.1084,44135.0341,54960.4297,-2722.0845,-2965.6738,22905.9756
52748.5013,25289.0289,51667.437,38837.3584,34210.8607,36228.5972,4927.665,48982.6351,44150.0992,54969.5492,-2708.3606,-2950.7428,22916.0339
52739.7841,25284.5585,51671.3262,38827.7024,34203.3505,36223.4116,4929.9449,48966.2737,44151.6191,54973.0361,-2712.6968,-2952.531,22917.5091
52715.6442,25274.4555,51669.091,38813.0397,34173.2651,36209.1064,4922.7029,48933.506,44131.6813,54967.8057,-2732.6792,-2969.4736,22909.9542
52714.169,25281.0717,51673.919,38812.8608,34174.0698,36211.2969,4921.8535,48924.4312,44124.5288,54970.488,-2734.2439,-2973.4969,22911.8764
52737.3254,25292.1134,51677.1823,38831.9045,34197.6285,36225.602,4926.9497,48945.576,44141.1585,54975.8077,-2717.8377,-2958.2977,22918.1796
52748.7248,25297.9249,51675.8859,38834.7208,34205.2728,36227.4349,4927.3968,48950.8957,44150.7697,54972.7678,-2710.2828,-2952.7098,22919.3866
52749.6636,25298.4166,51678.0764,38831.7257,34199.9978,36227.0772,4929.0508,48936.5011,44140.6667,54970.4432,-2715.1108,-2959.9071,22919.1631
52735.0903,25287.0619,51677.4952,38825.6013,34174.5168,36218.9412,4925.9216,48908.6956,44121.3995,54959.4909,-2733.0816,-2972.3793,22911.1612
52724.9873,25277.406,51675.126,38821.0416,34168.4371,36214.7838,4921.9877,48894.7928,44112.9953,54950.282,-2738.6248,-2976.9391,22905.7968
52734.6432,25276.2884,51672.399,38828.1494,34182.474,36216.8849,4920.3783,48908.025,44128.4627,54954.0818,-2721.9057,-2964.0645,22909.1495
52749.9318,25281.6528,51668.6887,38835.5255,34196.4215,36216.5272,4921.1383,48916.8316,44132.7989,54953.3665,-2709.2993,-2953.9168,22914.0669
52743.8968,25283.3068,51665.0677,38833.2009,34185.1115,36215.9014,4921.2277,48903.7782,44119.8796,54948.5832,-2713.3226,-2958.9236,22911.6529
52728.6977,25280.5352,51664.6206,38821.8015,34164.235,36215.0967,4922.5688,48884.8239,44105.7086,54939.1508,-2723.2915,-2970.4124,22906.6014
52723.9144,25274.232,51666.4088,38823.5003,34163.0727,36212.3251,4922.7476,48876.6879,44112.2353,54938.525,-2719.4023,-2969.2948,22909.3283
52739.1583,25273.9638,51666.4535,38828.9541,34178.1825,36214.5156,4921.5853,48890.4119,44116.4374,54938.7485,-2704.5608,-2958.1189,22915.3186
52762.7617,25283.3068,51671.6838,38841.337,34195.0804,36223.8586,4929.8555,48907.131,44129.1779,54947.8233,-2684.9806,-2947.8371,22921.6665
52758.649,25286.7937,51673.8296,38840.0853,34189.5372,36220.5505,4929.1402,48895.061,44122.5171,54941.386,-2690.9262,-2951.5922,22918.7608
52741.1252,25280.5352,51675.126,38823.2768,34171.924,36215.5437,4926.3686,48869.3565,44111.6095,54938.7038,-2708.2264,-2960.6223,22913.4858
52737.6384,25276.199,51678.0317,38824.1261,34162.3127,36217.3319,4927.7097,48859.8794,44116.348,54947.5551,-2711.8921,-2957.4484,22916.8832
52761.7335,25277.9871,51682.5467,38836.5984,34184.2175,36223.2774,4927.8438,48877.4925,44127.658,54954.9758,-2701.2527,-2948.6418,22921.3536
52775.4575,25277.4954,51680.3116,38836.5984,34200.266,36222.741,4925.698,48892.8258,44137.8504,54959.7144,-2693.3849,-2941.981,22924.5722
52764.1475,25280.8928,51678.8363,38825.6907,34185.1562,36217.6448,4924.5358,48880.9347,44132.3519,54958.4627,-2702.862,-2950.3405,22923.7676
52747.9202,25273.3827,51674.5895,38810.3575,34161.0163,36211.1181,4923.1052,48862.7404,44120.3713,54953.8136,-2720.3858,-2969.2054,22919.6548
52746.892,25270.6558,51672.8014,38814.0231,34160.2564,36209.7323,4923.597,48858.27,44115.8116,54953.4559,-2724.9455,-2967.7302,22918.3137
52757.7996,25276.9589,51669.9851,38818.8958,34181.9823,36214.4709,4922.9264,48884.064,44129.6697,54957.1216,-2713.5462,-2956.8672,22918.269
52765.6674,25279.7306,51675.0813,38826.3613,34189.4031,36220.4611,4923.9099,48905.7004,44144.4218,54966.4646,-2703.4432,-2950.5193,22922.5606
52750.96,25274.0532,51674.5448,38818.7617,34177.1543,36215.9014,4919.9313,48896.0445,44135.2129,54961.9496,-2714.2614,-2958.4318,22919.6548
52735.4479,25270.3875,51671.5497,38808.4799,34156.1884,36213.2192,4919.6631,48873.8716,44125.3781,54957.211,-2728.1195,-2970.6806,22914.5586
52744.6568,25270.4769,51674.1425,38805.2613,34156.1884,36211.1628,4920.8254,48871.7705,44129.312,54964.3636,-2722.1739,-2970.7253,22913.3964
52757.8443,25268.3312,51672.8014,38814.3808,34175.8132,36213.1298,4920.8254,48886.2097,44137.6716,54973.1702,-2705.0525,-2953.4698,22918.6267
52767.8132,25265.8278,51670.3874,38827.3895,34190.7889,36211.7887,4921.7641,48903.51,44143.3936,54977.3723,-2696.8271,-2944.2608,22919.029
52761.9123,25258.9881,51669.5827,38816.6159,34180.3282,36207.9442,4921.0936,48898.1456,44140.8008,54966.107,-2706.036,-2953.6039,22911.6976
52745.4615,25253.3108,51664.5312,38800.5674,34154.7579,36196.1871,4915.2374,48871.3682,44125.1099,54954.2606,-2729.6841,-2970.2783,22900.8347
52745.2379,25252.4614,51662.8772,38796.6335,34151.9862,36195.6507,4909.426,48858.6277,44120.2372,54951.1313,-2734.4227,-2974.391,22899.7171
52767.3662,25266.543,51664.2183,38811.6091,34180.3282,36211.6545,4914.7457,48885.271,44141.4267,54958.6862,-2715.2896,-2958.3424,22908.7025
52774.6528,25279.5517,51665.1571,38822.6956,34197.9861,36218.8965,4919.216,48909.3661,44149.1157,54960.6085,-2702.5044,-2948.9994,22912.4129
52768.1261,25286.7043,51673.2484,38827.7918,34188.5984,36223.6351,4929.1402,48908.1144,44145.7182,54965.0788,-2699.5987,-2946.8983,22914.7375
52748.5013,25278.5236,51668.644,38818.8064,34170.1806,36216.9743,4929.1849,48892.6917,44137.1799,54956.6746,-2719.6258,-2962.6787,22908.7472
52745.1038,25284.1115,51666.7664,38815.2748,34174.6509,36216.4378,4928.2014,48891.2165,44138.3421,54954.1265,-2723.8727,-2964.0645,22909.9989
52771.0766,25298.059,51670.6109,38831.1893,34200.7577,36225.3338,4930.7495,48909.0979,44156.5365,54961.0108,-2706.0807,-2943.7244,22919.2972
52783.37,25300.1153,51668.3757,38844.1086,34213.0512,36239.4601,4928.5591,48924.2077,44170.2604,54963.1566,-2695.2177,-2934.292,22920.5936
52776.5751,25292.6052,51668.1522,38845.9861,34201.1154,36239.4601,4926.3686,48922.6431,44160.068,54963.9165,-2698.2576,-2942.7856,22918.269
52767.2768,25290.4147,51669.6721,38837.9842,34181.2223,36237.0014,4926.7262,48912.9424,44143.6172,54957.5239,-2709.1205,-2953.2462,22917.7326
52761.51,25283.0833,51667.3476,38832.8433,34176.6179,36235.1686,4920.6913,48909.5002,44141.7843,54946.6163,-2716.8095,-2958.2083,22912.7258
52776.888,25288.8054,51663.5478,38842.7228,34201.2495,36239.4601,4918.8137,48929.9297,44163.9572,54954.3947,-2701.4762,-2948.8653,22917.5091
52794.5012,25301.1435,51667.5264,38847.2378,34217.7451,36254.3017,4923.2394,48948.7946,44176.2507,54964.7212,-2690.1215,-2937.4659,22921.6218
52790.4332,25300.92,51669.091,38841.4264,34202.3671,36253.9887,4921.8982,48945.576,44170.6628,54960.2062,-2699.3304,-2942.2492,22917.1962
52772.5965,25286.1232,51668.4651,38827.166,34180.6412,36244.0199,4918.6349,48923.403,44154.2566,54953.3665,-2723.8727,-2960.8458,22907.9425
52768.5285,25278.3448,51667.7946,38824.7073,34177.8249,36243.3493,4916.5338,48917.1445,44155.1954,54953.3665,-2722.6657,-2966.0761,22908.7919
52783.9065,25286.7937,51665.3359,38833.0668,34203.887,36249.3843,4921.5853,48941.4632,44166.55,54962.2625,-2705.9913,-2951.9051,22920.6383
52784.8005,25288.1348,51662.9666,38834.2291,34212.1571,36248.222,4919.3054,48955.7236,44174.552,54962.5754,-2702.5044,-2948.7759,22916.5703
52778.1844,25282.8151,51660.8655,38829.1776,34201.0707,36236.5991,4914.3881,48936.7694,44165.4325,54958.5521,-2708.7629,-2958.2977,22913.2175
52750.0212,25267.4371,51653.9365,38812.1456,34170.8511,36220.9529,4907.9508,48906.9074,44145.3159,54952.7854,-2727.9407,-2975.4192,22909.3283
52737.9513,25261.4468,51648.3933,38801.5509,34166.3808,36215.5437,4904.2404,48900.1572,44137.9398,54950.3714,-2735.8085,-2979.1743,22906.5567
52751.8094,25259.4352,51648.1251,38809.4187,34184.2175,36217.1084,4905.358,48926.3535,44152.2449,54952.9195,-2720.7434,-2962.4999,22908.1213
52763.164,25257.6917,51646.024,38807.3623,34189.3584,36211.9228,4903.4804,48938.1105,44154.1225,54955.6017,-2717.5248,-2959.5494,22905.6627
52753.1505,25252.0144,51639.2291,38794.9347,34181.7588,36200.5681,4899.5912,48924.8782,44146.21,54954.4841,-2727.7619,-2967.0149,22900.2088
52725.032,25237.754,51632.5682,38782.1048,34151.9862,36187.5147,4895.2103,48895.3739,44133.7824,54944.9623,-2743.5869,-2985.2092,22894.3527
52723.4674,25235.2953,51635.3399,38787.7375,34148.3653,36189.3028,4899.2336,48894.4799,44130.5637,54946.9739,-2739.8318,-2983.8234,22894.3974
52746.8026,25243.5207,51639.3185,38804.1437,34174.2486,36200.1657,4905.1344,48911.4225,44142.5443,54955.9146,-2725.9737,-2966.3444,22902.4887
52749.5742,25249.1981,51640.3913,38808.2564,34188.5537,36204.055,4909.2919,48929.5721,44158.5481,54963.5142,-2716.6754,-2957.9848,22908.1661
52739.0689,25244.4595,51639.8549,38800.3886,34178.5848,36198.3776,4905.5368,48927.8287,44154.8824,54958.5074,-2724.9902,-2967.9984,22904.8133
52730.5752,25242.4031,51640.5255,38794.0854,34161.5528,36193.3708,4903.2122,48910.9308,44140.0409,54950.5055,-2741.1729,-2980.5601,22898.7336
52730.3517,25242.2243,51636.9045,38797.2593,34161.5528,36192.5215,4903.9721,48903.7782,44139.5044,54953.4112,-2736.792,-2977.252,22897.5266
52744.2098,25248.751,51641.4195,38808.5693,34185.6033,36199.8081,4905.9391,48922.0619,44154.793,54965.1235,-2720.6093,-2965.6738,22902.1758
52753.374,25254.1155,51639.2738,38812.2797,34197.0026,36202.9374,4903.7933,48935.0259,44162.4373,54964.7659,-2714.932,-2960.7117,22900.7006
52740.5888,25250.1369,51633.06,38802.3108,34187.2126,36195.8742,4901.3793,48923.5371,44150.4121,54960.072,-2728.6112,-2968.0431,22898.4654
52721.0534,25243.9678,51628.0979,38788.5422,34165.3526,36189.3922,4899.6806,48908.1591,44137.7163,54951.3102,-2744.7045,-2980.5601,22891.4469
52716.9853,25240.5256,51629.886,38783.8483,34158.4235,36189.4369,4895.5679,48901.543,44143.3042,54945.1858,-2747.7443,-2985.0751,22889.033
52737.5937,25249.8686,51627.3826,38793.1913,34178.5401,36198.7799,4898.4736,48919.8267,44157.9223,54950.9972,-2732.0981,-2973.8545,22896.0514
52746.132,25253.1767,51626.5333,38799.4051,34189.716,36200.5681,4899.8147,48931.0026,44158.4587,54952.6066,-2724.7667,-2966.6126,22897.929
52745.1485,25248.1252,51633.7752,38797.7511,34183.1893,36196.8577,4898.7865,48924.3418,44147.6405,54952.383,-2731.2487,-2974.7486,22895.202
52728.6083,25237.4858,51633.1047,38790.9114,34156.0096,36190.7333,4894.1821,48899.3973,44135.7493,54947.0633,-2744.3022,-2992.2724,22889.6588
52731.7375,25240.4362,51638.4691,38789.7938,34156.4119,36196.366,4896.3279,48897.2068,44133.6483,54947.6892,-2745.7774,-2989.9478,22892.4751
52748.5013,25251.2991,51639.1397,38812.0115,34185.0221,36209.1959,4904.8215,48927.784,44150.4121,54954.5735,-2729.3265,-2970.5018,22901.4158
52749.5742,25255.6354,51641.5983,38817.4653,34198.7908,36216.7507,4905.045,48946.2018,44158.1458,54958.7309,-2718.3741,-2963.3492,22903.1146
52743.0475,25260.821,51648.9297,38811.475,34191.2806,36218.2707,4908.3531,48948.9287,44157.0729,54964.1848,-2721.9504,-2965.8526,22902.3993
52733.2574,25257.1553,51645.3534,38806.2894,34175.6344,36214.3368,4907.2355,48929.7956,44136.2411,54956.1828,-2733.2604,-2976.5368,22897.4819
52728.2953,25248.0805,51641.2854,38791.6267,34166.0678,36205.8878,4905.358,48916.6975,44139.2362,54949.1197,-2739.7424,-2978.7719,22892.9669
52747.786,25255.0989,51648.6168,38809.6869,34183.3681,36216.8849,4912.5999,48936.6353,44161.1409,54963.7377,-2721.861,-2961.9634,22904.5004
52770.0484,25260.5081,51649.645,38822.4721,34199.1484,36227.2561,4917.2044,48954.3825,44169.0087,54972.1867,-2713.6803,-2955.6602,22910.2224
52757.7996,25257.2894,51648.5721,38814.8278,34184.6198,36225.3785,4915.6845,48944.4584,44158.9504,54967.2246,-2718.24,-2963.7963,22905.4391
52741.5723,25249.5557,51645.4428,38801.7297,34167.4984,36215.5437,4910.1859,48925.4594,44144.9583,54958.5968,-2736.9708,-2978.6378,22900.6559
52746.4449,25254.1602,51648.3486,38801.3273,34168.9736,36216.6613,4913.3152,48925.4594,44150.4121,54963.5142,-2735.4956,-2974.6592,22904.9027
52766.7403,25265.2913,51652.9977,38815.9454,34195.3486,36226.1385,4917.7855,48945.5312,44170.5287,54975.1371,-2715.2449,-2957.0907,22913.7093
52773.7588,25268.1077,51650.092,38821.7568,34208.0444,36227.1667,4918.009,48956.9753,44178.7988,54978.4452,-2709.4334,-2953.6039,22914.9163
52764.2816,25262.2068,51644.9511,38813.5314,34192.5323,36215.1414,4915.2821,48945.6654,44176.2507,54976.5676,-2714.619,-2962.0975,22912.8599
52746.4002,25251.1203,51641.2854,38800.3439,34169.2865,36208.4359,4910.633,48918.128,44162.0797,54963.7824,-2731.2487,-2972.1111,22908.1213
52745.1485,25249.7792,51646.3816,38792.2525,34168.1242,36203.1609,4909.2919,48919.5138,44164.1808,54967.8057,-2737.5519,-2972.5134,22908.5684
52765.8015,25253.0873,51647.2757,38802.892,34188.0172,36213.6662,4916.8468,48942.2232,44183.9844,54976.97,-2716.9436,-2957.0013,22913.7987
52776.1728,25265.5149,51648.9297,38814.9172,34201.5624,36220.6846,4920.2442,48957.4671,44195.3391,54982.4685,-2705.0525,-2947.6136,22916.7491
52768.0814,25263.8608,51650.1814,38813.2632,34195.8851,36218.7177,4918.3667,48948.437,44181.5257,54980.1886,-2712.3839,-2955.9731,22915.5868
52758.4255,25259.8375,51652.7295,38804.0096,34179.7471,36218.5836,4917.5173,48934.1319,44170.3945,54977.3723,-2721.6375,-2966.9702,22911.1165
52752.7928,25254.1155,51651.4778,38801.4168,34175.8579,36217.2425,4917.8749,48930.1085,44172.8979,54980.1886,-2722.7998,-2968.9372,22908.479
52764.1922,25258.0494,51652.9977,38806.1106,34192.7111,36215.499,4915.4162,48947.5429,44180.8999,54985.9554,-2715.7813,-2960.3094,22909.7307
52781.1348,25262.6538,51655.5011,38813.3079,34210.9501,36212.3698,4912.734,48967.5254,44188.1865,54987.2518,-2709.1652,-2956.1073,22909.1048
52773.0882,25261.4468,51653.7577,38811.0727,34198.612,36212.638,4911.4376,48956.7071,44174.9543,54981.3509,-2716.0943,-2962.7234,22905.618
52751.0047,25248.0358,51648.5721,38798.1981,34169.0183,36206.6031,4907.9061,48942.1785,44162.3479,54974.6454,-2732.3216,-2974.2122,22901.6393
52744.7015,25248.9299,51648.7509,38792.6102,34165.442,36207.4077,4905.6709,48943.4749,44163.9572,54976.7464,-2735.0038,-2973.4522,22902.3993
52745.2379,25247.8123,51641.5536,38800.7462,34183.7257,36209.7323,4902.2734,48956.0813,44168.7405,54977.864,-2724.0515,-2965.2715,22904.7686
52756.4138,25245.6665,51635.3846,38809.2846,34192.3535,36206.156,4899.2783,48963.502,44178.2176,54978.4005,-2718.5082,-2965.048,22902.3099
52745.2379,25241.062,51632.0765,38800.5227,34174.9191,36196.1871,4896.9537,48958.4953,44176.4742,54977.4617,-2724.7667,-2972.6028,22898.9571
52731.0669,25232.7472,51632.0318,38785.1,34156.7695,36192.3426,4896.3279,48950.2251,44169.0534,54973.796,-2742.2905,-2984.941,22896.7667
52729.3682,25223.8512,51628.232,38772.9406,34158.0659,36187.7382,4889.667,48948.5711,44165.656,54966.1964,-2754.0475,-2988.8302,22891.3128
52739.65,25229.7521,51626.0415,38788.8104,34180.1941,36196.0977,4893.288,48960.4622,44168.2488,54973.2596,-2735.1379,-2971.6194,22894.2186
52752.167,25239.1845,51629.6625,38799.8074,34199.1931,36207.4077,4898.5183,48977.3154,44179.4246,54979.9651,-2719.1788,-2963.6621,22900.5665
52745.2379,25235.34,51629.1261,38797.8405,34192.2641,36203.5185,4895.5232,48975.3932,44180.8105,54975.8077,-2727.7619,-2971.7535,22897.929
52733.168,25232.2108,51629.6625,38794.0854,34169.51,36197.7071,4895.4785,48949.8228,44167.0418,54967.2693,-2742.8716,-2983.5105,22892.6092
52729.9047,25232.1661,51632.6576,38789.4809,34165.2185,36197.5729,4900.7535,48952.0133,44169.3664,54967.761,-2742.4246,-2984.0469,22896.8561
52746.8026,25240.168,51635.161,38804.6354,34192.2641,36205.9772,4905.045,48980.2659,44185.7725,54971.9185,-2726.3314,-2968.803,22903.5616
52758.7831,25245.8006,51638.6032,38814.1125,34209.922,36218.0024,4905.8497,48997.9684,44195.7861,54987.3412,-2714.2614,-2959.0577,22908.9707
52760.3477,25244.6383,51638.2009,38813.6208,34198.4332,36217.6895,4906.6097,48994.7945,44192.8804,54983.9884,-2717.793,-2966.2102,22904.4557
52747.1155,25238.961,51637.7538,38805.7977,34180.7753,36213.3086,4906.4755,48980.6235,44182.8221,54980.1886,-2731.517,-2976.3132,22898.5995
52749.0377,25242.582,51642.6712,38811.9221,34178.2272,36217.8236,4909.4707,48982.6798,44183.0456,54978.3111,-2728.0748,-2972.9605,22902.1311
52761.9123,25250.4498,51645.3981,38818.0465,34201.6518,36222.1599,4910.6777,49001.5,44192.9251,54985.1954,-2719.3129,-2962.1869,22905.5285
52771.5683,25246.9182,51642.9842,38821.0863,34217.5663,36222.8304,4908.4872,49011.9606,44203.6539,54986.4471,-2710.7745,-2955.0791,22905.3497
52758.4255,25241.1067,51642.3136,38811.0727,34205.541,36223.501,4903.6592,49002.7517,44197.0825,54982.9155,-2722.2633,-2967.2831,22900.2088
52743.0028,25234.0883,51640.6596,38799.718,34186.7208,36217.8683,4901.5582,48976.7343,44185.0126,54977.9534,-2738.6695,-2980.113,22896.7667
52739.65,25232.0766,51638.5585,38800.0757,34180.7753,36213.3533,4903.4804,48973.2921,44183.3138,54972.8572,-2738.8036,-2981.7671,22895.0232
52753.9551,25237.2622,51636.5021,38808.4799,34199.9531,36219.2541,4906.1179,48997.5214,44187.0689,54977.0147,-2723.068,-2965.1374,22899.1359
52771.8812,25247.1417,51640.749,38822.5615,34223.2436,36227.7478,4912.8234,49019.8284,44203.1622,54985.553,-2707.6453,-2950.5193,22905.5732
52776.5751,25244.3254,51643.7441,38816.3477,34210.8607,36225.8255,4913.4046,49007.3562,44198.6918,54981.8873,-2718.3741,-2958.7001,22904.2321
52751.3176,25233.373,51642.3136,38803.5625,34181.8482,36219.3435,4909.6495,48981.1152,44185.6384,54978.9369,-2736.7473,-2976.8497,22903.4275
52742.6898,25231.4061,51645.0852,38802.9367,34178.0037,36217.5554,4910.1412,48974.7673,44184.1185,54978.0428,-2740.6812,-2975.2403,22901.5499
52762.0018,25243.7443,51646.3816,38811.6091,34200.7577,36219.12,4912.2423,48996.4485,44197.619,54986.0895,-2724.8561,-2966.5679,22903.4275
52775.5469,25251.4333,51648.3039,38821.891,34212.6489,36228.5972,4913.8963,49014.3746,44209.2419,54991.2751,-2712.1156,-2956.2414,22905.4391
52768.6626,25240.7044,51647.0075,38815.0513,34197.1815,36221.8469,4909.873,49003.467,44206.515,54982.8708,-2719.8493,-2960.8458,22898.8677
52757.5314,25235.2506,51646.024,38802.2214,34176.9755,36216.7954,4906.4308,48981.2046,44189.4382,54974.3325,-2736.6132,-2976.0897,22893.2798
52756.1903,25242.5373,51649.332,38807.3176,34177.2884,36222.5622,4908.8895,48981.8752,44198.7365,54977.6405,-2737.9543,-2976.4026,22894.9338
52770.853,25249.1534,51648.885,38817.8229,34202.0094,36227.0772,4912.2423,49010.6195,44206.3361,54980.8145,-2725.6161,-2961.9187,22900.2982
52790.8802,25250.5392,51644.6382,38828.5965,34218.0133,36224.5291,4911.7059,49028.9032,44206.5597,54981.7085,-2716.0496,-2958.9236,22900.9241
52781.4478,25245.443,51638.4691,38819.5217,34201.1154,36218.8071,4904.3745,49009.949,44201.6423,54974.9583,-2723.2021,-2970.5912,22898.2866
52767.0085,25243.2972,51636.3233,38808.614,34175.0979,36215.9461,4900.8429,49000.2483,44191.7628,54968.2081,-2741.6646,-2982.7505,22893.5033
52761.5547,25241.1962,51638.2009,38807.2729,34167.856,36212.5486,4901.737,49003.1987,44192.6569,54971.6949,-2743.9892,-2981.2753,22893.8162
52772.7306,25239.7209,51642.5371,38810.7598,34187.1232,36217.5107,4905.1791,49015.6263,44204.1457,54976.6123,-2732.0087,-2970.5912,22899.7171
52780.1514,25245.3983,51645.0852,38823.3662,34212.5148,36222.8304,4908.0402,49024.2541,44216.0815,54981.8426,-2720.5199,-2961.1588,22907.0932
52765.7121,25241.5538,51639.9443,38810.581,34196.0639,36212.2804,4899.3677,49013.0782,44210.7171,54977.5064,-2729.5947,-2968.9372,22901.3711
52737.996,25222.9571,51630.7354,38788.4527,34163.6986,36202.2668,4890.7399,48988.6254,44195.4732,54967.0905,-2750.65,-2985.4774,22888.4518
52738.9795,25217.8609,51629.3049,38793.6383,34161.1952,36205.0831,4891.9022,48986.2561,44196.6355,54964.6765,-2753.6899,-2986.7738,22886.306
52756.5479,25231.719,51633.2835,38817.063,34186.7208,36214.1579,4898.563,49013.4805,44206.7385,54975.5394,-2736.2555,-2973.7204,22894.1739
52758.4255,25229.618,51632.4341,38818.9852,34194.4098,36214.0238,4898.563,49021.1695,44210.0912,54980.6356,-2730.2206,-2970.01,22894.7997
52743.271,25219.202,51626.4886,38804.6354,34173.0863,36207.363,4890.9187,49011.7818,44186.756,54964.4977,-2740.2788,-2982.5717,22885.0543
52725.3449,25206.1486,51619.5148,38790.375,34148.5441,36196.7683,4884.3473,48990.3688,44175.446,54957.7028,-2759.859,-2997.2345,22880.9863
52721.1428,25208.2944,51619.6042,38789.9727,34151.271,36199.5399,4883.9897,48985.5856,44171.9592,54962.0837,-2760.4401,-3000.0955,22880.0476
52737.1019,25218.2633,51621.3924,38796.9464,34173.2651,36202.535,4882.4251,49016.6545,44179.4693,54966.867,-2749.4431,-2988.6067,22882.551
52749.1719,25229.2156,51625.7733,38802.9814,34181.1329,36205.7537,4884.6155,49028.5456,44190.0194,54972.3655,-2739.6977,-2983.4658,22885.5461
52749.7083,25227.2487,51625.7286,38800.925,34171.6111,36202.9374,4883.3638,49017.0568,44195.205,54972.9019,-2743.6316,-2987.9808,22885.9484
52732.4975,25220.4537,51627.3379,38794.3983,34148.8123,36198.1988,4881.8886,48994.1686,44185.2808,54969.2363,-2761.066,-3000.0061,22883.0874
52728.2059,25217.4586,51629.886,38794.7559,34143.4479,36195.6507,4883.9897,48993.4534,44183.9844,54967.0011,-2765.0893,-3000.9896,22882.2827
52745.0591,25223.7618,51628.679,38802.9814,34161.1952,36199.1376,4885.4202,49021.8848,44196.859,54973.5725,-2748.9066,-2987.7126,22883.445
52757.3973,25229.0368,51627.3379,38806.0212,34175.2768,36203.5185,4885.0179,49038.8721,44207.0067,54978.2664,-2742.2458,-2981.9012,22884.6073
52751.1388,25227.2934,51627.472,38805.753,34170.0017,36205.4855,4884.4814,49034.3124,44203.1622,54980.278,-2747.342,-2988.0255,22884.3391
52740.6335,25229.7521,51631.853,38806.3341,34164.6373,36208.4359,4889.9353,49020.9013,44194.8026,54977.6405,-2749.0854,-2988.1597,22888.4965
52730.7093,25222.3313,51631.0483,38801.4168,34154.0873,36204.5467,4893.8692,49018.1744,44192.8804,54978.7134,-2755.3886,-2994.8652,22885.2779
52751.8094,25227.0252,51636.5021,38818.4488,34179.4342,36214.7838,4897.9819,49047.5893,44215.0086,54990.7833,-2737.3731,-2978.2355,22892.7881
52773.9376,25236.5023,51641.7325,38832.888,34202.8141,36225.4232,4903.9721,49061.2686,44224.9328,54998.3829,-2722.9786,-2966.4338,22901.8629
52766.8297,25236.0553,51637.6197,38819.0746,34192.6217,36224.5739,4901.5582,49047.634,44210.9853,54997.0865,-2733.2604,-2974.6592,22898.7336
52737.236,25231.719,51636.0104,38804.7695,34165.1738,36213.6662,4893.7351,49021.0801,44198.8707,54989.6657,-2749.4878,-2989.1431,22895.9173
52731.514,25230.7802,51636.0998,38805.7977,34161.4634,36208.3018,4893.2433,49020.9013,44210.4936,54988.9058,-2748.1467,-2986.2821,22899.2701
52750.1553,25236.6364,51638.6926,38815.7219,34186.542,36213.9344,4893.1986,49041.7778,44217.8696,54992.7056,-2735.2273,-2975.9109,22903.7404
52764.5499,25243.4313,51642.9394,38823.545,34201.026,36222.294,4897.8478,49052.5067,44229.4478,55002.4956,-2722.3974,-2965.8973,22909.8201
52763.3429,25237.5752,51643.6547,38820.1922,34191.5488,36222.2493,4898.4736,49048.5728,44227.615,55002.4509,-2723.7833,-2965.5844,22907.4508
52752.0776,25229.5732,51645.4428,38803.7413,34164.8161,36213.1745,4894.942,49032.5242,44209.6889,54989.0399,-2744.168,-2981.8565,22902.6675
52742.3322,25226.8463,51644.5041,38798.9134,34159.1835,36209.5535,4897.8478,49030.7361,44206.6044,54984.6143,-2753.5558,-2985.388,22899.4489
52755.3856,25235.0718,51642.403,38812.1903,34178.8977,36213.3533,4905.2238,49050.048,44214.9192,54990.7833,-2738.1778,-2969.9653,22902.9804
52771.7471,25241.2856,51643.4312,38825.199,34197.8967,36219.9694,4905.8497,49068.1529,44224.9328,54991.141,-2725.6161,-2961.9187,22904.098
52763.2982,25236.8152,51642.4924,38820.2369,34190.1183,36217.019,4900.8429,49065.6495,44218.4508,54990.4704,-2736.1214,-2970.5465,22897.4372
52753.6422,25233.7754,51641.1066,38808.4352,34175.992,36212.8615,4899.0101,49053.5796,44208.8842,54989.2187,-2753.4217,-2984.2705,22889.5247
52747.339,25234.7589,51636.5021,38812.3691,34174.8297,36215.812,4905.2238,49050.2268,44208.2137,54988.4588,-2747.4314,-2979.8895,22893.4586
52762.8064,25239.0504,51638.1562,38824.1261,34200.4001,36221.4893,4906.7438,49072.6233,44218.8531,54998.4276,-2730.0864,-2966.4338,22902.3099
52769.0649,25239.0504,51639.989,38831.9045,34207.9103,36223.5457,4906.1179,49082.011,44223.3235,55002.6298,-2724.4091,-2961.427,22902.3993
52754.8939,25238.4245,51638.6926,38828.4624,34193.7393,36217.1978,4902.1393,49074.6796,44213.8016,54998.6064,-2730.31,-2969.1607,22900.4771
52736.9678,25226.5781,51634.5799,38814.9619,34165.3526,36208.8829,4896.5067,49044.6836,44206.1126,54988.4588,-2744.8386,-2984.4493,22897.0796
52734.9561,25218.9785,51632.9259,38811.788,34158.2,36208.3912,4896.4173,49044.2812,44202.2234,54990.9621,-2747.8337,-2981.1412,22900.7453
52759.409,25225.5946,51634.8034,38827.0319,34180.1494,36219.2541,4900.1276,49065.1578,44213.5781,54994.8514,-2730.4441,-2965.8079,22905.0368
52772.4177,25228.2321,51639.0502,38834.2738,34196.2874,36223.1433,4898.563,49072.2656,44218.9872,54997.4889,-2718.2847,-2962.3657,22906.8249
52759.4537,25223.8512,51637.6197,38828.1494,34187.4361,36220.7741,4896.5067,49068.287,44211.5664,54992.8397,-2725.4373,-2970.5912,22906.4673
52729.9941,25223.0912,51633.1941,38809.7316,34162.5363,36214.6497,4892.841,49050.3162,44196.8143,54977.1935,-2741.8435,-2982.6611,22898.7336
52735.8949,25227.9192,51637.575,38812.3691,34168.2583,36219.4777,4896.1043,49040.0791,44205.5315,54979.4734,-2742.3352,-2979.219,22896.9455
52762.0018,25240.3468,51642.403,38821.3992,34192.9793,36232.1734,4902.4522,49064.666,44223.6811,54994.4043,-2728.3877,-2966.5679,22902.9804
52778.6762,25244.4595,51639.7208,38826.4954,34204.2446,36233.7381,4900.4406,49076.5125,44225.0669,54995.0302,-2719.0,-2961.1588,22903.9639
52769.7355,25242.4031,51636.6363,38823.3662,34193.8734,36229.5359,4895.3891,49065.426,44210.6724,54988.8164,-2725.8396,-2973.184,22899.4936
52753.8657,25234.4012,51634.8928,38811.6091,34169.7335,36229.4465,4893.2433,49051.3891,44195.8308,54982.6026,-2740.8153,-2986.9974,22897.8395
52750.7812,25234.0436,51635.3846,38807.0494,34165.8443,36234.3639,4896.1043,49049.7351,44196.9484,54981.4403,-2742.6481,-2984.3152,22897.0349
52771.3895,25245.0854,51642.3136,38814.202,34188.0172,36237.672,4899.2336,49073.9197,44214.0251,54987.3859,-2729.8629,-2970.8147,22901.3711
52780.1067,25247.4993,51640.1231,38816.3477,34193.9181,36234.6321,4898.6971,49087.7777,44225.1563,54992.348,-2722.2633,-2963.2151,22903.7851
52767.8132,25240.3021,51637.4856,38807.2282,34187.7043,36222.8304,4896.1937,49074.6349,44215.858,54985.4636,-2730.1311,-2973.0499,22902.3993
52745.2379,25225.0135,51632.4788,38801.7744,34166.649,36215.6332,4889.22,49043.9683,44192.5675,54971.9185,-2751.6782,-2993.077,22895.0232
52734.7326,25216.0728,51628.4555,38792.9231,34158.6024,36212.1016,4886.0461,49029.6632,44182.8221,54969.7727,-2754.0475,-2990.3501,22892.4304
52741.9299,25214.8658,51625.3263,38794.9795,34180.1494,36211.744,4887.9236,49043.4766,44184.5655,54974.1983,-2740.9494,-2976.4473,22893.3692
52746.2661,25218.0398,51626.265,38805.1271,34198.5673,36215.9461,4892.1704,49049.601,44184.2079,54979.4286,-2729.2371,-2971.2617,22893.3692
52734.375,25220.5431,51625.4157,38804.5907,34194.2757,36212.8615,4893.4668,49035.6982,44176.1166,54977.9087,-2731.8299,-2977.2967,22892.1622
52712.0233,25216.4751,51625.1028,38791.135,34171.7899,36202.8033,4893.3774,49013.9276,44159.5763,54974.4219,-2748.9066,-2993.7029,22886.2613
52701.6073,25217.7268,51628.1873,38784.8318,34163.3409,36198.1541,4895.7467,49003.4223,44151.3062,54973.1255,-2755.3439,-2997.3239,22886.4402
52715.0631,25230.6908,51631.1824,38789.0339,34178.7189,36197.3047,4900.3512,49014.5087,44160.0233,54976.1206,-2741.1729,-2983.287,22892.1622
52729.7258,25242.8055,51635.921,38801.8638,34196.645,36202.4009,4908.0849,49014.3299,44161.6327,54981.7979,-2726.1078,-2971.6641,22900.2088
52732.1845,25249.5557,51636.681,38800.2992,34192.4876,36199.8975,4912.287,49003.2434,44155.553,54978.9369,-2729.4159,-2978.1908,22898.1972
52703.6637,25242.4926,51630.0648,38787.1116,34164.5479,36186.6206,4908.8448,48976.1978,44136.9563,54968.3422,-2749.3536,-2994.9546,22886.0825
52689.001,25241.5091,51627.1144,38777.0087,34152.1204,36180.1386,4903.6145,48965.7819,44127.3004,54963.0672,-2757.5791,-2998.4415,22880.8522
52707.9105,25254.0708,51630.8695,38796.4547,34179.5683,36188.7664,4909.7389,48976.5108,44135.0788,54967.8504,-2737.2837,-2982.0353,22888.4518
52725.2108,25263.1009,51632.5682,38796.4994,34193.4711,36189.7051,4912.3317,48986.2114,44141.1585,54974.9136,-2730.31,-2971.7982,22891.2681
52715.6442,25261.4021,51631.7189,38796.0076,34182.8763,36188.2746,4914.5222,48975.3038,44135.7046,54970.2644,-2733.5733,-2978.4143,22892.0281
52688.9563,25251.7015,51630.0201,38791.8055,34158.5129,36187.157,4911.5717,48942.0891,44119.1643,54959.625,-2742.961,-2990.4395,22889.4353
52688.9563,25253.0873,51626.1309,38797.7511,34155.5178,36191.3592,4911.6611,48927.784,44109.3296,54953.0536,-2746.7608,-2997.8603,22887.1107
52702.5014,25254.2496,51624.164,38801.9085,34172.2816,36191.3592,4911.1247,48935.6965,44108.3014,54953.3665,-2734.4674,-2987.4444,22888.1389
52717.8347,25259.3458,51628.679,38808.9716,34183.5469,36192.2085,4911.4376,48941.5526,44117.8679,54961.1002,-2726.4208,-2977.1179,22891.2681
52702.0991,25252.4614,51627.3826,38804.4566,34170.0017,36187.1123,4910.1412,48931.0473,44107.2732,54955.4229,-2735.0485,-2985.7904,22887.1554
52675.0088,25243.6548,51623.404,38796.41,34145.8172,36186.7994,4907.1461,48906.818,44090.1965,54945.007,-2752.0359,-2999.7379,22881.1651
52675.4111,25243.029,51625.7286,38799.5392,34146.89,36190.5992,4903.7933,48888.8919,44089.0789,54939.3743,-2751.8123,-2995.5804,22882.1933
52695.2147,25247.0523,51629.7519,38809.4187,34169.51,36197.7965,4900.6641,48902.6159,44096.9467,54945.7669,-2733.5733,-2982.5717,22885.4567
52706.033,25246.8288,51627.0697,38811.6091,34168.8842,36200.7022,4900.3959,48914.2388,44099.5395,54950.6843,-2725.5714,-2978.5484,22887.3789
52699.2381,25248.5722,51626.8909,38811.5197,34157.3507,36199.7187,4903.7933,48911.4672,44098.8243,54948.4938,-2725.8396,-2978.8613,22888.7647
52687.3022,25243.5654,51626.3992,38806.6024,34137.9493,36197.7071,4903.0334,48883.9746,44091.9399,54939.5084,-2736.3896,-2991.8253,22884.652
52685.3353,25238.5139,51626.578,38799.6286,34131.1544,36191.2251,4900.4406,48869.6247,44083.1333,54934.5016,-2741.4858,-2997.6815,22884.5626
52703.7978,25233.4625,51627.785,38808.7928,34148.0523,36192.1191,4901.5582,48882.0076,44094.2198,54939.6425,-2729.3265,-2982.1694,22889.7035
52711.7997,25230.7802,51629.7072,38816.5265,34163.475,36192.432,4902.4522,48886.7015,44098.6007,54942.3248,-2716.8542,-2974.2122,22893.2798
52696.8688,25224.6112,51622.8229,38804.6801,34143.135,36184.1172,4898.5183,48871.0999,44089.6153,54938.525,-2728.8795,-2984.2257,22887.9601
52687.3469,25216.4304,51621.4818,38797.7958,34114.5247,36176.7411,4894.6738,48852.101,44069.9458,54930.5677,-2744.0786,-3001.1237,22880.0476
52688.5986,25216.8775,51622.2417,38791.3585,34106.1205,36174.2377,4890.7399,48845.8425,44070.7058,54928.7349,-2750.4712,-3003.0459,22879.9582
52704.1107,25216.9669,51624.9239,38801.4168,34126.3264,36184.2066,4892.3939,48857.1972,44088.6766,54936.9156,-2737.7307,-2989.8137,22886.7084
52715.5101,25219.202,51629.0814,38805.3507,34145.3701,36190.2863,4895.4338,48869.893,44096.6338,54944.5152,-2726.7784,-2979.8001,22891.4917
52703.1273,25219.4703,51628.0532,38799.1816,34130.4392,36183.849,4892.6622,48855.9902,44086.5308,54942.4142,-2733.7521,-2987.8467,22888.0942
52688.9116,25215.4917,51623.2699,38789.3021,34110.5014,36177.054,4888.1471,48828.8552,44074.8185,54935.6192,-2747.9678,-3001.5707,22882.1039
52695.3936,25212.9436,51622.5994,38783.893,34107.1486,36173.5225,4891.634,48827.1117,44069.0517,54931.3277,-2749.8007,-3003.8953,22883.8921
52718.0135,25216.3857,51627.0697,38794.0854,34125.1642,36180.3174,4897.1772,48854.4703,44087.0225,54942.8612,-2734.7356,-2990.976,22891.894
52737.8172,25223.4489,51629.9754,38802.2661,34142.0174,36184.6983,4902.5416,48866.6743,44103.8311,54953.8136,-2724.5879,-2977.9673,22894.7997
52734.0621,25225.3264,51630.6907,38796.9911,34137.5023,36176.0706,4899.9488,48862.3828,44102.0429,54948.8962,-2738.9824,-2984.0469,22889.8823
52724.5402,25225.997,51631.8977,38784.7871,34122.6608,36173.1648,4896.1937,48842.1768,44093.7728,54942.7271,-2752.9299,-2997.8156,22884.6967
52719.4887,25219.9173,51625.2816,38781.4343,34117.7434,36175.7576,4892.7516,48839.8075,44087.4696,54941.4307,-2753.6005,-3004.7894,22884.2497
52728.8318,25217.8609,51621.4818,38788.0057,34133.3896,36177.4117,4892.6175,48866.272,44097.5726,54948.4491,-2743.8551,-2995.6698,22885.0096
52733.8386,25216.6092,51623.9405,38793.0125,34150.511,36176.3388,4894.1821,48890.546,44107.8544,54956.1381,-2733.8862,-2986.148,22887.6472
52721.0981,25212.2283,51624.5663,38787.2458,34140.5421,36172.2261,4896.0149,48877.4031,44105.0828,54954.6629,-2735.272,-2989.3667,22887.3342
52705.2283,25204.9863,51624.5663,38785.5917,34117.0281,36166.057,4893.4668,48858.7171,44091.627,54946.3481,-2749.4431,-3003.2694,22879.5111
52705.8095,25202.4829,51625.9521,38787.5587,34109.6967,36162.9725,4893.9586,48852.5033,44089.8389,54941.4754,-2754.7628,-3004.6552,22881.5228
52724.4508,25210.1719,51630.6013,38794.8453,34135.1777,36169.1862,4902.3628,48870.1165,44108.5249,54952.8301,-2742.1117,-2991.7806,22886.6637
52726.8201,25211.826,51625.9968,38797.7511,34138.0388,36172.7625,4902.0499,48881.7394,44107.4073,54950.1926,-2730.3547,-2985.5669,22885.6802
52722.7521,25213.3906,51624.164,38795.2924,34131.3332,36176.2941,4899.9041,48883.5275,44104.9486,54943.7106,-2730.1759,-2987.7126,22884.8755
52707.1506,25208.652,51623.6275,38786.2623,34113.0942,36178.8869,4897.9819,48870.0271,44098.3772,54937.3627,-2741.7541,-3000.4531,22880.3158
52703.9319,25210.3508,51621.4818,38785.2341,34112.0213,36180.8985,4898.2054,48869.893,44105.6192,54937.3627,-2749.8454,-3002.9565,22881.4781
52720.8745,25215.3128,51620.9453,38797.9746,34147.0242,36184.0278,4899.5912,48893.6752,44115.454,54939.8661,-2741.0388,-2990.3054,22888.1836
52719.5334,25218.1739,51616.3409,38795.4265,34150.7792,36180.0492,4893.3327,48904.5382,44124.6182,54937.5862,-2740.2788,-2988.0702,22883.5791
52709.1175,25217.3692,51617.8608,38797.8852,34147.9629,36181.7032,4896.9984,48897.922,44119.7008,54938.1673,-2736.5685,-2988.7855,22885.1438
52695.3936,25211.6919,51616.6985,38792.3867,34129.411,36179.021,4892.8857,48884.8239,44098.5113,54929.0031,-2745.0174,-3000.766,22881.3887
52687.481,25211.2448,51612.8093,38787.4246,34118.0116,36174.1483,4884.6602,48880.5771,44082.9545,54922.1635,-2756.7297,-3007.0245,22875.8007
52703.3955,25224.79,51612.1387,38798.9581,34142.5538,36183.4466,4888.5047,48904.7617,44103.6969,54932.3559,-2741.2623,-2992.0489,22881.7463
52707.3741,25224.4323,51605.0309,38802.6685,34143.582,36186.9335,4884.0344,48914.4623,44110.9836,54931.5512,-2736.3896,-2990.0372,22878.7065
52699.1934,25220.4984,51600.7394,38791.8949,34135.9377,36184.6983,4877.5077,48906.9968,44108.1226,54926.7679,-2745.7327,-3002.8224,22873.1632
52684.173,25208.4285,51597.2525,38780.8979,34118.4139,36179.7363,4875.3619,48882.9911,44101.5512,54922.4317,-2758.6967,-3013.1489,22870.2128
52684.3965,25202.17,51597.029,38784.4741,34114.7929,36184.2066,4878.67,48873.6928,44104.8145,54921.4929,-2756.7297,-3009.5279,22871.2857
52708.4917,25206.4615,51600.9629,38803.6519,34148.0076,36193.3261,4886.0013,48901.8112,44121.4889,54932.1771,-2737.0155,-2994.3287,22880.4052
52716.8959,25202.4829,51598.1019,38804.993,34163.788,36194.2649,4883.3191,48911.5566,44121.936,54932.6688,-2729.0583,-2990.1713,22883.3556
52714.3925,25205.5228,51601.4099,38805.0824,34157.9765,36190.1969,4883.3191,48907.3098,44121.5783,54935.8428,-2732.6792,-2992.4065,22884.2944
52692.5772,25198.9067,51597.476,38786.2623,34125.9688,36179.3786,4879.877,48889.0707,44109.1061,54929.8078,-2753.1534,-3005.6834,22879.5558
52678.4062,25188.6696,51589.5635,38779.9591,34113.273,36169.5439,4875.7195,48881.8288,44096.9914,54928.109,-2763.0329,-3011.182,22875.3984
52694.6783,25191.0388,51590.8599,38788.6763,34137.9941,36173.3437,4879.7429,48895.9104,44107.6756,54934.4122,-2744.7045,-2996.6533,22877.7677
52707.9105,25197.4761,51595.6432,38799.9415,34160.4799,36180.8985,4882.4251,48906.371,44121.623,54940.179,-2728.3877,-2985.6116,22883.5344
52698.5228,25194.5704,51593.4527,38793.3254,34154.892,36174.9083,4882.2463,48901.1854,44115.901,54941.0731,-2734.7356,-2991.1995,22881.5675
52676.5287,25184.2886,51590.5023,38775.1758,34128.6063,36164.403,4876.8371,48879.7724,44101.9982,54936.3345,-2753.0193,-3007.2033,22874.4596
52678.1827,25181.964,51592.1116,38773.1642,34122.5713,36163.7324,4877.5077,48873.648,44104.6357,54933.5629,-2757.1768,-3009.7514,22875.2643
52693.3819,25183.931,51586.8813,38781.4343,34138.307,36166.9511,4876.6583,48898.7267,44115.6775,54938.7485,-2742.9163,-2998.5309,22876.0689
52699.0592,25181.6064,51586.7919,38783.0883,34154.579,36169.7674,4878.2676,48919.2456,44119.0749,54941.6095,-2734.1545,-2989.9031,22880.0923
52686.8105,25173.7386,51587.7753,38769.275,34139.1563,36160.5138,4878.0888,48910.439,44113.3529,54938.3014,-2741.6199,-2996.5639,22878.3488
52676.1264,25171.0117,51590.0105,38757.3838,34115.9552,36158.7703,4879.3405,48889.9648,44108.7931,54931.8194,-2755.8357,-3007.7398,22874.1467
52676.037,25173.5151,51590.4576,38757.652,34112.6025,36159.3515,4876.8371,48875.3468,44111.9671,54931.7747,-2756.685,-3007.9186,22874.9514
52691.9514,25178.7454,51591.5751,38766.101,34136.9659,36165.8782,4878.4018,48906.5051,44124.0817,54937.6756,-2745.0621,-2994.8652,22877.3654
52701.4285,25179.8183,51591.6646,38776.8745,34147.7841,36174.0142,4883.2744,48926.6664,44126.8981,54942.8612,-2739.9659,-2988.6514,22878.7512
52696.8688,25177.8513,51588.3118,38771.823,34139.6481,36163.0172,4881.978,48908.0697,44116.7504,54937.3627,-2750.9183,-3002.0624,22873.0291
52674.3829,25167.5248,51581.7404,38755.6404,34115.8658,36150.4108,4873.1714,48880.9347,44101.5512,54925.1139,-2772.6889,-3021.8214,22864.8484
52671.4325,25162.8757,51581.5616,38760.066,34118.4139,36157.6974,4878.5806,48881.6053,44099.6289,54927.9749,-2768.5761,-3017.1722,22870.2128
52691.0573,25171.3693,51579.9075,38771.0631,34144.4761,36166.1464,4879.7429,48899.4867,44111.4753,54938.0779,-2748.9066,-3001.7942,22878.0359
52704.9154,25170.8329,51578.03,38772.1807,34148.3206,36166.4146,4877.6418,48909.5449,44122.1595,54945.9457,-2741.2623,-2995.8934,22877.3654
52700.6686,25167.1672,51579.0135,38774.3264,34143.0902,36167.3534,4881.8886,48905.6557,44117.9127,54943.5318,-2745.6433,-3000.766,22875.7113
52685.5588,25165.1108,51579.9522,38765.9669,34125.8794,36163.9559,4880.4581,48884.3769,44106.9603,54933.2947,-2759.099,-3015.7417,22869.8552
52687.3469,25171.414,51585.272,38769.8561,34123.5101,36166.504,4878.6253,48889.4731,44106.8709,54933.7417,-2761.8259,-3016.8593,22868.9164
52703.9319,25180.1759,51590.8599,38781.6578,34147.4712,36176.1153,4881.4863,48912.3166,44121.8913,54937.4521,-2745.8668,-3000.3637,22874.9514
52709.341,25182.3217,51590.4129,38789.7044,34164.7267,36178.7528,4879.9664,48931.0473,44131.3684,54941.4754,-2737.1049,-2991.6465,22877.5889
52694.8124,25182.0534,51592.7821,38780.6296,34152.8803,36174.6401,4880.6816,48920.4973,44119.7008,54938.5697,-2745.4197,-2999.0226,22873.2973
52667.5433,25177.3596,51595.7773,38761.7201,34124.7618,36164.5818,4875.809,48900.9619,44105.6192,54938.3014,-2765.2234,-3014.4453,22866.6812
52668.8844,25184.8251,51595.9114,38769.9008,34125.79,36171.8684,4878.8488,48898.0561,44104.4122,54937.9438,-2768.3079,-3017.7981,22868.6929
52698.5228,25196.8056,51599.13,38789.9727,34154.7132,36184.6089,4884.5261,48922.2854,44122.83,54947.3315,-2747.2973,-3000.5425,22875.5772
52708.2682,25199.9348,51599.8453,38796.3206,34165.6655,36184.1619,4885.2861,48934.5789,44130.0273,54948.0468,-2735.6297,-2986.148,22878.93
52698.3887,25195.5986,51598.3701,38792.029,34153.1932,36183.6255,4886.806,48925.5488,44132.3966,54938.2567,-2742.8716,-2989.8584,22878.8406
52683.726,25190.5024,51599.0406,38777.7686,34136.0718,36179.5127,4884.9285,48916.2952,44123.4559,54942.6824,-2758.9202,-2999.6932,22875.8901
52680.6414,25190.413,51594.6597,38768.6044,34125.1642,36173.8354,4878.6253,48918.3515,44120.5949,54942.2801,-2767.0115,-3004.9682,22874.3255
52705.1389,25197.6997,51596.0455,38787.0222,34151.9415,36179.3786,4883.4085,48940.4351,44133.1565,54946.661,-2748.6831,-2991.3783,22882.9533
52720.5616,25201.1418,51600.2923,38801.9085,34170.3147,36188.7664,4889.5776,48945.4865,44148.1322,54953.59,-2733.2157,-2981.3647,22888.8541
52711.7997,25197.9679,51601.0523,38799.5392,34158.8706,36189.6157,4890.1588,48940.8374,44144.1983,54953.4559,-2742.8716,-2986.8186,22883.6685
52702.0097,25200.963,51606.7296,38794.8453,34146.1748,36189.0793,4895.2103,48930.198,44139.8174,54952.3383,-2753.6899,-2992.3171,22882.1933
52702.9485,25207.0874,51611.4235,38791.135,34147.6947,36185.1454,4900.0829,48927.4263,44140.3091,54950.3267,-2754.0028,-2993.6582,22888.0942
52725.2108,25219.0679,51614.4633,38801.5509,34175.8132,36192.9685,4905.4027,48950.0463,44159.7104,54960.832,-2736.1661,-2978.012,22894.3527
52734.822,25220.9455,51615.1339,38808.7928,34185.6927,36195.2037,4904.7768,48963.4126,44169.5452,54968.2081,-2724.9455,-2970.5018,22896.3643
52729.9494,25218.2633,51616.028,38801.9532,34173.5333,36191.0909,4902.184,48955.9472,44156.8941,54967.761,-2730.757,-2980.2471,22893.3245
52718.997,25218.6209,51621.5265,38793.1466,34162.0892,36191.0015,4902.8099,48934.6683,44151.7532,54969.4598,-2740.7706,-2989.3219,22895.2914
52720.204,25215.1787,51622.8676,38795.2924,34161.1058,36192.1191,4904.9109,48939.3622,44157.9223,54968.6998,-2744.2575,-2991.0654,22896.2749
52734.5538,25226.2652,51622.197,38807.8541,34179.3448,36200.121,4912.6446,48967.6148,44167.9806,54972.0526,-2731.5617,-2971.53,22901.237
52757.9784,25239.0951,51630.199,38824.5732,34201.026,36210.4923,4920.7807,48991.0841,44186.6219,54982.5579,-2715.9154,-2958.7895,22909.5072
52752.0776,25238.4245,51632.5682,38819.1193,34190.5206,36207.2289,4919.4843,48974.2309,44183.3138,54987.8776,-2722.7551,-2963.8857,22911.5635
52730.5752,25236.7705,51632.5682,38802.4002,34173.1757,36201.6857,4913.047,48949.0181,44174.0155,54979.6522,-2737.5519,-2976.6262,22907.3167
52728.653,25231.719,51629.0367,38791.0903,34166.6043,36196.4107,4907.3696,48943.8772,44167.0418,54972.589,-2742.4246,-2984.9857,22903.4275
52740.9911,25233.686,51627.4273,38799.0922,34180.1941,36203.295,4910.5883,48968.0171,44182.5092,54982.2003,-2726.8231,-2971.4853,22906.8249
52745.5062,25239.5421,51625.4157,38811.6539,34199.9978,36203.3844,4912.1529,48981.5176,44188.5442,54984.7037,-2717.7036,-2963.4833,22905.7968
52735.0008,25235.8317,51621.9288,38803.1602,34187.6149,36196.9024,4908.0402,48973.4262,44172.5403,54974.2877,-2731.1146,-2975.8662,22899.3148
52719.3099,25220.7667,51617.0561,38792.4761,34157.0824,36185.3242,4902.2287,48949.7781,44156.8047,54962.8884,-2751.7676,-2994.1946,22890.7764
52716.1807,25215.2681,51614.5974,38787.1116,34149.5723,36181.3009,4897.9819,48954.0696,44158.7269,54960.1614,-2757.2662,-2996.7427,22888.4071
52727.0883,25219.962,51609.3224,38788.721,34165.0397,36188.6322,4894.7185,48972.6216,44162.8844,54964.8553,-2747.8784,-2989.5455,22887.3342
52739.0689,25220.6326,51606.5508,38798.3769,34176.3943,36194.3096,4890.9187,48977.0472,44168.1147,54968.3422,-2743.5422,-2983.9128,22886.4402
52734.2409,25225.8182,51612.3176,38805.8871,34172.7734,36193.7732,4892.9751,48977.3154,44174.552,54972.5443,-2745.6433,-2985.7904,22887.3789
52721.8133,25226.444,51615.0445,38798.3769,34150.0193,36189.1687,4896.462,48969.8052,44163.1079,54971.2479,-2756.3721,-2997.6815,22885.7696
52722.6627,25232.5684,51620.8559,38797.0358,34149.1699,36194.4437,4901.9158,48969.9394,44165.8795,54980.6356,-2752.3488,-2995.8487,22887.6472
52750.7365,25247.5441,51629.8413,38815.7666,34184.4857,36209.3747,4912.9575,49003.7799,44189.3935,54991.0516,-2727.3148,-2973.9887,22899.3595
52763.5664,25259.8375,51636.9492,38827.7918,34207.955,36219.7906,4919.7972,49020.9013,44203.2069,54996.1478,-2713.9485,-2962.5893,22906.9591
52749.6189,25259.5693,51638.4691,38826.3613,34201.5624,36223.5904,4918.2773,49014.6875,44200.0777,54995.1643,-2721.1457,-2971.6194,22905.7074
52738.3536,25253.8472,51642.3583,38820.7734,34188.3302,36216.259,4920.4677,49008.2055,44188.6783,54988.2352,-2730.9805,-2977.5649,22906.9591
52736.2525,25249.1087,51643.8782,38823.0532,34189.3137,36218.4495,4922.7923,49002.3494,44185.0126,54986.0895,-2727.7619,-2973.8545,22907.0485
52762.4488,25262.7432,51650.852,38834.9891,34213.4535,36231.3688,4930.079,49032.8819,44198.5577,54997.8018,-2706.93,-2954.3638,22915.7656
52776.8433,25272.8462,51654.0706,38843.7063,34235.0006,36232.084,4930.5707,49049.4668,44212.9523,55001.3334,-2697.2741,-2946.3619,22919.5207
52774.7869,25270.5663,51658.0045,38847.2825,34225.2553,36240.6224,4930.3472,49047.4999,44212.997,54998.2488,-2700.9398,-2946.9877,22919.8337
52760.1242,25264.8443,51659.0774,38832.3516,34202.5459,36239.1919,4930.526,49022.913,44202.6705,54996.6395,-2719.9835,-2959.5494,22917.4197
52762.6276,25260.9998,51656.2611,38828.1494,34195.9745,36236.1521,4931.8671,49019.3367,44199.9435,54993.7785,-2726.9125,-2957.5378,22915.8551
52777.2456,25269.9405,51657.4681,38842.991,34219.1309,36244.8692,4935.1305,49040.4367,44216.6179,55001.0651,-2708.9864,-2940.5504,22924.7063
52792.4448,25278.8812,51659.6138,38853.9881,34234.5983,36249.2502,4936.7398,49058.5417,44225.9163,55004.999,-2699.1516,-2932.7273,22928.2379
52784.4876,25270.7005,51654.6965,38844.0192,34214.5264,36234.3192,4930.1237,49051.2997,44212.7734,55000.3946,-2713.0097,-2951.9945,22918.7161
52760.8842,25256.753,51652.8189,38825.7802,34194.0075,36224.1715,4924.1781,49029.4397,44201.5976,54993.9573,-2730.4441,-2971.53,22910.893
52759.2748,25262.1174,51658.0492,38828.9541,34197.1368,36229.8489,4927.218,49016.9674,44207.2302,54997.0865,-2731.7405,-2968.7136,22911.787
52778.9444,25265.9619,51659.9268,38837.9395,34215.0629,36239.1919,4929.319,49039.8109,44227.2574,55000.3052,-2723.828,-2954.6767,22912.9046
52793.2942,25266.9007,51660.3738,38846.8355,34230.262,36237.2249,4927.7991,49057.8711,44234.7229,54999.0535,-2711.9368,-2948.6418,22913.3964
52781.8948,25254.6519,51652.6848,38841.7393,34219.712,36229.983,4922.4794,49049.3774,44221.4012,54990.7833,-2720.3411,-2959.6835,22906.2438
52749.3507,25239.8551,51646.1134,38821.7121,34186.5867,36218.5836,4914.0751,49024.9246,44202.9387,54983.7202,-2738.1331,-2981.5435,22897.3478
52749.6189,25236.7258,51646.7839,38818.7617,34178.1825,36219.9694,4911.4823,49020.6331,44196.9037,54986.8494,-2739.1165,-2982.5717,22897.7501
52771.1213,25240.2127,51646.471,38830.1611,34201.6518,36222.8304,4913.0917,49035.2511,44207.9902,54995.8348,-2723.7833,-2966.2549,22904.098
52781.0007,25241.6879,51643.2077,38830.6081,34216.2699,36221.3552,4907.9508,49048.1257,44220.7754,54997.4889,-2720.3411,-2964.2433,22903.5616
52770.6742,25237.0834,51639.7208,38821.891,34205.4963,36216.3037,4902.6757,49045.5776,44209.4207,54993.6891,-2729.55,-2972.3346,22901.1923
52749.7083,25227.651,51635.5634,38811.9221,34186.855,36207.0501,4899.2336,49026.0422,44197.2613,54987.6094,-2744.7492,-2983.6893,22896.1408
52746.2661,25223.0018,51640.7043,38810.9386,34182.9658,36209.0617,4901.8711,49026.4446,44205.1739,54990.3363,-2747.9678,-2984.6728,22900.2982
52757.6208,25231.5849,51643.4759,38828.1941,34208.8938,36218.9412,4908.8001,49057.2453,44219.3449,55003.7473,-2727.5383,-2968.8478,22907.1379
52771.0319,25237.3964,51643.2077,38826.9871,34217.9239,36220.5952,4911.527,49066.2754,44229.7608,55006.1166,-2720.2964,-2960.8458,22909.0154
52773.9376,25238.7375,51645.3087,38829.8035,34211.7548,36226.0938,4915.6845,49057.5135,44221.6694,55002.2721,-2726.1972,-2967.5514,22909.8201
52757.7102,25234.9377,51645.8452,38820.0134,34185.3797,36218.8518,4916.3103,49035.0723,44204.0563,54998.3829,-2746.4032,-2981.2306,22907.0932
52756.0115,25234.4012,51643.0736,38817.5547,34184.9327,36219.8353,4914.0751,49031.9878,44203.1622,54998.7406,-2749.8007,-2983.4211,22907.272
52770.2272,25241.9561,51638.3797,38825.4672,34210.8607,36225.9597,4914.1198,49053.1772,44213.444,55001.7357,-2734.4674,-2969.2501,22909.7754
52774.7422,25245.8453,51642.3136,38830.2505,34220.0696,36229.0889,4913.8963,49068.3317,44220.4177,55005.4014,-2724.1856,-2962.9469,22909.0154
52756.0115,25241.6432,51639.8549,38824.752,34207.508,36220.4611,4907.012,49062.6544,44210.583,54994.8066,-2734.9144,-2975.7321,22899.6277
52743.5392,25234.1777,51638.5138,38821.3098,34184.9327,36215.6779,4907.8614,49038.7827,44206.0679,54991.8115,-2746.2244,-2983.734,22896.0961
52748.5907,25236.5023,51641.8666,38824.4838,34173.2651,36219.12,4909.3813,49037.4416,44206.4255,54991.0069,-2743.9445,-2982.8846,22897.4372
52768.7967,25243.4313,51643.5206,38833.648,34190.2971,36222.0705,4907.6378,49059.9722,44214.0251,54994.4043,-2732.0087,-2972.6475,22901.5052
52778.9444,25244.9512,51641.2407,38836.7772,34204.2446,36221.7128,4905.4921,49074.1432,44216.3944,55000.9757,-2723.2915,-2970.7253,22903.0699
52762.0912,25243.3419,51639.8102,38825.6907,34196.645,36216.0355,4904.151,49062.6991,44215.9027,54995.0749,-2731.0699,-2980.873,22901.8182
52745.2379,25234.9377,51640.4361,38812.3691,34171.3876,36210.8499,4902.4969,49046.3823,44203.0728,54990.4704,-2745.0174,-2989.5902,22899.2701
52753.5081,25235.2953,51644.2806,38824.752,34180.2835,36217.7789,4904.4192,49045.4882,44204.548,54993.242,-2742.067,-2987.9361,22902.6675
52771.6577,25242.6714,51645.3981,38838.7442,34205.8986,36226.0491,4908.3978,49073.3832,44220.9989,55004.2391,-2726.1525,-2969.2948,22911.3847
52778.0503,25245.1748,51644.6382,38844.0192,34217.0745,36229.8489,4911.7059,49095.3326,44228.7326,55012.9563,-2714.172,-2957.9848,22914.6928
52771.9259,25241.6432,51648.885,38841.337,34211.0395,36225.1997,4915.4162,49086.4813,44229.4478,55010.3635,-2721.7716,-2962.634,22912.7258
52752.7928,25233.686,51649.4662,38827.5236,34183.1446,36218.4942,4917.9196,49062.3862,44220.1495,55001.2887,-2736.7473,-2975.0615,22911.0271
52756.995,25234.2671,51647.9015,38827.0319,34182.0717,36221.3999,4920.2889,49067.8847,44220.8201,55000.7522,-2733.3498,-2973.7204,22909.373
52777.2009,25237.5305,51651.9248,38835.749,34202.1435,36227.5243,4925.7874,49088.3142,44233.9629,55008.0389,-2717.793,-2959.9965,22912.5023
52779.5255,25239.6315,51653.9812,38841.5605,34212.6489,36227.1219,4928.9614,49093.9915,44242.1436,55017.2031,-2708.7629,-2949.1335,22916.3021
52775.0105,25246.1582,51653.1765,38838.7442,34203.2164,36225.3785,4930.3025,49086.4813,44238.4779,55016.4878,-2715.6919,-2955.7049,22915.0951
52759.1854,25246.5606,51651.7907,38830.6081,34193.1581,36220.1482,4923.7758,49072.2656,44229.582,55006.8766,-2730.8017,-2968.9372,22907.9872
52755.0727,25245.5771,51651.9696,38824.6626,34192.8452,36217.1978,4922.3453,49066.1412,44223.6364,55004.6861,-2731.5617,-2972.2899,22908.2108
52775.0552,25253.9814,51656.2611,38838.4312,34218.9521,36229.7148,4928.6485,49089.8788,44240.9366,55014.6103,-2710.9087,-2956.0179,22916.8385
52785.6946,25258.3176,51658.4516,38846.0755,34229.5021,36233.8722,4927.8438,49106.2403,44246.9269,55019.4383,-2702.862,-2948.6865,22918.0902
52777.7821,25252.372,51661.9384,38842.9463,34211.129,36233.8722,4926.4133,49101.457,44241.1602,55019.3936,-2713.8591,-2957.6272,22916.3468
52762.8064,25240.0786,51658.9433,38830.7869,34185.8268,36223.188,4920.1101,49079.0159,44217.6014,55010.0505,-2730.2653,-2975.5086,22907.3614
52760.3924,25234.5353,51656.7081,38828.4624,34178.2272,36221.4446,4918.8584,49065.3813,44216.7968,55010.9446,-2730.9805,-2981.2306,22904.7686
52781.6713,25243.3866,51659.8374,38842.0969,34201.0707,36229.3571,4924.5358,49083.5309,44232.443,55020.5559,-2715.6919,-2963.6174,22909.9989
52791.6402,25248.9299,51660.642,38848.266,34213.4088,36233.7828,4928.5144,49106.3744,44242.8589,55022.6569,-2703.7561,-2950.877,22913.1281
52777.7821,25244.6383,51660.8208,38846.5673,34205.9433,36231.8605,4928.6038,49095.6455,44237.4498,55018.0078,-2710.104,-2961.2035,22911.8317
52765.3992,25229.2156,51661.0444,38837.6266,34190.3418,36225.1997,4924.491,49075.6184,44226.4527,55012.688,-2727.4042,-2977.2073,22905.5285
52757.9337,25229.1262,51661.8937,38830.1611,34183.0105,36227.4796,4924.9381,49074.6796,44225.6927,55011.3916,-2729.1477,-2978.3696,22907.1379
52765.2651,25237.6199,51663.9054,38837.1795,34207.4186,36230.1171,4924.8934,49105.1674,44236.6451,55014.1633,-2717.7036,-2963.4833,22910.0883
52780.1067,25246.3371,51666.9899,38848.3554,34223.5118,36234.7662,4928.8273,49119.1149,44249.4303,55018.4101,-2704.8737,-2948.5077,22912.7258
52787.1698,25250.5839,51669.8062,38854.8374,34223.333,36240.9353,4935.354,49112.767,44248.6703,55020.0641,-2704.4266,-2952.8886,22916.8385
52781.6713,25245.2195,51666.3194,38853.1387,34205.541,36244.9586,4932.4483,49101.3676,44241.6519,55012.5092,-2717.0777,-2965.4503,22914.4692
52770.2272,25244.9512,51660.5526,38849.6965,34195.2145,36243.1705,4930.5707,49093.5892,44236.511,55009.6929,-2720.7881,-2967.5961,22910.6694
52783.1912,25248.4381,51660.0609,38857.6537,34212.8277,36244.9139,4932.3142,49109.9954,44247.1057,55021.0476,-2707.1983,-2954.632,22913.5305
52790.4779,25247.6782,51660.5973,38863.4652,34227.6245,36242.7682,4933.0741,49128.0109,44261.5449,55023.0145,-2695.4412,-2947.703,22914.2904
52769.8696,25237.0834,51655.9482,38850.3671,34212.2018,36227.569,4928.9167,49109.6377,44254.0348,55015.6385,-2706.6618,-2956.8672,22912.0106
52757.3079,25227.3381,51654.3388,38839.4147,34189.8501,36223.6798,4927.6203,49079.15,44233.4265,55005.8931,-2721.9504,-2971.3064,22906.6908
52763.7005,25230.5567,51656.2611,38841.2476,34188.5537,36224.0374,4928.0673,49083.7097,44228.8667,55003.345,-2723.7386,-2969.9206,22905.5285
52777.6927,25235.6976,51653.9812,38846.0308,34207.2397,36227.3008,4927.7097,49104.0498,44235.6169,55005.6696,-2715.7813,-2956.2861,22909.2389
52787.9745,25246.5606,51652.2378,38853.541,34218.4156,36234.7662,4931.3307,49110.4871,44250.9055,55011.3469,-2705.4995,-2947.703,22914.0669
52787.1698,25254.3837,51654.0706,38859.7548,34216.0016,36238.0743,4931.5989,49107.0449,44245.8987,55008.8882,-2703.4879,-2952.4863,22912.6811
52776.8433,25253.4449,51652.7295,38847.1931,34197.9861,36235.3474,4929.4978,49093.6339,44231.3254,55000.6628,-2718.5977,-2962.7681,22905.3944
52778.4526,25254.6966,51652.5507,38842.7228,34185.6927,36236.5991,4926.2345,49083.1286,44227.3468,55001.1098,-2719.6258,-2964.5562,22906.5567
52796.0658,25260.3292,51656.127,38856.8938,34207.508,36244.2881,4923.8652,49101.1441,44238.6121,55004.4179,-2704.2925,-2957.1801,22911.1612
52808.2699,25268.957,51659.6586,38865.6557,34224.2718,36248.982,4925.0722,49121.3053,44251.129,55009.9611,-2695.5307,-2945.4678,22914.0669
52798.4351,25269.1358,51657.8257,38857.2961,34212.3806,36243.1705,4921.9429,49110.0848,44244.5129,55008.2177,-2707.7794,-2954.7662,22912.3235
52774.8317,25260.5081,51658.7645,38843.1698,34183.7704,36237.359,4914.7457,49090.3258,44236.1087,55000.0817,-2724.4538,-2968.3113,22910.3565
52777.4692,25255.8589,51662.8772,38843.3486,34176.9755,36241.0694,4916.2209,49085.4532,44231.6383,54999.8581,-2724.722,-2967.149,22911.2953
52791.8637,25259.4352,51659.5244,38853.4963,34193.6946,36244.6904,4917.6514,49102.7534,44238.0756,55004.0603,-2711.3557,-2955.9284,22913.6646
52799.3292,25268.7782,51662.7431,38862.1688,34218.4603,36250.9936,4922.837,49123.6746,44245.2729,55009.9164,-2701.0739,-2946.3619,22917.2856
52789.5391,25262.4303,51659.7033,38852.2893,34204.9152,36246.0762,4923.3288,49112.2305,44235.6616,55005.0884,-2711.311,-2954.2744,22914.2904
52771.613,25252.5061,51658.5857,38841.7393,34186.095,36239.2366,4922.6582,49088.8059,44213.7569,54994.7172,-2732.7687,-2964.6009,22907.2273
52760.1242,25247.097,51657.5128,38840.6664,34183.2787,36235.7497,4924.1334,49079.3288,44208.3925,54992.035,-2731.3828,-2965.4503,22909.8201
52769.2884,25254.9201,51658.0045,38850.4565,34204.6022,36240.7118,4926.5027,49097.2102,44217.6014,54999.0088,-2711.8027,-2954.4085,22917.5538
52773.7141,25259.5246,51658.5857,38856.3126,34224.4953,36238.9684,4930.3472,49108.386,44216.1262,55002.2274,-2703.2644,-2945.8702,22919.6995
52753.5975,25255.8589,51656.2164,38846.2543,34210.8607,36226.6749,4929.8555,49094.6174,44208.5266,54999.3664,-2715.6025,-2956.152,22913.4411
52737.9513,25257.96,51660.5079,38838.3865,34191.817,36219.0306,4932.8059,49073.4726,44191.9416,54997.7124,-2731.6958,-2967.5066,22910.6694
52738.4877,25258.8987,51662.1172,38834.9444,34184.5751,36219.3435,4936.7845,49062.7885,44185.102,54995.7454,-2732.6792,-2965.4503,22910.893
52744.6121,25257.3788,51660.5079,38839.9065,34200.7577,36221.3999,4936.6504,49071.7292,44183.7609,54996.3713,-2720.5199,-2958.4765,22910.4906
52749.1719,25259.0775,51656.7081,38842.4993,34215.3311,36220.9976,4936.1587,49073.2491,44184.4761,54996.863,-2711.6686,-2952.8439,22911.9211
52746.2214,25261.2233,51658.0492,38844.8238,34213.8112,36222.0258,4939.869,49061.3133,44180.5422,54997.1312,-2712.7862,-2954.632,22912.0553
52728.1612,25259.7481,51660.642,38835.4361,34193.8287,36216.2143,4937.8127,49029.0374,44163.1079,54987.0282,-2727.6725,-2965.3609,22905.305
52720.6957,25263.682,51662.0725,38831.9939,34192.9793,36216.2143,4939.9585,49016.6545,44156.4918,54985.4636,-2727.6725,-2963.4833,22906.4673
52729.8152,25273.2933,51660.3291,38840.2194,34221.366,36222.9645,4949.0333,49033.7312,44160.5151,54990.5151,-2713.412,-2955.3026,22913.7987
52741.5723,25277.3613,51658.228,38847.1484,34231.2455,36224.2162,4950.1956,49038.291,44170.8416,54992.348,-2702.5938,-2948.8206,22916.7044
52732.9445,25277.7189,51656.5293,38839.9959,34211.3078,36218.3601,4947.2451,49022.7789,44161.588,54988.0564,-2710.7298,-2959.013,22914.5139
52711.9786,25271.9074,51654.7412,38830.2952,34181.9823,36214.0238,4941.9254,48993.5428,44140.8902,54980.9933,-2725.2138,-2974.1675,22909.0154
52708.3129,25266.9901,51654.16,38832.7986,34174.6956,36212.7721,4936.114,48982.814,44140.7114,54977.1935,-2730.1311,-2979.9342,22906.4673
52728.8765,25281.2952,51656.6187,38851.2611,34202.1435,36222.1152,4943.3559,48997.0744,44157.2517,54986.5365,-2712.4733,-2960.9352,22915.5868
52746.6685,25294.3486,51658.0492,38865.9686,34221.7684,36228.9101,4945.5017,49009.5466,44165.656,54993.1079,-2702.9961,-2951.0111,22922.4265
52734.3303,25284.4691,51659.7033,38862.5711,34212.2912,36226.362,4944.9652,48996.1803,44163.1079,54987.4306,-2706.8853,-2954.945,22918.6267
52720.651,25270.9687,51660.6867,38854.3904,34184.0386,36221.1317,4943.8477,48971.3252,44147.104,54983.4967,-2719.1341,-2964.4668,22914.1563
52719.8911,25274.1426,51659.2562,38842.7675,34172.4157,36218.673,4941.2549,48960.641,44141.829,54978.2664,-2721.1905,-2965.8973,22911.6976
52738.6218,25276.646,51659.748,38855.4186,34191.3253,36225.1997,4943.8924,48976.6449,44152.4684,54985.0166,-2703.5773,-2951.4134,22918.7161
52745.2379,25275.8414,51664.0842,38865.7004,34205.8986,36237.8061,4949.2568,48994.4816,44155.3295,54990.0234,-2690.4792,-2943.8585,22924.5722
52740.3206,25277.9871,51663.7713,38857.5196,34188.3749,36229.3124,4947.7816,48978.0307,44144.6453,54986.7153,-2700.6269,-2953.738,22920.1913
52720.7404,25264.4867,51661.5808,38848.4001,34163.7433,36218.3601,4943.3559,48958.7635,44132.5754,54980.725,-2719.0447,-2965.2715,22914.5139
52717.8794,25257.9153,51658.4069,38844.6003,34155.8754,36207.6312,4938.1703,48944.5478,44130.832,54975.9418,-2726.4208,-2968.4901,22914.5139
52728.6977,25261.8045,51652.5507,38848.2213,34174.8297,36206.8266,4934.1023,48948.437,44138.2527,54979.2051,-2718.0612,-2963.081,22914.3798
52740.7229,25261.4468,51649.2426,38844.1533,34178.2272,36208.4359,4931.9565,48961.1775,44136.554,54978.624,-2714.5743,-2958.4318,22915.1398
52734.2409,25254.1602,51650.7626,38836.3302,34166.7831,36196.4554,4930.2578,48952.7285,44129.8485,54978.0875,-2722.6657,-2965.7185,22912.0553
52725.032,25248.5275,51649.5556,38838.4759,34152.6568,36192.7897,4931.3754,48936.7694,44123.9476,54970.2197,-2733.4392,-2973.4075,22909.1942
52716.0019,25241.062,51644.6382,38829.267,34144.029,36189.2134,4922.7923,48918.1727,44120.729,54963.1119,-2743.5869,-2980.7389,22901.8182
52734.1515,25251.7015,51646.2028,38839.7276,34162.8939,36189.3922,4923.0158,48922.7772,44134.0059,54970.488,-2727.8513,-2970.0547,22904.9921
52757.5314,25258.9434,51649.4215,38848.4895,34178.406,36198.6011,4932.0012,48942.1785,44141.2479,54984.659,-2712.0262,-2960.7564,22912.3682
52748.2778,25255.0542,51648.9744,38842.5887,34170.4935,36198.3329,4931.5095,48934.9812,44132.2625,54979.5181,-2719.3576,-2965.5844,22910.3565
52731.7375,25253.132,51648.1251,38827.1213,34140.2292,36189.4816,4926.5027,48910.439,44119.522,54970.3091,-2737.239,-2982.4376,22904.6792
52730.7987,25250.0474,51648.7956,38821.9804,34143.4926,36192.2085,4922.2112,48899.7102,44120.9078,54970.5774,-2739.206,-2981.8118,22904.1874
52755.0727,25256.3506,51653.713,38835.2126,34173.8909,36204.3679,4927.5309,48922.0172,44130.2508,54980.4121,-2721.1905,-2963.5727,22913.0834
52768.3496,25263.682,51653.9365,38842.544,34190.5206,36207.9442,4930.079,48940.4351,44137.2246,54986.0001,-2709.5675,-2958.5212,22916.7044
52756.4585,25259.8375,51648.5721,38832.4857,34174.8297,36202.848,4925.4745,48939.9433,44134.6318,54981.2168,-2720.3858,-2968.1325,22910.8036
52734.7773,25253.6237,51646.0687,38821.8462,34150.1981,36197.7965,4921.8088,48914.3729,44125.1993,54980.5462,-2735.2273,-2978.459,22903.7851
52730.7093,25251.8356,51645.3981,38823.8579,34146.3983,36198.7799,4923.1946,48904.9405,44127.1216,54982.7814,-2729.5053,-2975.5086,22905.6627
52744.031,25248.0358,51641.8666,38827.5236,34163.7433,36198.3329,4922.1218,48921.8831,44134.9447,54985.0613,-2719.2235,-2966.0314,22908.2555
52750.9153,25247.5441,51642.8053,38834.0503,34178.4507,36197.26,4925.251,48943.2961,44145.2712,54990.2022,-2710.6404,-2956.3308,22911.2059
52745.2379,25242.0455,51641.0172,38829.3564,34173.9804,36190.9121,4925.6086,48929.9744,44135.9729,54985.6871,-2720.6987,-2962.2763,22905.5732
52735.8502,25240.9726,51644.6382,38823.1426,34159.8541,36191.2698,4924.7146,48904.404,44117.1974,54977.6405,-2734.8697,-2974.3463,22900.1194
52734.1068,25237.9328,51644.4594,38823.7238,34148.6782,36193.952,4923.0605,48900.5148,44117.7785,54974.2877,-2734.0204,-2979.7554,22896.5878
52745.7744,25240.2574,51641.643,38832.3069,34166.5596,36200.2552,4922.7029,48921.8831,44129.2226,54979.2498,-2719.2682,-2969.6077,22898.0184
52760.3924,25246.1135,51644.3253,38839.5041,34188.1067,36206.2454,4923.4629,48943.1173,44139.4597,54984.0331,-2710.7745,-2958.2977,22900.8794
52753.9551,25250.0474,51649.1085,38843.6615,34179.7918,36205.7537,4927.5756,48945.2183,44143.483,54985.4636,-2709.7017,-2961.7399,22903.651
52731.8269,25247.097,51644.7723,38830.7422,34152.478,36202.3115,4928.0226,48928.2757,44134.14,54978.4005,-2725.4373,-2975.0168,22901.2817
52730.0835,25249.2875,51645.1746,38829.267,34153.8638,36203.0268,4927.0391,48929.5721,44133.7824,54979.7416,-2731.3381,-2972.2899,22897.9737
52749.2613,25256.0824,51647.0969,38840.13,34180.4177,36210.6711,4933.0741,48962.1162,44144.8241,54986.4471,-2716.0048,-2957.8954,22902.4887
52767.9473,25263.2797,51649.1532,38855.3292,34200.8919,36219.1647,4935.9351,48976.6002,44157.5646,54988.1458,-2701.655,-2948.7759,22907.1379
52761.1077,25263.2797,51647.4545,38853.1834,34188.4643,36219.7012,4934.3258,48963.9938,44146.9699,54985.2401,-2706.9747,-2954.9003,22904.7686
52747.0708,25258.4964,51648.5721,38843.5721,34164.995,36221.7128,4930.2578,48947.9005,44135.7493,54980.0545,-2723.9621,-2968.1772,22902.2205
52751.8541,25257.6917,51649.7791,38841.2923,34164.1009,36223.7245,4927.0838,48949.5993,44138.521,54977.9534,-2727.8513,-2968.4901,22903.2487
52763.5664,25266.4983,51646.6945,38851.8423,34180.9988,36226.0044,4926.9497,48969.5817,44152.692,54981.5744,-2716.4966,-2959.4153,22904.5451
52777.0221,25271.1475,51649.1532,38861.8112,34197.7179,36232.9781,4930.079,48992.6487,44157.967,54987.1176,-2705.723,-2951.324,22907.7637
52774.6081,25263.0115,51644.9958,38850.8588,34185.7821,36231.3241,4927.7991,48981.3834,44158.9057,54980.8592,-2714.2167,-2958.7895,22903.9639
52754.6704,25254.7413,51644.5041,38838.6548,34166.9619,36224.395,4925.0722,48958.7635,44147.5064,54973.7513,-2723.828,-2964.6456,22901.6393
52741.7064,25250.6733,51647.231,38834.9891,34161.7763,36221.5787,4922.8817,48959.4787,44148.0875,54978.177,-2725.6608,-2964.3774,22904.7686
52753.4187,25260.4187,51649.3767,38845.7179,34182.3399,36220.9082,4925.8322,48982.814,44163.8231,54989.0399,-2714.1273,-2956.3755,22911.34
52769.6013,25271.6392,51652.1484,38856.5361,34199.9531,36225.8703,4932.18,49007.7138,44182.4198,54998.07,-2702.0127,-2947.7477,22918.3137
52765.4439,25274.5003,51652.5954,38853.2281,34197.6732,36223.2327,4933.1635,49001.6341,44177.9047,54995.3431,-2708.0476,-2948.463,22917.822
52748.1437,25271.8627,51654.92,38840.9346,34179.6577,36215.5437,4933.8341,48978.1201,44163.8231,54990.6045,-2721.414,-2959.9071,22914.8269
52743.9862,25267.0795,51655.7693,38835.4808,34179.2107,36214.7838,4936.3822,48977.4495,44159.7998,54991.3645,-2725.1691,-2962.9022,22911.5188
52762.3594,25274.1873,51652.5954,38847.506,34198.9696,36222.3834,4939.1091,49004.5846,44166.4159,54994.4043,-2711.0428,-2947.3901,22914.0222
52770.6295,25276.6013,51649.1979,38850.3224,34212.2018,36220.1035,4938.0809,49010.0831,44174.8649,54996.416,-2703.1302,-2941.5339,22914.0669
52761.1971,25273.338,51647.3651,38838.4312,34204.9152,36213.5768,4936.6057,48993.2746,44170.6628,54992.1244,-2716.7201,-2952.0392,22910.8483
52753.2399,25268.6441,51647.6333,38832.9774,34179.2107,36208.57,4939.1985,48971.9063,44164.3149,54991.9456,-2724.6326,-2959.013,22908.479
52753.5975,25263.4138,51646.2922,38832.3069,34178.8083,36209.0617,4935.7116,48967.3465,44163.5996,54992.348,-2728.8795,-2961.6058,22906.3332
52768.5732,25263.7714,51647.1863,38834.7208,34202.0094,36215.0967,4934.7281,48984.9597,44170.5734,54998.1147,-2715.4237,-2947.2113,22912.0553
52774.0717,25270.7899,51647.9909,38841.337,34215.4652,36218.0918,4937.6339,49005.9704,44178.7094,55005.3567,-2702.2362,-2939.0752,22917.2856
52760.4371,25264.2184,51645.6664,38834.4079,34204.6022,36213.6215,4935.1752,48999.1754,44177.5471,55002.5403,-2709.4334,-2947.3454,22913.0387
52748.0543,25256.8424,51647.9909,38823.5897,34184.441,36212.9509,4935.5328,48977.0472,44171.6015,54997.8465,-2719.447,-2954.185,22911.0718
52747.8307,25260.6422,51653.6683,38823.4556,34177.1543,36214.292,4936.114,48978.5671,44162.3032,54998.9641,-2723.5597,-2955.6602,22909.6413
52770.3613,25273.8744,51656.127,38848.5342,34207.4633,36219.433,4942.8195,49001.7682,44175.6696,55005.312,-2706.1701,-2940.6399,22919.2078
52778.3185,25278.4342,51650.9861,38853.7198,34226.9093,36220.327,4944.8758,49012.81,44183.8503,55004.2391,-2697.6764,-2933.4873,22920.996
52769.5566,25271.0134,51650.7179,38847.0143,34223.9588,36215.4096,4942.4618,49002.5729,44178.4859,55002.4062,-2707.4218,-2941.7127,22919.5654
52747.786,25256.4847,51649.1085,38834.0503,34189.0454,36210.7605,4935.6669,48977.0025,44170.7522,54996.416,-2724.3197,-2959.1471,22913.754
52737.0572,25252.3273,51650.9414,38830.9658,34181.1329,36208.9276,4937.4104,48971.7275,44173.7026,54997.4889,-2727.4936,-2957.4037,22915.0057
52744.6568,25256.1718,51648.5274,38833.0221,34198.6567,36209.7323,4936.7398,48987.8207,44185.6384,55001.4228,-2716.9436,-2948.7312,22916.7491
52757.9337,25257.8259,51650.8073,38839.3253,34207.7315,36208.7935,4936.4269,48993.2746,44193.5956,55007.4577,-2709.9699,-2942.428,22914.3798
52749.5742,25254.4731,51653.266,38839.9065,34204.1105,36204.949,4935.1752,48986.2561,44186.0408,55002.7639,-2714.1273,-2945.6913,22911.2059
52733.4809,25249.7345,51652.7742,38834.542,34186.4973,36207.3183,4933.0294,48973.9627,44174.1496,54996.9524,-2724.9902,-2958.0742,22907.0932
52730.6646,25248.7063,51653.713,38825.3778,34179.5683,36204.055,4935.3093,48968.9559,44169.8581,54992.795,-2733.618,-2964.4668,22906.1544
52742.0193,25246.65,51653.2212,38830.9658,34191.5935,36206.5583,4934.4152,48988.7148,44176.0719,54995.9242,-2720.0729,-2953.5145,22910.1777
52743.0475,25249.5557,51652.2825,38835.302,34205.1387,36212.0569,4931.733,48998.3708,44187.6948,55000.0817,-2707.69,-2941.668,22911.2953
52744.4333,25247.7676,51651.7013,38841.024,34199.1931,36215.7673,4930.8389,48993.6322,44183.9397,54998.6959,-2709.0311,-2948.5524,22911.6529
52734.2856,25242.6267,51651.4778,38837.8948,34177.1096,36210.984,4929.4084,48979.4612,44171.6462,54990.4704,-2723.2915,-2959.6835,22906.9144
52724.4508,25241.062,51649.0638,38831.1446,34172.2369,36204.3679,4924.6699,48977.7178,44160.6492,54987.0729,-2732.2322,-2962.8128,22904.858
52735.2691,25246.1135,51646.2028,38830.7422,34191.9512,36205.6643,4922.2112,48993.9898,44168.517,54989.8446,-2724.0068,-2956.6437,22907.4955
52748.1437,25248.2593,51643.9676,38834.7656,34200.4448,36203.1609,4915.5951,48999.8013,44176.6083,54989.0399,-2713.2332,-2954.7662,22906.6461
52753.374,25246.5606,51645.8005,38837.0454,34193.1581,36205.8431,4917.0703,48997.2085,44174.7755,54986.6259,-2716.2284,-2957.2248,22905.0368
52728.34,25239.7209,51641.4195,38825.6907,34170.7617,36199.3164,4917.115,48975.572,44161.8115,54976.6123,-2733.3945,-2969.4736,22899.9853
52719.2652,25240.5256,51639.989,38821.7568,34171.924,36197.3941,4919.4396,48970.2523,44156.3576,54975.1818,-2737.999,-2974.5251,22894.5762
52741.6617,25242.9396,51639.7655,38833.0221,34191.9959,36204.4573,4920.1101,48988.3572,44166.2371,54980.4121,-2726.5549,-2962.0528,22899.4042
52756.0562,25250.9862,51643.2077,38842.2757,34204.5575,36209.017,4921.4959,48998.1472,44177.0107,54984.8825,-2718.1506,-2952.2628,22898.1525
52750.0659,25254.6519,51645.6664,38840.8005,34196.5556,36207.2289,4919.2607,48994.3027,44180.4081,54987.3412,-2724.4985,-2960.0859,22895.3809
52745.7744,25258.407,51648.2145,38839.2359,34181.8929,36208.5253,4922.2559,48982.3669,44174.9096,54989.2187,-2731.3381,-2968.8925,22898.9571
52748.2331,25262.5644,51652.5954,38835.6149,34173.9804,36211.2075,4927.9779,48980.7129,44174.2837,54993.6891,-2731.8299,-2967.4619,22902.9357
52765.6674,25266.0513,51654.4729,38840.7558,34197.7626,36216.9743,4932.18,49011.4242,44188.9912,55000.0817,-2720.5199,-2958.1189,22907.719
52780.7772,25269.717,51652.7742,38847.4613,34214.6605,36220.8635,4935.801,49018.6661,44199.8988,55005.4461,-2709.2099,-2946.6301,22911.9211
52772.6412,25269.2252,51655.2329,38846.5226,34207.0609,36219.0306,4937.9021,49010.843,44199.1389,55011.6152,-2711.8474,-2950.2511,22914.9163
52754.4916,25265.2466,51656.6187,38840.2194,34186.5867,36217.6001,4938.7962,48991.2182,44184.0738,55010.7211,-2720.5646,-2955.4367,22914.0222
52747.4284,25253.2214,51649.0191,38830.7869,34175.5003,36212.191,4932.94,48982.2775,44172.3615,55003.5238,-2728.5665,-2964.9585,22906.9591
52756.9056,25256.9765,51647.4098,38833.1115,34193.4264,36210.1346,4930.1237,49000.7401,44184.7444,55007.9942,-2718.6871,-2956.2414,22909.8648
52769.646,25260.9998,51653.4001,38847.5955,34217.9686,36220.5952,4933.387,49021.7954,44199.273,55015.6385,-2705.723,-2946.7642,22913.5752
52763.7452,25258.6305,51651.9248,38842.0075,34208.1338,36216.259,4931.0625,49018.9791,44193.5062,55014.208,-2711.4898,-2952.6204,22911.6529
52744.7462,25250.7627,51648.1698,38829.0882,34187.5702,36206.9607,4926.6815,48998.3261,44182.0621,55005.2673,-2730.1311,-2966.4338,22908.6578
52739.3371,25249.1087,51644.6829,38825.0202,34181.0882,36202.535,4922.6135,48990.8159,44177.9047,55002.138,-2735.7191,-2969.3395,22907.5402
52757.1738,25257.2894,51644.1017,38836.3302,34200.3554,36209.9558,4925.9216,49015.671,44189.4829,55004.6861,-2720.207,-2953.6039,22909.1495
52768.6626,25262.0727,51642.1348,38843.1698,34213.5429,36212.1016,4929.2296,49028.5009,44200.6141,55003.7473,-2711.0875,-2947.2113,22908.926
52765.0416,25257.6917,51641.0172,38842.231,34202.0094,36211.0287,4929.8555,49017.0121,44197.9766,55003.3003,-2714.7084,-2952.6651,22908.3002
52747.6966,25251.5674,51644.5488,38830.027,34179.3895,36206.6478,4930.1237,49002.8858,44188.723,55000.4393,-2728.6112,-2964.1539,22902.5334
52747.6966,25250.4945,51650.1367,38829.8482,34177.7802,36209.1064,4933.4317,49012.4971,44184.4314,55005.9378,-2731.0252,-2964.6903,22903.1593
52763.2982,25251.5674,51654.7859,38841.2029,34197.0921,36215.2755,4934.3258,49033.1948,44196.6355,55010.587,-2718.1506,-2951.5922,22908.0766
52771.5236,25257.2447,51658.7198,38848.0425,34219.265,36221.3552,4932.5824,49045.22,44210.0465,55012.9563,-2711.9368,-2948.5077,22910.133
52762.4935,25266.0066,51661.2679,38847.059,34212.2018,36224.8868,4935.8457,49033.7312,44203.6539,55013.5374,-2718.5082,-2949.9382,22912.1894
52737.7278,25264.129,51659.0774,38836.7772,34186.1397,36220.1482,4933.1635,49011.7818,44194.0874,55006.5637,-2730.6676,-2960.7117,22905.7968
52735.4479,25264.9784,51662.8325,38828.9541,34177.1543,36219.4777,4930.9731,49017.1909,44194.8026,55009.38,-2728.5665,-2958.5212,22905.9309
52759.0066,25270.4769,51662.9666,38843.1251,34205.0493,36227.7478,4933.8341,49038.2463,44210.8512,55018.0525,-2709.8805,-2945.1549,22910.9824
52777.8715,25267.7053,51660.0609,38857.1173,34229.8597,36232.3076,4933.1635,49049.5116,44212.4605,55014.7444,-2704.5608,-2940.014,22909.1495
52772.82,25261.9386,51663.6819,38857.5196,34230.3067,36230.9664,4935.4881,49047.7681,44203.5198,55015.3255,-2708.6735,-2947.4795,22910.6247
52750.7812,25254.1602,51658.8092,38846.6567,34206.5692,36220.1929,4932.0906,49025.774,44195.3838,55008.5753,-2725.7055,-2961.6058,22905.9756
52744.2992,25250.8968,51650.539,38842.1416,34192.577,36214.6944,4927.8438,49023.8965,44192.9251,55001.1098,-2726.7337,-2963.1257,22901.1029
52759.5431,25255.0542,51648.438,38845.9861,34205.1834,36216.4825,4926.5921,49045.6671,44206.8726,55008.9329,-2714.9767,-2950.117,22905.2156
52769.959,25256.2165,51650.0473,38853.7645,34221.6343,36218.5389,4924.7593,49060.5533,44213.9357,55007.5471,-2712.7415,-2948.91,22904.7239
52760.9736,25250.8074,51649.6003,38854.3904,34215.197,36215.7226,4924.4463,49051.1656,44214.1593,55006.1166,-2716.3625,-2955.1685,22905.0815
52747.2496,25243.1184,51650.0473,38843.438,34185.1115,36209.4641,4919.3501,49031.7643,44205.1739,54998.517,-2729.6841,-2964.4668,22904.1874
52743.1816,25240.8385,51644.8617,38839.1912,34178.6742,36203.8761,4915.5056,49018.845,44195.7861,54993.242,-2736.479,-2971.2617,22900.4323
52760.6606,25245.6665,51647.678,38848.266,34196.1086,36213.5321,4915.7739,49035.5641,44206.515,54998.6064,-2723.6491,-2962.4104,22904.411
52774.3846,25251.7909,51650.9414,38855.5527,34216.6275,36220.9529,4919.5737,49058.9887,44222.5188,55005.759,-2714.7084,-2952.3522,22908.1213
52765.2651,25249.1534,51653.4448,38849.0707,34203.4847,36218.6283,4924.4016,49059.8828,44220.5071,55005.3567,-2722.308,-2959.1024,22906.6461
52750.9153,25247.4099,51655.0541,38838.9677,34179.3001,36211.5651,4924.4016,49040.7944,44212.3264,54999.1876,-2730.9358,-2971.9323,22903.8745
52754.9833,25251.9697,51656.0376,38845.0027,34185.9609,36218.226,4926.2792,49034.4465,44212.3711,54999.277,-2729.0136,-2968.1325,22901.7735
52775.6363,25257.2,51659.8374,38861.4088,34213.1853,36232.2628,4932.2248,49056.2618,44224.4858,55005.5355,-2707.6453,-2948.2841,22911.34
52787.4827,25256.4847,51661.402,38865.3427,34223.8694,36233.604,4933.5212,49066.5883,44225.2904,55012.5986,-2703.0408,-2944.5291,22915.7656
52783.9065,25257.0212,51659.0774,38864.091,34217.3874,36231.19,4934.5493,49062.4309,44226.0951,55017.2478,-2709.7464,-2953.8274,22916.7044
52767.9473,25245.7559,51656.7528,38848.5342,34188.9113,36231.19,4929.4084,49041.3308,44215.6792,55007.9495,-2723.6044,-2967.5961,22909.8648
52760.6606,25241.3303,51659.748,38845.3603,34187.8831,36233.4698,4926.5921,49029.3056,44212.997,55009.4247,-2723.6044,-2967.2831,22911.2059
52768.8414,25240.6597,51656.127,38849.3836,34206.4351,36232.9334,4925.8322,49048.7069,44220.5518,55010.3635,-2715.4684,-2956.6437,22912.7258
52781.8501,25244.1466,51653.4448,38849.473,34216.0016,36228.6866,4926.2792,49074.8584,44227.0786,55012.2857,-2710.3275,-2951.0558,22912.0106
52774.2058,25246.8735,51649.8238,38848.5789,34210.6819,36225.0656,4927.4415,49067.3482,44224.1728,55010.4529,-2708.7629,-2959.5494,22913.9775
52753.6422,25243.0737,51647.231,38834.0056,34182.6975,36218.8965,4921.0936,49044.4154,44208.2137,55006.206,-2725.1244,-2970.8147,22907.4061
52748.8142,25236.5023,51642.1795,38826.3166,34167.2748,36204.9937,4911.3929,49037.8886,44202.4022,55001.4675,-2740.0106,-2976.9391,22896.6773
52761.3312,25237.0387,51638.6032,38839.817,34190.7442,36205.5749,4911.3929,49058.6758,44217.1544,55004.9096,-2726.0631,-2962.5893,22898.0631
52779.302,25252.9979,51642.8053,38847.6402,34211.8442,36215.5885,4916.4444,49074.9031,44227.6597,55016.1749,-2714.2167,-2953.2015,22901.3711
52780.2855,25256.3953,51649.645,38847.3272,34203.2611,36221.6681,4919.0819,49065.1131,44224.9775,55013.9397,-2716.5413,-2961.2035,22902.6228
52760.5265,25244.683,51650.2261,38842.7675,34187.5702,36218.4495,4919.8866,49049.3327,44210.7618,55007.5918,-2731.6958,-2974.6145,22899.0465
52753.0611,25247.1864,51645.8005,38842.231,34189.8054,36212.9956,4917.7408,49051.5679,44202.6705,55007.5471,-2732.5898,-2974.4357,22898.1972
52772.6859,25259.2117,51650.1367,38857.6537,34212.7383,36220.9529,4923.5523,49076.2889,44223.2788,55014.9232,-2715.6025,-2958.4318,22904.2768
52785.4711,25263.7714,51653.3554,38864.8957,34227.9375,36225.0209,4924.1334,49084.7826,44233.337,55014.4762,-2704.7396,-2951.5028,22907.3614
52778.6762,25256.8871,51650.4496,38857.162,34215.644,36222.4728,4920.736,49081.2063,44226.5868,55010.3635,-2714.1273,-2956.2414,22905.1262
52759.9454,25250.9862,51652.5507,38841.024,34189.6713,36219.2094,4920.1101,49061.4921,44220.7307,55009.6929,-2733.8862,-2967.5961,22898.2866
52752.7481,25247.097,51653.2212,38832.9327,34187.4808,36211.7887,4913.3152,49053.7584,44211.9688,55005.312,-2741.4411,-2975.4192,22892.8328
52766.0251,25244.0125,51649.4215,38843.7957,34205.9433,36219.3882,4913.6728,49072.6233,44219.8366,55007.6813,-2727.1807,-2965.1374,22897.8395
52773.2223,25243.9678,51645.1746,38846.6567,34216.9851,36225.8703,4913.494,49082.1451,44218.8084,55005.8931,-2722.2633,-2960.5776,22897.6607
52767.8132,25237.7987,51648.6615,38838.6548,34205.6751,36216.3484,4914.5669,49080.8487,44215.8133,55006.4296,-2727.3595,-2967.0596,22897.169
52746.4896,25229.7968,51644.6382,38823.5897,34172.6393,36203.3844,4909.2025,49057.5135,44202.894,54996.9971,-2741.9329,-2979.1296,22889.9717
52739.7394,25230.1991,51640.0784,38816.5265,34170.8958,36202.6244,4906.1626,49047.0082,44198.826,54995.7901,-2746.4479,-2984.2257,22888.0942
52763.2535,25236.9046,51643.9676,38831.9492,34197.852,36211.431,4912.2423,49068.3764,44217.3332,55004.7755,-2727.6278,-2966.9255,22895.7832
52782.2077,25247.3652,51649.6897,38853.9881,34217.0745,36221.0423,4920.2889,49085.1402,44231.3701,55011.3469,-2714.8873,-2953.2015,22901.5052
52774.8764,25248.5275,51651.9248,38856.1785,34210.7713,36221.2658,4920.4677,49078.7923,44224.6199,55008.9329,-2719.5811,-2956.7778,22900.6112
52755.3856,25248.4828,51651.4778,38837.5372,34188.1514,36214.2026,4919.7525,49064.7107,44212.9523,55003.5238,-2736.032,-2969.7865,22897.0796
52761.4653,25254.6072,51654.2494,38840.577,34186.1397,36220.4611,4926.7262,49068.734,44219.5237,55008.9329,-2731.204,-2965.1374,22904.1874
52779.7937,25268.1524,51658.1386,38857.7878,34214.6158,36227.7925,4930.3025,49093.3657,44232.443,55018.5442,-2710.5063,-2950.0276,22911.9211
52790.4779,25268.4206,51661.6702,38864.0463,34229.1445,36229.4018,4929.5425,49099.0877,44242.3671,55022.7463,-2695.6201,-2936.6165,22913.1281
52779.4361,25263.5479,51659.9268,38860.2912,34219.2203,36220.3717,4924.6699,49086.3919,44234.5887,55015.3702,-2703.4432,-2942.6068,22907.3167
52768.0367,25262.8773,51656.574,38851.5294,34201.6518,36217.1978,4921.5406,49069.6281,44221.6694,55009.7376,-2718.9106,-2955.2132,22903.9639
52765.578,25260.5975,51657.021,38845.1815,34196.7791,36224.3056,4920.8701,49070.9692,44217.7802,55007.5471,-2720.9222,-2961.4717,22903.1146
52786.7228,25266.1407,51655.6799,38852.7811,34216.4487,36228.5078,4921.0489,49090.6835,44234.0076,55012.0175,-2710.4616,-2952.7098,22904.098
52795.6188,25271.7286,51657.781,38866.818,34227.8033,36234.5874,4922.9264,49102.217,44245.2282,55024.5792,-2696.8718,-2938.7623,22911.1165
52783.4594,25266.9007,51652.6848,38864.3593,34205.3622,36229.983,4916.1762,49090.5941,44229.8949,55018.0525,-2703.7561,-2950.117,22904.1427
52764.371,25252.1038,51649.332,38845.1368,34179.4789,36215.812,4909.2919,49060.0169,44210.0018,55002.4062,-2728.343,-2970.9935,22895.0232
52757.7102,25243.3419,51649.2426,38843.1251,34175.0979,36216.4825,4907.1014,49050.1374,44213.891,55004.5967,-2731.1146,-2972.3793,22895.8279
52769.7355,25238.0222,51643.7441,38843.3039,34192.0406,36220.4164,4908.8448,49074.7243,44228.0173,55013.2692,-2718.0165,-2956.0626,22902.8463
52783.1018,25240.6597,51637.9327,38849.1154,34211.0395,36217.7342,4910.7671,49087.286,44239.6402,55013.895,-2709.8358,-2950.9217,22907.2273
52767.0085,25238.5587,51633.3729,38841.1134,34202.9035,36211.8781,4906.7885,49074.6796,44226.0504,55002.4509,-2718.7318,-2962.3657,22899.3148
52741.304,25226.444,51629.5284,38823.4556,34173.3992,36202.9374,4901.4688,49044.8177,44207.3196,54997.4889,-2735.0932,-2979.7554,22892.5645
52740.2759,25227.5169,51627.3379,38829.4905,34173.3545,36206.9607,4901.9605,49041.7778,44203.788,54993.9573,-2734.1992,-2979.3531,22892.7433
52759.5431,25240.0786,51635.3399,38851.5741,34203.0823,36225.0209,4910.633,49073.1597,44221.4459,55003.7473,-2711.3557,-2957.8954,22902.7569
52776.3069,25243.8784,51640.3019,38853.8092,34217.4321,36228.9995,4914.3881,49102.4852,44237.6286,55012.7327,-2696.38,-2947.3901,22907.5849
52774.027,25247.857,51642.7159,38847.9084,34210.9501,36227.4349,4915.7739,49108.7437,44235.3934,55014.5209,-2703.2644,-2952.8439,22906.7355
52762.2253,25244.9512,51644.8617,38833.8268,34185.9162,36216.4378,4915.148,49088.3589,44225.1116,55008.4412,-2719.8493,-2965.9867,22901.5052
52760.4818,25244.9065,51644.3253,38832.7092,34183.1446,36216.3484,4914.2092,49077.0936,44222.0271,55005.9825,-2724.5879,-2970.4124,22900.3429
52782.8783,25255.3672,51650.092,38845.8967,34209.609,36226.3173,4920.5124,49095.8244,44234.4546,55008.7094,-2706.2148,-2954.0509,22905.7521
52792.0425,25255.5907,51653.5789,38847.1484,34220.5614,36228.1948,4920.5571,49109.8613,44238.8356,55015.0126,-2700.5821,-2944.5291,22908.1661
52780.1067,25251.165,51651.9696,38837.6266,34207.9103,36219.0306,4916.9362,49102.0381,44234.7229,55012.0622,-2714.4849,-2954.632,22904.7686
52761.6888,25243.7443,51651.8801,38830.2952,34188.8219,36214.7838,4917.6514,49079.9993,44222.3847,55006.0719,-2727.2701,-2964.9138,22903.3828
52756.5479,25237.2175,51647.3204,38830.9211,34182.6975,36216.2143,4916.0868,49071.0586,44210.4042,55002.6745,-2730.7123,-2968.6242,22901.9523
52773.0435,25242.9843,51642.9394,38840.6217,34198.3885,36219.2988,4915.4162,49090.147,44229.8055,55007.9495,-2716.7201,-2952.7992,22904.8133
52780.956,25249.3769,51641.2407,38846.5673,34211.0395,36220.3717,4916.6232,49103.111,44240.4896,55008.3071,-2708.6735,-2945.9149,22905.1709
52770.0931,25246.8735,51642.7606,38845.8967,34204.7364,36220.327,4917.115,49095.2879,44235.3934,55004.2391,-2710.5957,-2949.8488,22906.1097
52755.1174,25234.2224,51639.5867,38836.509,34182.2505,36217.9577,4911.08,49074.0538,44218.272,55000.6181,-2723.828,-2963.5727,22902.4887
52753.1505,25223.1807,51636.8598,38831.3681,34169.7335,36219.2094,4904.151,49060.0169,44206.202,54995.9242,-2732.1428,-2972.1558,22898.5995
52764.9969,25224.6559,51634.6246,38834.855,34186.2291,36221.3552,4900.7535,49071.1033,44216.9309,55002.2274,-2719.0447,-2967.1043,22899.7618
52775.4128,25233.7307,51634.6693,38836.062,34199.1037,36224.708,4901.0664,49090.9517,44222.6529,55001.8251,-2715.6025,-2960.7117,22897.2584
52773.4011,25236.0106,51639.3185,38838.2077,34194.544,36227.7031,4900.2618,49090.147,44222.34,54995.6113,-2722.308,-2967.0149,22897.169
52757.6208,25228.9027,51640.2125,38828.82,34178.0037,36223.501,4896.7749,49066.186,44210.9853,54985.866,-2735.3168,-2980.4707,22892.9669
52755.028,25227.3381,51641.643,38819.3429,34170.1359,36225.7361,4897.6243,49058.7652,44212.997,54988.2799,-2737.5072,-2978.1014,22893.6821
52777.4692,25235.8317,51647.5439,38829.9376,34196.5109,36231.6817,4903.9721,49091.4881,44230.029,54998.1594,-2720.0282,-2956.2861,22902.5781
52789.1368,25242.1796,51653.9365,38839.6382,34215.8228,36231.4582,4911.08,49117.6844,44235.5722,55004.3732,-2709.2099,-2945.2443,22909.7307
52772.373,25241.5985,51654.4729,38834.2738,34206.8374,36226.1832,4912.4211,49105.7485,44224.754,54998.2488,-2714.5743,-2951.0558,22908.0766
52752.167,25237.4858,51655.0094,38825.6013,34183.5469,36216.9296,4911.7506,49071.8186,44205.5762,54987.967,-2732.4557,-2962.9916,22903.8298
52744.3439,25240.4362,51658.6751,38823.2768,34184.3069,36214.5156,4917.7408,49058.7652,44199.3177,54987.6541,-2732.4557,-2962.3657,22903.8745
52762.0912,25248.1699,51656.0376,38835.9725,34208.715,36222.294,4923.6864,49077.5406,44214.9192,54994.8514,-2712.3392,-2950.6981,22909.1048
52768.6179,25250.5392,51654.3835,38838.7889,34217.9239,36219.0306,4923.9993,49089.7447,44216.9309,54998.1147,-2706.7512,-2946.496,22911.2506
52750.513,25240.2127,51647.678,38831.2787,34205.8092,36211.8334,4919.5737,49068.1529,44197.7531,54992.0797,-2722.5316,-2957.7613,22906.7802
52729.0553,25234.7142,51649.6897,38820.9969,34189.5819,36204.8596,4921.9877,49039.6768,44182.9562,54991.3645,-2731.6958,-2966.8361,22903.8745
52719.2205,25237.307,51647.3204,38816.6159,34182.8316,36197.6177,4923.9099,49024.8799,44175.5801,54987.9223,-2731.6958,-2972.0664,22900.7453
52735.0903,25244.5042,51646.3816,38826.8977,34199.8637,36195.5613,4929.7214,49034.0441,44176.966,54994.1808,-2720.1176,-2959.3706,22905.6627
52744.1204,25254.8754,51646.2922,38841.1582,34216.7616,36201.1492,4930.3919,49041.6437,44178.5753,54994.002,-2708.9417,-2948.1053,22910.9377
52729.5023,25259.0328,51646.8734,38836.7325,34208.715,36197.3494,4928.1567,49022.7342,44167.8911,54985.553,-2714.3508,-2955.7049,22909.2389
52706.1671,25256.7977,51640.1678,38819.477,34181.7141,36184.5195,4920.3336,48988.0443,44146.0758,54975.2265,-2734.7356,-2971.2617,22903.7851
52696.8241,25250.271,51638.8267,38810.1339,34176.9308,36181.3903,4918.0537,48978.88,44137.8951,54973.349,-2739.2507,-2973.184,22901.9076
52716.0913,25250.8074,51639.3632,38820.5051,34200.9813,36188.6322,4919.7525,48994.571,44147.104,54978.4005,-2724.4091,-2963.5727,22902.6228
52723.5568,25249.8686,51637.2621,38827.7918,34202.2777,36194.3543,4917.8749,48991.5758,44152.5131,54981.038,-2717.1224,-2959.1024,22901.997
52705.7648,25248.6616,51636.368,38821.8462,34182.5187,36195.0248,4917.3385,48974.8567,44146.0758,54974.1983,-2724.9455,-2966.9702,22897.929
52698.7463,25248.3487,51638.2903,38822.0251,34170.4041,36191.0909,4919.8419,48957.1989,44130.1167,54966.5093,-2733.7521,-2976.1791,22894.0845
52696.4664,25253.2214,51643.5653,38827.8365,34166.9172,36195.6507,4924.3569,48953.6226,44124.7523,54971.9185,-2727.2254,-2970.4571,22896.409
52717.8347,25263.235,51644.9958,38836.4196,34183.3234,36209.0617,4928.9167,48963.6809,44136.107,54978.4005,-2710.4616,-2954.5426,22903.8745
52731.3799,25267.7053,51649.0191,38842.7675,34194.7675,36214.5156,4930.2131,48969.8946,44146.1653,54981.9767,-2703.3091,-2944.1714,22907.5849
52722.1262,25261.3127,51648.1251,38838.8783,34177.6907,36206.3348,4923.8205,48946.2465,44141.9631,54975.9418,-2715.1555,-2954.5426,22902.3099
52698.3887,25245.89,51639.5867,38826.1378,34149.304,36196.5001,4914.1645,48909.4555,44124.8417,54960.2062,-2734.6909,-2972.0217,22893.548
52687.9281,25238.0669,51636.5021,38824.2155,34147.203,36192.0744,4910.0518,48901.1854,44115.9457,54953.8583,-2735.1379,-2973.7204,22894.308
52708.7152,25243.2972,51633.9093,38828.6859,34164.9055,36190.8674,4910.4989,48916.5634,44129.1779,54960.8767,-2720.8775,-2963.841,22900.5218
52716.9406,25242.4479,51628.4108,38831.2787,34174.0251,36191.0909,4907.5037,48922.7772,44127.0769,54961.3684,-2713.6356,-2962.3657,22899.0912
52702.7696,25234.9377,51626.3992,38826.6295,34160.8375,36185.1901,4903.8827,48908.8297,44118.0468,54958.1945,-2722.4422,-2969.6077,22897.0349
52686.7658,25226.0864,51623.9405,38814.202,34130.618,36172.7625,4897.356,48883.6616,44105.2169,54949.8796,-2732.2322,-2981.6777,22893.4139
52684.4412,25219.962,51623.7617,38808.7928,34118.101,36169.7674,4896.6408,48872.9328,44101.283,54949.3432,-2735.7191,-2982.7058,22891.4469
52706.4353,25222.9571,51622.5994,38816.0348,34142.0174,36176.3388,4901.8264,48901.3195,44116.8398,54954.3947,-2722.8445,-2968.1772,22894.2186
52722.5286,25225.5499,51621.3924,38816.8842,34155.0708,36177.3223,4898.9207,48904.7617,44118.4938,54957.1663,-2719.6258,-2961.9187,22895.4703
52727.133,25225.4158,51623.7617,38824.1708,34156.5013,36176.2494,4901.9158,48893.0494,44109.7766,54956.004,-2722.9786,-2964.8244,22892.341
52706.5694,25218.0398,51625.8627,38814.0231,34136.2953,36172.6284,4903.3463,48876.822,44103.6522,54953.0089,-2733.7521,-2980.5601,22890.6423
52700.9368,25222.7783,51626.5333,38807.7646,34133.7919,36174.4165,4902.2734,48868.9989,44102.7135,54956.5852,-2732.4557,-2978.906,22892.0728
52716.9853,25233.1495,51628.4108,38816.4371,34147.2924,36181.5691,4907.0567,48890.3672,44113.7552,54968.1187,-2718.3741,-2965.495,22899.0018
52734.7326,25239.1845,51630.3778,38824.5732,34164.1456,36184.3407,4911.6164,48914.0153,44121.2654,54971.6502,-2708.45,-2959.013,22902.3546
52733.1233,25242.0008,51634.0882,38818.8958,34165.7996,36182.9102,4911.2588,48906.7733,44123.1877,54967.314,-2716.4519,-2962.7681,22900.2982
52716.9406,25237.2175,51633.507,38800.2992,34146.4877,36177.0093,4905.3133,48885.2262,44108.6143,54957.1663,-2732.5004,-2977.4755,22895.2467
52713.722,25239.9445,51633.6858,38804.4566,34138.8881,36187.2464,4909.2025,48888.4896,44115.3198,54959.2674,-2735.272,-2978.0567,22897.3925
52736.2078,25248.6616,51633.1047,38814.5596,34156.546,36196.5895,4914.7457,48919.0221,44134.4082,54968.4316,-2720.4752,-2966.1208,22903.0252
52746.0873,25250.5839,51631.8083,38822.1592,34172.8628,36197.5282,4917.115,48935.5177,44143.4383,54974.8242,-2711.8027,-2959.1024,22905.8862
52743.0922,25242.0008,51633.2835,38817.7782,34161.9104,36190.9568,4915.4162,48920.4973,44138.6104,54974.6901,-2721.8163,-2964.6009,22901.3711
52722.3498,25231.0485,51635.0716,38807.4964,34142.375,36181.7479,4914.1645,48906.0134,44127.658,54975.9418,-2734.6462,-2975.2851,22897.7501
52709.2963,25222.823,51635.0716,38802.2214,34133.5237,36175.0871,4912.0188,48902.2136,44124.8417,54972.4549,-2739.9212,-2982.4823,22896.8561
52733.1233,25229.9309,51640.2125,38809.3293,34154.579,36177.6799,4918.7243,48919.782,44139.2362,54980.1439,-2720.7434,-2969.0266,22903.0252
52753.821,25237.9328,51639.9443,38817.3312,34170.1806,36182.1055,4921.5406,48933.1931,44148.0875,54984.7931,-2710.5957,-2960.0859,22907.9872
52744.478,25243.1184,51633.8199,38818.6276,34167.5431,36184.2066,4918.2326,48919.2456,44144.3324,54977.4617,-2719.0447,-2962.9916,22905.5285
52722.0815,25234.3565,51631.5848,38811.6986,34143.6267,36181.1221,4915.0139,48896.1339,44129.312,54970.6221,-2732.5004,-2974.2122,22903.3381
52709.341,25225.9076,51627.2932,38805.2166,34130.7968,36176.6517,4908.8001,48891.8424,44124.5288,54964.0059,-2740.5918,-2984.4046,22899.0465
52727.4013,25239.0504,51630.0648,38815.8113,34159.5858,36185.3689,4910.4989,48911.9142,44131.9495,54972.0079,-2725.6161,-2972.6923,22903.2934
52747.786,25246.3371,51628.1873,38827.3895,34180.7306,36190.1969,4913.047,48935.2942,44148.5792,54978.5793,-2713.0991,-2958.6554,22904.098
52737.6384,25243.4313,51630.2437,38819.7005,34171.164,36187.6488,4911.1694,48937.3058,44145.6735,54973.6172,-2725.6161,-2969.3842,22900.7453
52717.6559,25235.8317,51629.5731,38805.2166,34144.4314,36179.1551,4904.2404,48920.2291,44126.8533,54962.0837,-2743.0952,-2985.6116,22888.8988
52718.4159,25238.5139,51627.8297,38797.9746,34130.0368,36174.9083,4901.8711,48908.8744,44115.901,54962.7542,-2751.4547,-2992.5406,22882.5957
52737.0125,25244.9512,51628.232,38816.7053,34158.2,36186.3077,4906.6991,48926.1299,44126.7192,54968.7892,-2735.1826,-2977.8779,22888.0942
52749.3507,25250.1369,51623.3146,38825.4672,34166.7831,36193.5943,4905.9391,48941.2844,44133.7377,54971.7844,-2727.5383,-2971.53,22886.5296
52744.8803,25241.062,51618.8443,38819.2981,34148.8123,36187.8723,4897.4901,48929.6168,44124.1711,54962.9778,-2739.6977,-2982.3482,22878.5276
52730.0388,25229.9756,51618.576,38806.0212,34130.8415,36182.0161,4890.4717,48901.4536,44116.1245,54953.4112,-2759.9484,-2997.5474,22875.9348
52730.3964,25226.3546,51617.2796,38798.8687,34130.9756,36184.9219,4887.1636,48898.3244,44109.866,54949.9243,-2764.0164,-3000.4531,22875.3984
52747.0261,25231.272,51620.9006,38813.3079,34150.2428,36199.4952,4892.3939,48934.8471,44124.0817,54963.0225,-2743.8551,-2983.3317,22883.9815
52751.4517,25235.4741,51626.2203,38824.7967,34168.4818,36207.1395,4894.8973,48952.505,44142.8572,54966.4646,-2725.3032,-2968.803,22890.8658
52747.8307,25232.7919,51630.6013,38821.5333,34167.9454,36207.4077,4895.5232,48948.437,44146.2994,54965.9729,-2732.8134,-2973.0946,22891.894
52736.3867,25232.1661,51630.9142,38815.9454,34151.5839,36204.5914,4897.8478,48926.4876,44143.2595,54964.0059,-2747.4314,-2982.9293,22890.3294
52734.1962,25229.4391,51630.6907,38813.6208,34152.9697,36205.5302,4901.2005,48923.0901,44143.9748,54960.5191,-2744.1233,-2978.5931,22892.2069
52750.3788,25229.5732,51631.3165,38820.8628,34173.0863,36209.33,4904.4192,48949.2416,44152.7814,54967.0011,-2726.3314,-2964.9138,22897.5266
52765.8015,25237.8434,51632.2106,38824.4838,34188.1961,36207.5418,4903.7039,48964.0832,44157.6093,54967.6269,-2719.8941,-2955.8837,22898.2866
52760.7054,25239.3186,51630.199,38819.7452,34181.0435,36204.6808,4907.2355,48960.954,44154.7036,54965.3023,-2728.9689,-2964.288,22894.5315
52742.6451,25231.8084,51628.9026,38804.546,34158.1106,36196.0083,4905.4921,48942.402,44146.657,54961.7261,-2743.2293,-2979.4425,22890.8211
52728.34,25223.9853,51630.0201,38795.0242,34147.7841,36186.7547,4902.1393,48933.1484,44148.5792,54961.6367,-2749.2195,-2983.6893,22890.8211
52736.8784,25232.3449,51631.7189,38802.4449,34170.4935,36188.9899,4903.2569,48954.1143,44161.9456,54967.314,-2738.9377,-2972.5581,22893.5033
52751.1835,25243.4313,51631.6295,38809.5975,34179.4342,36186.3971,4905.2685,48963.815,44166.3712,54973.1255,-2730.2206,-2967.5066,22893.0116
52741.3934,25246.7841,51630.0201,38804.9036,34170.5382,36180.1386,4905.4921,48954.3378,44156.1788,54975.2712,-2740.1894,-2972.6028,22888.9883
52723.1097,25236.6364,51629.1261,38793.7725,34152.2992,36170.8403,4904.0169,48932.6119,44145.2712,54970.8009,-2761.3789,-2988.562,22884.0709
52716.2254,25233.5966,51625.4604,38781.5684,34145.0125,36170.125,4899.9488,48924.2971,44141.5161,54965.3023,-2768.8891,-2994.5076,22882.2827
52738.7112,25239.1845,51627.7403,38793.5489,34172.0581,36181.2562,4904.2404,48953.8908,44158.2352,54974.1536,-2746.4032,-2976.5368,22890.4188
52755.3856,25241.6879,51632.4341,38804.6801,34193.2029,36184.5642,4907.459,48970.4758,44165.7901,54984.9719,-2733.7968,-2963.8857,22893.8162
52750.0212,25240.4362,51632.7918,38801.0144,34175.7685,36181.882,4906.1179,48960.194,44165.6113,54985.866,-2744.3469,-2968.8478,22890.5976
52733.3915,25240.3021,51631.9424,38793.9513,34156.2331,36177.2329,4904.8215,48942.5361,44157.6988,54979.6969,-2756.0145,-2980.426,22890.6423
52726.1049,25238.4692,51629.5731,38784.2059,34150.6898,36174.3271,4902.184,48939.1387,44154.2566,54975.6289,-2764.9999,-2985.9692,22889.3459
52743.0475,25244.996,51630.199,38794.9795,34172.1922,36180.3174,4905.2685,48951.1639,44164.4043,54981.8873,-2750.6053,-2975.0168,22893.548
52763.0299,25248.9299,51632.4788,38810.8492,34193.337,36189.7498,4910.8118,48974.6779,44172.8085,54988.2799,-2732.724,-2961.3376,22900.8347
52757.9784,25249.4216,51626.1309,38808.9269,34184.7092,36189.6157,4908.4872,48963.2785,44164.6725,54980.9933,-2735.5403,-2969.5183,22898.8677
52735.8502,25243.2078,51630.0201,38796.1864,34168.2136,36181.2115,4907.2355,48947.0959,44149.6521,54972.8125,-2750.5159,-2980.5601,22894.7103
52726.5072,25240.168,51633.7305,38801.8638,34164.8161,36183.5808,4908.7107,48945.9783,44155.7765,54975.2712,-2744.481,-2979.7554,22895.9173
52736.9678,25239.4527,51635.161,38809.9104,34183.8151,36190.778,4909.0683,48958.4506,44163.7337,54979.9651,-2729.0136,-2969.0266,22900.1641
52750.3788,25243.3419,51640.2572,38818.717,34192.8005,36198.7799,4913.0917,48979.9529,44169.1875,54983.9884,-2717.8377,-2956.4202,22904.4557
52750.8259,25240.3021,51644.1464,38828.6859,34193.4264,36198.9141,4918.1432,48966.3184,44162.4373,54983.9884,-2725.4373,-2957.4484,22904.7686
52734.6432,25224.3876,51637.9774,38811.7433,34167.4536,36186.8888,4908.1296,48938.9598,44146.7911,54973.3937,-2744.5257,-2975.9556,22897.0349
52722.5733,25216.8775,51633.2388,38797.5276,34154.4002,36182.1502,4905.0003,48930.5556,44141.2479,54967.9846,-2753.1981,-2982.4376,22891.2234
52735.1797,25227.2487,51634.3564,38805.5295,34175.7238,36188.2299,4906.5202,48952.1474,44155.8212,54973.5725,-2737.5966,-2965.6738,22892.3857
52745.3721,25226.5334,51636.3233,38812.5926,34188.5984,36191.4039,4908.8448,48966.8101,44168.6958,54977.3276,-2726.8231,-2958.253,22892.2516
52738.9795,25229.5732,51635.5634,38809.2846,34181.8035,36186.5759,4903.7039,48957.9141,44164.9407,54976.7464,-2738.7142,-2968.7583,22889.8823
52721.9027,25228.3216,51633.8646,38802.3108,34164.9503,36181.5691,4900.0829,48938.7363,44146.7911,54974.6007,-2758.9649,-2981.6777,22888.5859
52722.4392,25224.7453,51630.7801,38795.8735,34156.3672,36183.5361,4895.8361,48933.2378,44144.243,54970.488,-2760.753,-2984.941,22888.5412
52739.7841,25224.7006,51626.8909,38810.0445,34172.5945,36189.1687,4898.116,48950.3592,44160.0233,54975.0477,-2745.8221,-2975.5086,22889.6588
52750.513,25226.9804,51627.6509,38811.2068,34184.9774,36188.9899,4898.4289,48961.2222,44157.8776,54974.8242,-2735.585,-2969.4736,22889.6588
52742.5557,25226.7122,51631.7636,38806.6024,34171.5664,36186.7547,4897.1772,48958.9423,44149.2945,54969.4598,-2745.6433,-2974.6145,22889.927
52724.0485,25214.5082,51630.3331,38793.6831,34147.7394,36173.9248,4894.5844,48939.541,44134.14,54959.5356,-2760.9318,-2987.9808,22886.9766
52730.4858,25224.5665,51632.5682,38796.097,34158.6471,36181.3903,4898.2948,48946.6488,44141.2926,54962.5307,-2755.3886,-2983.0188,22890.4188
52747.7413,25237.307,51633.7752,38805.2613,34185.2903,36189.0793,4901.9158,48963.4126,44164.449,54976.2547,-2738.1331,-2963.4386,22898.8677
52758.3808,25239.0951,51634.2223,38819.6558,34195.6168,36193.4602,4903.7486,48971.0569,44180.4081,54984.3013,-2724.8561,-2951.5028,22901.7735
52754.8492,25239.9445,51631.5848,38819.477,34187.4361,36190.4204,4904.6427,48959.2999,44175.4907,54977.417,-2735.6297,-2962.3657,22897.6607
52740.2312,25235.5188,51630.4672,38806.4682,34167.2301,36185.1007,4903.391,48941.0162,44163.4208,54973.1255,-2751.6335,-2976.4026,22893.6374
52735.4032,25236.0553,51633.6411,38799.4051,34161.6869,36188.0958,4904.0169,48949.2416,44161.8115,54980.9933,-2756.6403,-2975.4192,22895.1126
52756.235,25243.4313,51638.1115,38805.3507,34186.9891,36196.0977,4903.6592,48978.2989,44175.6696,54988.5035,-2743.4975,-2961.9187,22900.2088
52773.6247,25250.8968,51642.2242,38817.1971,34203.2164,36199.2717,4909.2919,48998.6837,44187.516,54996.8183,-2728.2089,-2950.9664,22903.4722
52761.51,25243.7443,51639.1844,38811.1621,34194.9463,36195.5613,4909.8283,48987.8207,44185.5043,54994.8066,-2734.0204,-2960.0859,22900.3876
52743.2263,25230.6908,51635.6975,38796.6335,34164.995,36188.8558,4908.6213,48966.229,44177.2342,54988.0117,-2752.5723,-2977.5202,22894.6656
52740.5888,25228.9921,51633.5964,38791.2244,34148.6782,36187.8276,4908.0849,48962.1162,44175.8484,54987.3412,-2754.5393,-2982.0353,22892.7881
52758.202,25235.0718,51635.7869,38803.339,34173.3992,36198.5564,4914.701,48977.5836,44189.3488,54997.0865,-2732.411,-2968.1325,22901.9523
52770.8083,25237.6646,51638.8267,38819.4323,34195.1251,36203.295,4917.6514,48995.6886,44201.7317,55002.5403,-2720.7881,-2953.425,22904.9921
52759.5431,25232.0319,51639.6761,38813.1738,34192.9346,36198.1988,4914.8351,48993.9898,44201.1505,54999.0535,-2730.757,-2959.3259,22903.204
52744.6568,25224.5665,51639.8549,38800.1204,34175.1873,36192.0297,4912.1976,48977.4942,44186.6219,54992.4821,-2750.3371,-2976.5368,22898.823
52744.4333,25221.8843,51641.5089,38801.6403,34166.3361,36194.2202,4915.0139,48974.9908,44188.7677,54992.4821,-2748.7278,-2975.2851,22901.1029
52769.7802,25233.0601,51645.2193,38818.9852,34194.8122,36203.295,4922.2559,49000.1142,44203.5198,55000.0817,-2729.997,-2960.8905,22907.1379
52778.8997,25240.4809,51644.5041,38821.0416,34212.8724,36207.1395,4922.5688,49015.4922,44210.4489,55006.5637,-2723.1127,-2953.3803,22909.5966
52766.9191,25236.994,51639.6761,38808.3458,34189.4478,36200.2552,4915.2821,49012.9888,44202.7152,54999.9475,-2736.4343,-2962.4552,22901.3264
52753.9551,25232.5684,51641.1513,38796.0076,34166.8278,36193.9073,4910.4989,48996.1356,44188.0077,54998.1594,-2750.0689,-2970.323,22899.0912
52744.7909,25230.065,51641.196,38799.3604,34167.8113,36195.6954,4913.6728,48991.5758,44195.3838,54997.0865,-2743.5422,-2966.6126,22901.9523
52759.9454,25238.7822,51641.5089,38813.6208,34186.1844,36206.8713,4915.2821,49013.257,44209.8677,55002.7639,-2725.1691,-2951.324,22906.1544
52767.8132,25246.0688,51640.0784,38826.6742,34205.1387,36210.224,4917.3385,49029.395,44221.4012,55010.4976,-2715.1108,-2941.3551,22908.5684
