FC3,FCz,FC4,C5,C3,C1,Cz,C2,C4,C6,CP3,CPz,CP4
57530.0753,28748.1397,54553.1362,43088.6596,37220.5675,40019.1844,5750.7455,50419.5392,43634.8021,55861.0708,1320.228,-192.4932,26744.0379
57514.5185,28737.098,54548.8894,43080.7024,37198.3051,40014.6246,5744.3976,50387.6656,43618.1277,55853.1135,1305.2523,-213.1909,26735.8571
57518.0948,28733.0747,54545.4919,43078.6461,37203.2672,40015.5634,5736.9769,50387.3974,43624.9673,55857.5839,1303.2407,-211.1346,26730.7162
57536.0209,28736.8745,54545.2237,43084.1446,37225.8872,40014.9822,5735.0993,50413.4148,43634.221,55861.2049,1313.7907,-199.1987,26727.8999
57542.9499,28739.2437,54542.4521,43090.0902,37230.581,40013.1494,5735.3675,50426.2,43631.4493,55859.8191,1318.4845,-200.2269,26727.8105
57531.0588,28733.1194,54546.4754,43082.267,37208.1846,40009.6625,5734.6523,50407.6034,43627.3813,55856.1087,1307.4875,-208.81,26729.5539
57517.7819,28721.2282,54552.3763,43077.9755,37186.0564,40006.4886,5737.5133,50382.6588,43621.2569,55856.5557,1296.9822,-210.8216,26735.7677
57529.0471,28728.5149,54554.9244,43082.1329,37197.9922,40011.9871,5745.2023,50400.1826,43636.9032,55861.8307,1308.158,-197.4553,26747.033
57549.9237,28742.82,54557.3831,43098.6732,37233.5762,40023.8782,5751.8184,50432.1456,43656.7068,55868.268,1325.2795,-180.2891,26754.6326
57549.3872,28744.4293,54560.2888,43106.094,37247.7472,40027.5439,5752.489,50435.2748,43665.9604,55873.5877,1331.4486,-173.3154,26755.7502
57530.6565,28740.2719,54561.4064,43102.2495,37227.5412,40018.0668,5749.5832,50421.5956,43658.4949,55871.0396,1323.2678,-181.5856,26752.2633
57514.742,28734.2817,54555.8631,43088.7938,37203.446,40012.7918,5745.247,50402.6413,43646.0227,55865.0941,1301.7654,-197.0083,26747.2565
57519.9276,28732.3147,54550.1411,43082.5353,37203.6248,40015.161,5743.3248,50411.6267,43646.872,55869.1621,1302.6148,-194.326,26746.8095
57535.0821,28736.8745,54551.9292,43097.0192,37229.2399,40015.6975,5743.4142,50445.0202,43653.9799,55875.1076,1318.4845,-182.6584,26751.9504
57538.1219,28736.8298,54548.4424,43096.2592,37234.7385,40013.5517,5740.9108,50449.9823,43648.392,55869.3856,1320.228,-187.5758,26747.8377
57514.6973,28730.3478,54546.4754,43076.1874,37205.5024,40009.886,5741.179,50425.1271,43639.943,55863.5294,1301.0055,-201.2998,26741.4898
57497.71,28726.5033,54547.4142,43068.0066,37185.8329,40006.9356,5740.7767,50409.2127,43628.2754,55866.7034,1282.5876,-213.2356,26737.8688
57515.502,28734.1923,54550.007,43073.2369,37195.9805,40011.5401,5739.8379,50417.5276,43637.2608,55869.0727,1289.6508,-213.2356,26737.9582
57542.2794,28742.9541,54548.1294,43087.4079,37218.0194,40022.7159,5741.6707,50439.0746,43652.0129,55870.9502,1311.8684,-201.6127,26740.104
57553.2764,28750.5984,54550.9011,43096.7957,37227.7647,40033.1765,5742.5648,50454.7209,43660.149,55877.8346,1318.261,-194.9519,26745.1555
57546.5262,28746.2622,54550.1411,43094.2029,37214.3984,40026.2028,5743.6377,50448.1494,43648.3473,55870.5032,1304.2241,-204.5184,26742.0262
57520.9111,28734.4605,54553.8068,43084.234,37189.275,40015.8316,5742.4754,50425.9318,43635.875,55865.0047,1291.3942,-218.0189,26740.3722
57519.4359,28729.4984,54554.7009,43089.3749,37201.4344,40018.0668,5742.7883,50419.5392,43638.0208,55864.1553,1299.7985,-209.0335,26745.4684
57538.4349,28734.237,54554.5667,43101.9366,37231.788,40025.3087,5747.0351,50450.6528,43654.114,55866.3905,1319.8256,-188.604,26750.2517
57549.6554,28744.3846,54555.5949,43103.2777,37246.6296,40028.125,5749.1362,50468.7577,43665.2452,55875.7335,1321.882,-185.3853,26751.8163
57535.9762,28742.2389,54551.5716,43092.3253,37234.7832,40020.8384,5746.2752,50454.1844,43660.2384,55870.1009,1312.1814,-198.4388,26746.9436
57518.8547,28733.1194,54548.353,43077.9755,37206.6647,40010.6907,5740.6425,50435.1854,43642.6252,55862.6354,1294.2106,-211.5369,26741.311
57517.1113,28741.4789,54544.9108,43077.752,37206.5306,40013.9987,5737.2898,50446.2272,43649.4201,55863.7977,1297.608,-208.5865,26739.6122
57540.7147,28749.6597,54550.4987,43093.89,37226.7365,40023.0736,5742.7883,50470.8141,43666.7651,55873.6771,1323.7596,-193.5214,26747.48
57546.4815,28745.3681,54548.3977,43097.9133,37233.9785,40020.3913,5743.0118,50490.7966,43668.0615,55873.096,1328.364,-192.8508,26746.4966
57534.7245,28746.2622,54547.146,43092.4594,37228.3459,40013.1494,5739.972,50476.4915,43652.6388,55862.8589,1317.5905,-202.1044,26741.9368
57525.4709,28742.1495,54550.4093,43085.9327,37205.8153,40014.4905,5741.8942,50458.5207,43645.3074,55871.0396,1304.1347,-211.0898,26742.4732
57532.534,28743.8035,54549.7835,43085.8433,37214.2196,40018.6926,5742.2072,50464.5556,43647.8108,55873.6771,1310.7508,-204.1161,26744.0826
57559.3114,28756.6334,54552.0633,43101.8919,37242.9192,40027.2757,5744.4423,50479.3078,43663.1888,55878.818,1332.7897,-186.0112,26754.3197
57565.5252,28757.9745,54552.6445,43102.2495,37242.3828,40024.5041,5742.5648,50476.9832,43663.0994,55877.7004,1329.8839,-185.6089,26753.068
57549.4319,28750.4196,54550.2752,43096.8851,37224.6802,40016.8598,5740.0614,50459.9512,43654.3822,55873.0513,1315.5341,-199.2434,26745.9601
57530.6565,28746.6645,54553.4939,43094.9628,37201.2556,40011.8083,5742.1178,50435.096,43633.908,55869.8326,1304.7159,-212.2074,26743.1885
57538.4349,28740.8084,54552.421,43096.1698,37209.6151,40012.4341,5738.318,50433.0397,43638.6466,55869.3409,1306.3252,-209.6146,26743.0097
57555.1093,28744.1164,54549.0682,43098.4497,37228.1671,40015.3399,5735.8146,50451.8151,43662.9653,55878.5945,1321.435,-197.0083,26747.1224
57568.2521,28753.9065,54550.454,43106.9434,37238.8065,40024.6829,5737.3792,50470.1436,43667.7039,55880.0697,1327.0676,-193.2085,26747.8377
57553.5446,28746.4857,54547.7718,43100.7743,37222.4897,40025.8452,5735.1887,50451.0105,43654.0246,55873.6771,1314.64,-206.1278,26742.4285
57534.3221,28738.0815,54544.1955,43080.6577,37193.7454,40012.7918,5727.7679,50429.2399,43641.6417,55860.7578,1291.7966,-222.1763,26734.1584
57536.155,28737.5003,54544.3743,43083.3399,37194.103,40011.8083,5724.3258,50444.4391,43645.3968,55858.925,1292.6906,-222.0422,26733.8008
57562.6194,28748.855,54548.7553,43102.026,37223.0709,40029.1085,5729.0196,50476.0891,43660.8195,55869.3856,1313.5672,-205.1443,26740.5957
57569.2356,28751.8501,54546.9224,43108.8209,37229.8658,40030.539,5730.2713,50486.818,43658.8973,55865.7646,1315.0424,-205.2784,26742.6521
57551.0859,28745.5469,54545.2684,43099.7461,37209.3022,40029.6003,5730.5843,50467.9531,43638.1549,55857.7627,1303.5983,-216.8566,26737.4665
57539.1948,28743.58,54547.0566,43091.8783,37192.2255,40031.5672,5734.8311,50448.2388,43631.5387,55861.1602,1294.2553,-219.6729,26737.5112
57539.2395,28743.0435,54550.7222,43091.163,37200.8532,40034.3835,5737.7368,50456.956,43633.7739,55861.026,1303.1065,-210.464,26743.0544
57555.0199,28748.3633,54556.7125,43099.7908,37228.2565,40040.4185,5746.007,50491.8694,43654.8293,55876.1805,1328.4981,-190.6157,26754.6773
57551.7565,28754.4429,54556.5784,43101.9813,37240.7287,40035.5905,5748.2421,50498.4856,43661.4007,55877.4769,1339.5846,-186.8159,26756.4207
57542.8605,28757.7063,54556.9807,43108.7315,37226.513,40036.6634,5754.1877,50476.715,43635.1597,55871.8443,1329.4369,-192.0909,26754.722
57517.916,28746.8433,54559.8865,43092.8171,37193.7901,40024.7276,5752.0419,50443.0085,43614.2385,55861.7413,1312.986,-207.0665,26751.9504
57510.0929,28753.2359,54562.7922,43092.4147,37198.3051,40017.0386,5754.7241,50438.3147,43618.2171,55863.8871,1323.4466,-205.7254,26756.2866
57530.6118,28762.9813,54563.3733,43097.7792,37232.1457,40020.5255,5761.9661,50450.474,43630.2871,55871.9337,1341.4621,-188.1123,26762.3216
57532.4446,28763.2495,54558.0983,43101.579,37245.8696,40019.7208,5760.6697,50454.7656,43624.6991,55869.5197,1344.2785,-183.0161,26759.0135
57514.1162,28755.4264,54561.2723,43096.1698,37224.7696,40012.4341,5762.3684,50433.4867,43606.1919,55868.5362,1327.8276,-200.3163,26757.0019
57487.4729,28750.3302,54558.143,43080.0319,37192.136,39997.1455,5756.7805,50390.8396,43582.3649,55858.6121,1306.6828,-219.807,26748.3741
57488.3223,28763.5624,54558.4112,43079.0931,37205.0107,39998.6207,5763.1284,50385.2516,43576.4194,55862.0095,1320.675,-210.9557,26754.0962
57507.4106,28772.4137,54557.1148,43087.7209,37236.7501,40001.3924,5767.1517,50396.0699,43585.7177,55866.3011,1338.1094,-194.326,26760.8017
57509.8693,28772.682,54555.1479,43088.6149,37243.4109,40003.0911,5765.9447,50386.9951,43587.0588,55860.2661,1336.8577,-189.811,26760.5335
57496.5477,28767.9434,54550.8564,43078.4672,37220.4781,39992.3176,5761.2509,50367.6832,43566.0928,55846.0504,1320.9432,-201.4339,26752.2633
57471.9608,28755.1135,54544.9555,43066.6655,37190.4373,39976.5819,5756.8252,50327.1818,43544.6799,55840.4177,1304.3582,-218.913,26744.0379
57469.4127,28755.9181,54544.2402,43066.4867,37193.343,39975.3749,5755.9758,50316.8106,43540.1648,55842.5188,1304.9841,-217.1695,26746.273
57487.3388,28760.1203,54539.1887,43078.6908,37213.7725,39983.0192,5755.35,50342.6045,43547.5856,55849.6714,1319.9151,-204.5631,26748.9552
57494.849,28765.8423,54541.558,43083.7423,37224.0543,39986.5061,5756.1547,50340.3246,43542.8023,55846.3186,1322.2843,-203.222,26747.6588
57482.8684,28761.5508,54539.5017,43070.823,37201.2109,39978.7277,5752.176,50317.5706,43534.4428,55837.4673,1310.3932,-211.9839,26737.4218
57465.3,28753.2359,54535.3442,43061.614,37172.0195,39976.1349,5747.8398,50284.0877,43519.9142,55832.0582,1296.6245,-226.289,26733.7114
57468.608,28753.1912,54536.9536,43067.2914,37168.3091,39982.7063,5748.0186,50278.1421,43521.7023,55831.5665,1308.0239,-223.0257,26736.7512
57493.329,28768.301,54540.6193,43083.3846,37194.4606,39990.2165,5751.6843,50305.2324,43528.8996,55834.6063,1331.1356,-207.7818,26742.5627
57500.3922,28775.7665,54539.9487,43084.3234,37209.8386,39990.44,5752.489,50315.5142,43522.8646,55836.305,1332.6555,-204.6525,26737.5559
57486.0424,28773.576,54543.0779,43074.578,37192.9854,39982.9298,5752.8466,50295.7106,43513.8792,55838.8531,1321.1221,-210.5534,26737.4665
57458.7733,28765.3953,54545.0449,43066.6208,37165.0457,39975.1961,5750.9243,50255.1198,43501.3175,55832.8182,1305.8782,-219.8964,26737.0641
57472.8101,28759.3603,54551.4822,43065.6821,37158.2508,39972.1563,5752.0419,50251.6776,43506.2796,55833.5334,1309.5886,-217.3483,26738.5393
57504.5049,28765.44,54554.2985,43080.0319,37182.5248,39979.3983,5754.59,50278.5891,43524.7868,55840.5071,1329.0793,-202.328,26744.1273
57515.4573,28767.2281,54552.3763,43086.1115,37194.1477,39978.5936,5753.2936,50282.7913,43530.0618,55841.3565,1332.5661,-198.3047,26744.172
57498.6935,28760.3885,54547.3248,43080.7024,37170.4549,39968.0883,5751.729,50253.2423,43514.058,55829.1525,1317.9928,-210.2852,26740.4169
57474.643,28752.2525,54544.0167,43075.338,37144.0351,39963.305,5750.2538,50230.8011,43495.1931,55820.7482,1302.8383,-221.5505,26734.6501
57481.7955,28753.7724,54538.4735,43080.5236,37141.6211,39968.7588,5751.6843,50227.7613,43501.541,55819.1389,1307.4875,-215.739,26733.1302
57502.9403,28758.958,54539.2781,43088.0338,37173.003,39971.9328,5755.2159,50256.595,43517.2319,55839.2555,1320.675,-199.1987,26739.791
57514.0715,28760.8802,54536.7301,43089.2408,37184.7153,39970.4129,5751.3267,50273.8059,43532.0735,55845.7822,1329.6157,-197.1424,26740.8639
57495.4301,28751.2243,54534.9419,43080.5236,37167.4597,39963.4838,5748.0633,50248.2355,43513.8345,55835.4557,1317.9928,-210.911,26738.0029
57471.6926,28741.166,54532.7067,43059.3342,37136.7931,39951.1456,5745.3364,50215.5572,43496.3107,55825.755,1293.8529,-228.256,26730.001
57494.4466,28746.2622,54537.2665,43071.0465,37153.1993,39963.4391,5748.421,50222.0839,43497.92,55829.4207,1298.9491,-218.8236,26736.483
57517.3795,28752.6548,54537.7582,43084.7257,37179.172,39970.234,5750.2538,50243.0946,43521.2106,55836.7521,1320.8985,-198.7517,26741.758
57529.4048,28754.577,54537.7582,43086.8268,37180.6026,39969.8764,5750.1197,50254.2257,43523.4904,55837.3779,1327.0676,-198.3494,26742.2497
57510.3164,28750.9561,54536.4618,43077.8861,37158.2061,39964.8249,5747.1246,50234.288,43515.6226,55835.5898,1315.8023,-208.9888,26735.8571
57492.3456,28743.9376,54535.2548,43060.9882,37134.7368,39952.5315,5744.3082,50221.8157,43508.6936,55828.2137,1297.3845,-226.1549,26732.2361
57497.6653,28741.613,54531.9915,43060.407,37144.6609,39960.7122,5745.1576,50230.7564,43514.4156,55830.5383,1299.3515,-223.3833,26732.7726
57511.6575,28748.8997,54529.6669,43066.3973,37170.9019,39964.959,5744.0847,50253.0187,43527.022,55838.1826,1313.1201,-210.1511,26734.3372
57525.2026,28754.7559,54527.9682,43074.891,37187.9786,39972.7374,5744.7553,50268.7991,43535.4263,55837.5567,1318.2163,-203.1326,26733.0408
57515.0996,28747.7821,54530.3375,43066.442,37177.2945,39966.926,5744.8894,50261.6465,43530.5089,55834.8745,1304.3135,-215.0685,26730.7609
57489.0375,28737.0086,54533.1538,43053.7462,37145.8232,39955.9736,5742.6542,50242.9605,43512.7169,55832.3264,1287.5497,-230.1782,26727.1847
57488.0093,28736.4721,54535.2101,43053.478,37140.1906,39949.7598,5742.386,50240.8147,43517.7684,55829.4654,1289.8296,-228.6136,26726.827
57509.0647,28744.4741,54539.6358,43061.614,37160.1284,39954.6325,5749.5832,50268.2179,43535.5157,55840.8648,1305.2523,-214.9791,26734.4266
57511.9257,28744.2952,54543.0779,43069.9289,37173.3159,39956.4654,5750.7902,50280.869,43544.9034,55848.1961,1313.8801,-207.2453,26739.2993
57510.0482,28740.0931,54541.5133,43068.1407,37166.2527,39956.1971,5751.729,50258.3832,43536.3203,55840.373,1303.7771,-212.2074,26736.5277
57499.6769,28739.7802,54541.2898,43060.2729,37148.416,39954.2302,5750.9243,50242.1558,43524.4739,55834.651,1288.712,-224.5903,26729.7775
57506.5166,28744.6082,54542.318,43063.9833,37150.5171,39962.5003,5748.8233,50252.2588,43533.951,55836.7074,1295.5964,-221.6399,26731.3868
57522.9228,28750.1961,54541.2898,43069.7501,37173.7182,39970.0999,5749.8068,50274.4764,43551.296,55838.3614,1312.8072,-208.1841,26736.9747
57531.5952,28757.1251,54535.8807,43081.4177,37193.4772,39976.5819,5753.1595,50301.4326,43563.1424,55839.7919,1317.7693,-210.2405,26735.3207
57522.3416,28760.3885,54538.2947,43081.82,37185.0729,39973.4974,5755.3947,50287.1275,43552.5924,55837.7355,1310.4379,-216.3649,26731.6103
57502.2697,28763.1601,54537.6688,43066.6208,37156.9991,39964.3779,5752.8466,50266.8768,43534.8898,55828.0349,1295.0599,-225.9761,26728.6599
57506.8742,28766.7811,54537.0877,43068.2749,37156.2392,39966.5684,5752.0419,50267.4133,43534.0852,55826.1573,1293.987,-224.2327,26729.3304
57525.4709,28772.1902,54536.5512,43081.7306,37182.3013,39978.5936,5755.8864,50298.7057,43555.6322,55831.0747,1309.7227,-209.0782,26734.1584
57530.8353,28773.9336,54532.4385,43089.6878,37193.7454,39980.9629,5749.1809,50308.5852,43564.3494,55830.4489,1313.0754,-204.9208,26733.4878
57517.3348,28767.0046,54531.3656,43081.373,37178.9038,39977.923,5740.9555,50291.5531,43547.7197,55824.0116,1302.8383,-217.3483,26730.001
57502.1356,28758.1533,54528.0129,43068.8113,37149.2207,39972.3798,5730.8078,50274.2976,43535.2027,55816.2332,1280.7995,-236.392,26722.0438
57512.0151,28755.8734,54524.4366,43070.9124,37148.4607,39979.3983,5730.316,50284.0877,43539.539,55815.0709,1277.5362,-235.5874,26720.8368
57531.0141,28764.4565,54526.5824,43093.8452,37178.8144,39992.4964,5735.904,50314.799,43560.9072,55825.3527,1300.3796,-215.8284,26728.2128
57533.1151,28765.6635,54531.1421,43102.7859,37188.8727,39998.9784,5741.5366,50332.9039,43573.5583,55840.9989,1306.5934,-209.5252,26732.3703
57515.5467,28755.6052,54527.6552,43090.7607,37171.8854,39988.786,5738.4074,50314.5754,43555.5428,55830.5383,1291.886,-224.2774,26723.7872
57497.7994,28745.4128,54529.5775,43090.0007,37153.6016,39980.1135,5732.1489,50291.2849,43541.6847,55825.9785,1273.5575,-241.4882,26718.1993
57495.4748,28741.6577,54534.5843,43090.0007,37158.832,39981.8569,5731.1207,50296.9623,43551.2066,55831.3876,1279.1455,-237.9119,26722.9378
57517.0666,28759.7626,54536.8195,43110.6538,37189.8562,39995.5809,5737.2451,50320.074,43567.0316,55836.0368,1303.2407,-220.3435,26730.3139
57530.1647,28764.1883,54538.6523,43127.954,37210.4645,39998.0843,5743.0565,50337.0613,43579.1463,55844.754,1314.7295,-213.3697,26734.2478
57509.8693,28759.3156,54536.8642,43116.7781,37192.0466,39987.7131,5742.7436,50315.1119,43561.9354,55838.6743,1298.5915,-225.2162,26726.4694
57490.7362,28755.5158,54533.6008,43105.5129,37167.1021,39976.5819,5740.9108,50294.1459,43549.1949,55827.409,1279.1455,-237.8672,26720.2109
57498.3805,28757.6169,54536.7301,43108.8209,37172.9136,39974.3468,5740.8661,50297.0964,43557.5545,55834.1146,1285.7616,-232.2793,26723.1166
57527.3037,28764.8141,54537.49,43121.919,37199.8698,39979.89,5747.1693,50331.2945,43578.9227,55843.4129,1306.1911,-218.6447,26730.2692
57533.6963,28766.1105,54534.7631,43125.7188,37210.5539,39979.6218,5748.9127,50347.8795,43590.6798,55848.3303,1308.2027,-211.5369,26732.9514
57514.2056,28758.0192,54530.248,43114.3194,37190.2138,39972.648,5744.1741,50325.5278,43571.0102,55839.2555,1291.7519,-221.3717,26728.2575
57503.745,28754.3982,54526.8953,43104.0376,37169.6502,39962.1874,5741.8942,50294.4589,43560.8625,55831.6559,1275.1669,-237.3308,26722.1332
57516.3066,28762.3554,54528.8175,43111.0561,37177.9203,39965.7637,5743.4142,50292.8495,43569.8926,55836.0368,1280.6207,-230.3571,26726.4247
57532.9363,28773.9784,54532.0362,43118.6557,37206.0835,39975.822,5746.0964,50323.9632,43585.1365,55844.8434,1299.5303,-213.7274,26733.7561
57543.0393,28782.4273,54531.9468,43128.4457,37218.2876,39983.8239,5751.3714,50332.3674,43577.4475,55845.3351,1307.8451,-205.2784,26735.4995
57530.7459,28775.6324,54533.2879,43120.6673,37199.9592,39974.5703,5750.3432,50323.0691,43570.3397,55846.0504,1294.3447,-213.5038,26733.4431
57508.3941,28770.4468,54537.937,43108.4186,37173.2265,39965.7637,5749.1809,50304.4277,43566.6293,55845.8269,1280.8889,-229.91,26726.1565
57517.0219,28774.5595,54544.7767,43118.9686,37179.6191,39974.5703,5755.0818,50314.9778,43573.4242,55854.9464,1289.8296,-222.5786,26732.0573
57539.2842,28780.6839,54545.179,43135.5536,37204.6977,39987.3108,5754.4112,50332.3227,43591.0821,55862.0989,1308.2474,-206.1725,26736.6618
57549.1637,28781.7568,54546.9224,43135.3301,37221.1486,39992.5411,5753.9642,50339.8776,43595.016,55859.6402,1313.2095,-201.2998,26738.5393
57538.7031,28780.818,54544.5532,43126.1212,37212.0738,39988.4284,5751.9525,50323.2479,43585.5836,55850.3866,1300.7373,-213.7721,26733.7114
57519.4806,28770.9385,54547.2354,43121.6955,37188.4704,39987.1767,5753.383,50299.0186,43568.3727,55845.8269,1285.3146,-226.4678,26728.8834
57522.2522,28766.0211,54548.8,43123.439,37191.9125,39986.9978,5755.0818,50303.6231,43578.0287,55846.1398,1292.8694,-218.3318,26733.9349
57544.8722,28768.3904,54542.4521,43129.608,37209.8833,39985.0309,5752.3549,50330.4452,43595.1501,55849.269,1310.7508,-208.9441,26737.5112
57546.7497,28765.2612,54543.4803,43132.7373,37222.5791,39992.6752,5755.3053,50341.174,43602.258,55858.7462,1321.8373,-204.5631,26740.998
57530.6565,28759.2262,54545.0896,43128.0434,37206.7541,39991.8705,5757.5852,50328.8805,43586.0753,55860.2661,1307.3087,-210.3746,26741.311
57509.1988,28753.7724,54545.5813,43116.7781,37180.692,39985.3885,5755.7076,50301.8796,43574.7653,55855.0805,1285.9851,-225.2609,26736.3042
57511.434,28749.8832,54546.0284,43120.2203,37192.9407,39986.1038,5755.4841,50308.004,43578.2075,55856.3322,1293.1824,-221.9528,26734.9631
57535.2162,28752.1183,54548.2188,43132.8714,37224.7696,40001.75,5760.4015,50335.4073,43597.3406,55867.3292,1318.1269,-200.7186,26744.5296
57537.362,28761.3273,54549.7388,43135.7771,37232.101,40006.3097,5765.0954,50349.2206,43600.2463,55871.9337,1327.6488,-195.2201,26750.1622
57528.0637,28755.2476,54549.56,43124.6012,37211.9844,40001.75,5766.5706,50335.1837,43592.5573,55866.5246,1313.7907,-205.8148,26746.6307
57512.0598,28741.613,54548.1294,43112.5313,37188.4704,39991.8705,5759.7309,50308.2275,43573.3348,55852.3536,1295.9093,-225.2162,26737.8688
57508.7517,28742.6412,54545.2237,43117.851,37196.2488,39995.6703,5759.2392,50307.1994,43571.0996,55848.0173,1295.6858,-225.6185,26736.6171
57528.9577,28749.4361,54549.2917,43129.921,37220.2545,40003.3593,5760.6697,50337.7318,43597.5194,55864.7364,1315.9364,-207.9159,26744.0379
57543.4864,28755.8734,54549.56,43128.714,37223.8755,40005.4604,5759.9545,50350.6064,43601.4533,55865.7646,1320.5409,-202.8197,26745.4684
57538.7031,28759.0474,54553.628,43125.6294,37213.4596,40004.3428,5759.3286,50339.3859,43594.0772,55868.4915,1309.6333,-210.8216,26743.1438
57515.5467,28748.7656,54552.5104,43112.7548,37189.5432,39992.094,5751.9525,50308.004,43571.0549,55860.2661,1288.5779,-231.4299,26734.6054
57523.1463,28750.7325,54557.8301,43119.3262,37192.1808,39995.2233,5757.0487,50315.6483,43581.1579,55863.753,1295.9093,-224.2774,26738.0923
57553.4552,28749.5703,54558.1877,43133.1843,37222.9815,40001.1688,5762.1449,50346.5831,43600.0228,55869.2515,1317.0093,-208.1394,26741.7133
57558.3726,28752.3419,54554.4773,43132.8714,37226.2448,39999.0678,5756.8252,50349.31,43599.844,55866.7034,1324.0725,-209.3017,26741.5345
57538.256,28752.5207,54552.4657,43125.7635,37210.8668,39995.0892,5754.2771,50335.0943,43591.1715,55865.6305,1309.1415,-219.6729,26739.1652
57520.2852,28745.994,54545.5813,43112.2631,37188.4257,39989.233,5753.5172,50311.2674,43579.3251,55857.5839,1287.6391,-227.4066,26734.516
57520.2852,28743.8035,54543.0332,43109.6256,37187.8892,39988.1154,5753.9642,50308.0934,43583.3484,55856.4663,1291.3942,-221.4611,26736.3936
57545.8109,28754.3088,54547.7718,43120.5779,37217.8406,39997.8608,5758.971,50333.3062,43600.7828,55868.4468,1314.0142,-201.9703,26744.0379
57556.1374,28764.1883,54550.454,43120.3991,37218.377,39996.1174,5758.5239,50350.3382,43614.1491,55876.5829,1321.1221,-196.293,26747.1671
57551.3989,28764.9035,54552.3763,43123.8413,37215.5607,39996.3856,5758.4345,50344.9738,43606.5942,55870.9055,1310.1697,-204.7867,26744.8872
57529.4942,28758.0192,54550.9011,43114.543,37195.3994,39992.8093,5757.2722,50318.4646,43587.9529,55857.6286,1292.9589,-217.0354,26737.69
57529.4942,28753.5489,54553.7174,43108.508,37193.7007,39989.3224,5758.8369,50322.5327,43591.4844,55866.3458,1295.0152,-217.7954,26738.897
57548.3143,28760.7461,54551.7951,43112.6207,37210.4645,39994.508,5760.9379,50350.7406,43616.5631,55874.8394,1311.7343,-205.3678,26744.3955
57556.0927,28759.9415,54552.1528,43113.8724,37216.3653,39998.7549,5759.0157,50368.5772,43616.9654,55873.6324,1314.4612,-203.5797,26744.3508
57548.4037,28757.7957,54553.7174,43115.9288,37207.5588,39998.4419,5760.3121,50362.4529,43608.74,55871.3526,1304.9841,-210.3299,26742.9203
57523.9956,28750.4196,54550.5881,43099.0756,37180.6473,39990.6635,5755.4841,50337.1507,43598.0558,55865.8093,1289.5614,-223.6068,26738.2264
57522.3863,28751.0008,54545.7602,43099.0756,37186.861,39992.6752,5755.6629,50341.2187,43598.1899,55859.372,1293.6294,-219.4494,26737.1088
57547.6438,28759.4497,54545.6707,43111.7713,37212.0291,40005.3263,5761.072,50379.9319,43615.1773,55867.9551,1314.193,-203.222,26744.4849
57559.5349,28764.5906,54552.108,43122.679,37227.4518,40008.5896,5765.7659,50395.3099,43628.0519,55877.2981,1324.9665,-194.7731,26751.5033
57542.8605,28756.544,54549.4705,43115.5264,37213.2361,40002.8229,5759.9545,50371.93,43622.1063,55869.6538,1312.1367,-206.2619,26744.7084
57518.1395,28751.3584,54547.146,43100.0143,37182.6142,39994.1057,5758.0769,50344.035,43604.3143,55863.8871,1294.0317,-221.6846,26739.2099
57522.1628,28760.3885,54545.8496,43107.748,37190.3479,39999.9619,5760.3121,50345.3761,43606.7283,55865.5411,1298.5468,-219.1812,26740.1934
57547.8226,28770.5809,54547.8165,43125.6741,37224.0543,40009.6178,5763.8884,50381.273,43625.3697,55872.9172,1314.4612,-204.2502,26749.2682
57560.3396,28775.2301,54546.6542,43129.3398,37237.0183,40012.9259,5763.5754,50402.1496,43634.0421,55873.7665,1324.2513,-197.3659,26749.2682
57554.4387,28771.4303,54550.8116,43123.0366,37220.5228,40013.7752,5765.0954,50389.5432,43624.118,55868.5809,1315.9811,-204.6973,26746.4072
57531.7293,28765.7529,54555.8184,43115.0347,37195.3547,40014.0435,5767.3305,50370.2313,43612.8527,55873.0066,1298.9491,-214.7555,26746.8095
57537.2279,28763.5624,54559.3947,43118.2981,37204.0272,40017.2621,5772.5161,50377.1603,43627.8731,55878.5945,1303.6877,-210.2852,26749.4023
57560.1161,28772.6372,54557.0701,43129.7421,37232.4586,40021.5536,5771.488,50403.133,43639.6301,55879.5333,1319.3339,-199.1987,26751.1457
57570.7555,28785.2436,54556.0867,43134.2125,37245.065,40024.7276,5773.7678,50412.6549,43642.6699,55882.6625,1325.2795,-189.0063,26755.3031
57557.9256,28778.2699,54555.9078,43123.7072,37225.2166,40017.4856,5773.0973,50396.5169,43633.2375,55878.5498,1318.4845,-198.0364,26753.3809
57538.0325,28762.579,54554.4326,43115.6605,37199.9145,40012.5682,5769.6998,50366.8785,43613.6127,55874.1242,1300.022,-211.0898,26745.9154
57541.1618,28766.5129,54556.1761,43120.9803,37210.5092,40022.0901,5772.0244,50379.4402,43622.0169,55870.3244,1304.7159,-207.2453,26749.1788
57562.4853,28776.3476,54559.5735,43127.1046,37244.0815,40028.8403,5773.142,50413.6384,43640.6583,55878.1475,1317.4564,-195.3095,26753.6938
57573.2589,28777.9123,54554.6561,43138.9958,37256.3303,40032.8189,5774.7513,50423.6072,43650.3589,55880.785,1323.536,-190.0345,26752.8445
57559.3561,28772.2796,54549.3811,43139.0852,37230.4022,40027.9462,5774.5278,50408.7657,43640.0771,55873.4536,1318.2163,-196.6953,26750.2964
57532.8916,28763.9648,54547.593,43125.4059,37198.3498,40014.4905,5767.7776,50379.3508,43622.9557,55867.3292,1296.3563,-215.5155,26743.8591
57542.7264,28766.647,54551.9292,43138.5487,37211.6715,40019.5867,5771.8903,50385.0728,43633.461,55869.5197,1305.6099,-209.9276,26750.7434
57559.0432,28772.2349,54554.1644,43146.4612,37239.79,40022.2242,5769.968,50409.2574,43649.3307,55875.2865,1320.0939,-194.1025,26754.5879
57564.8099,28773.9784,54552.9127,43142.3038,37248.7754,40023.8782,5766.8388,50421.9085,43651.1189,55881.6791,1322.5973,-190.0792,26753.1574
57559.669,28763.5624,54552.0186,43131.7985,37231.2069,40021.196,5766.5706,50407.6928,43638.1102,55875.4653,1309.9462,-199.2434,26750.0281
57544.4698,28756.0523,54547.4589,43114.99,37205.7259,40013.2835,5765.6318,50382.7035,43621.9722,55867.2398,1294.6576,-215.6049,26744.7978
57535.6632,28753.1912,54542.4521,43114.4536,37205.5471,40014.0435,5759.3733,50375.7745,43624.2968,55863.2165,1296.7139,-218.4659,26738.6287
57557.7468,28757.3934,54542.2733,43127.0599,37232.4586,40017.6197,5759.418,50398.4839,43636.3667,55864.1553,1315.3106,-202.1044,26741.5792
57573.84,28757.2145,54545.4472,43134.3913,37237.3313,40014.6246,5757.8981,50407.6034,43653.0858,55873.5877,1324.6983,-195.533,26744.5743
57557.7021,28753.7724,54546.5648,43133.0502,37225.4848,40010.5566,5755.5288,50399.8697,43648.7496,55874.1242,1314.5953,-207.1559,26740.2381
57533.4728,28750.3749,54545.5366,43123.8413,37206.2176,40008.232,5754.7241,50384.8046,43628.2754,55863.0377,1296.0434,-223.1598,26734.6948
57538.1666,28744.4293,54546.7436,43128.1775,37204.0272,40011.093,5752.3102,50386.4586,43626.7555,55861.8307,1296.3563,-223.0257,26736.7512
57561.8595,28751.8054,54545.6707,43137.6994,37232.0116,40016.7704,5752.1313,50403.133,43641.4629,55873.1407,1310.125,-210.8216,26740.9533
57567.0004,28754.13,54547.7271,43144.2708,37243.3662,40026.7392,5756.2888,50417.9746,43651.7447,55883.9589,1319.1104,-200.8975,26743.9485
57554.0364,28753.4148,54547.6377,43141.5886,37231.0281,40022.2242,5756.4229,50412.4761,43650.4483,55878.9521,1310.6167,-209.0782,26746.0495
57538.256,28750.5984,54546.9224,43134.2572,37211.0009,40015.3846,5753.9195,50393.4771,43647.5873,55874.5265,1301.3631,-225.6185,26744.0379
57537.9878,28752.7442,54550.9458,43135.4642,37214.0855,40025.1746,5755.7523,50407.4693,43650.7612,55879.9356,1308.2027,-219.8517,26746.273
57566.0616,28765.5741,54558.4112,43153.7479,37244.9756,40039.9268,5763.8437,50437.4206,43669.939,55890.888,1331.5827,-195.9354,26754.0962
57583.6748,28777.9123,54560.7805,43158.7994,37263.751,40043.3689,5766.9282,50454.542,43679.3715,55892.7208,1334.0414,-188.6487,26758.7453
57572.5436,28775.99,54559.8865,43144.0473,37247.3449,40038.8539,5762.3684,50433.5761,43668.285,55887.2223,1319.3339,-204.6973,26756.376
57550.3707,28770.6256,54561.4064,43131.1727,37221.4168,40033.2659,5764.6483,50418.8687,43653.9799,55882.2155,1304.7159,-216.186,26749.9387
57549.0743,28776.4817,54562.3004,43128.714,37219.8522,40037.6469,5768.4928,50428.1223,43656.9303,55882.2155,1306.1911,-211.6263,26752.7997
57574.8682,28787.0765,54567.3519,43144.2708,37254.9891,40046.7664,5774.5725,50460.6664,43670.2073,55887.8928,1325.2348,-194.8625,26758.8794
57590.7379,28790.2951,54571.4647,43152.8091,37263.6616,40053.4272,5773.589,50473.9434,43676.1081,55894.956,1335.5613,-185.2512,26763.5286
57575.1364,28784.0366,54568.9166,43149.5011,37249.133,40054.9024,5774.9301,50455.7043,43670.8778,55895.8948,1325.8159,-193.9684,26761.7404
57554.4387,28774.4254,54563.7757,43141.678,37222.9367,40047.124,5771.7562,50435.856,43657.7797,55887.8034,1312.4943,-208.5865,26756.5101
57558.8197,28770.6256,54561.4511,43144.4943,37218.4664,40047.0793,5767.3752,50438.3147,43655.3657,55882.3943,1313.0754,-207.1112,26754.3644
57582.1549,28776.1241,54557.5172,43151.1998,37244.3944,40045.4253,5765.9,50456.5537,43664.0829,55882.3496,1326.3077,-194.7731,26754.0962
57584.9265,28780.9074,54557.1595,43157.4583,37257.0455,40043.0113,5763.5754,50477.7431,43664.4852,55889.3234,1330.331,-194.5496,26754.4091
57561.9042,28769.8656,54551.2587,43143.6002,37229.5976,40028.7509,5754.0536,50450.5634,43650.0013,55882.8861,1314.5953,-210.1511,26744.1273
57534.9927,28757.9298,54548.9788,43132.0667,37204.1613,40018.9161,5746.1858,50421.2826,43632.5222,55868.8492,1296.2222,-225.4844,26735.6783
57539.5972,28759.9862,54550.9905,43142.4826,37208.3187,40023.61,5746.5434,50435.6325,43643.1617,55870.3691,1292.7353,-222.0422,26739.7463
57556.2716,28756.3205,54547.9953,43147.5341,37225.7084,40026.9628,5744.6659,50457.8054,43654.8293,55874.9288,1309.0521,-210.9557,26740.6851
57568.2074,28757.9298,54547.1013,43149.7693,37242.9639,40031.2543,5748.4657,50467.7296,43655.768,55877.924,1321.9267,-203.222,26740.7298
57562.6194,28749.6597,54548.04,43141.2756,37232.3245,40025.9793,5749.0021,50458.2524,43647.7661,55875.957,1310.5273,-213.6827,26736.7959
57539.2842,28743.8482,54547.5483,43131.2174,37202.7755,40017.3068,5750.6561,50427.8988,43639.1383,55869.922,1296.1328,-226.6914,26734.7395
57535.4397,28751.8948,54550.9458,43136.8053,37208.7657,40021.2854,5754.903,50430.8939,43645.4415,55870.682,1306.057,-218.4659,26740.4616
57566.6428,28766.4682,54555.729,43150.2163,37241.1758,40031.0755,5761.7873,50466.7908,43666.7204,55881.5449,1325.056,-195.3095,26749.0
57577.6845,28770.4021,54558.0536,43159.0676,37255.168,40038.4068,5766.7941,50481.23,43677.0469,55885.7471,1329.9733,-185.4748,26753.0233
57566.7322,28765.2612,54553.5833,43147.9365,37240.9523,40039.748,5766.66,50471.5741,43671.906,55878.1475,1323.2678,-197.4106,26749.9387
57547.7779,28762.0872,54555.8184,43137.2076,37211.5374,40029.1085,5763.9778,50456.956,43654.7846,55874.5265,1298.1892,-216.186,26743.0097
57546.258,28763.7413,54552.8233,43132.8714,37211.3138,40025.8899,5761.7426,50444.9308,43652.0576,55877.4769,1298.0551,-213.325,26741.758
57568.1627,28769.1057,54552.5104,43148.5176,37241.0417,40038.3621,5764.6483,50469.6518,43671.459,55881.7238,1320.4962,-197.7235,26749.6258
57574.5553,28772.1902,54556.7572,43157.2795,37254.3186,40038.4516,5767.7776,50491.9589,43690.145,55892.7208,1328.5428,-185.5195,26756.2866
57562.3959,28770.0444,54555.6396,43154.642,37237.823,40034.4729,5765.6765,50471.44,43684.6912,55891.7373,1321.7479,-196.3824,26751.5481
57545.7215,28762.3107,54554.2538,43137.2076,37209.481,40027.231,5763.486,50441.3545,43663.9935,55881.0979,1311.1085,-211.4028,26745.6472
57552.2929,28761.9084,54556.042,43138.6828,37223.1603,40030.6731,5764.9165,50437.8676,43660.9983,55880.0697,1314.3271,-207.9606,26745.066
57576.4328,28770.6256,54558.8583,43154.0161,37258.2525,40039.5691,5765.0059,50459.8618,43677.8069,55884.3166,1335.6507,-188.2017,26750.6987
57588.6816,28777.0182,54562.0322,43157.9947,37267.9979,40041.1785,5764.246,50471.5294,43679.2374,55886.06,1344.189,-180.0209,26751.5033
57575.0917,28769.508,54561.764,43145.5672,37242.2487,40037.334,5760.2674,50457.4925,43669.8943,55881.5897,1329.3922,-197.9023,26746.4072
57551.1307,28763.6966,54558.3218,43133.5419,37206.4412,40024.9511,5755.9758,50427.0494,43658.1373,55869.5197,1312.7625,-215.7837,26742.4732
57545.4086,28762.6237,54555.5502,43127.4176,37204.3848,40020.9725,5752.7125,50433.8443,43658.9867,55864.7364,1312.4049,-216.4096,26743.2779
57564.2288,28764.9482,54554.4773,43140.3369,37236.169,40027.231,5754.59,50460.8452,43670.5649,55871.4867,1329.3028,-201.9703,26747.793
57574.7788,28770.7597,54561.2723,43148.3835,37252.7987,40034.7859,5758.4345,50482.7946,43686.8817,55885.7024,1340.0763,-189.2745,26752.9786
57561.5019,28765.7082,54557.3831,43141.0521,37233.9338,40030.852,5759.0157,50472.7364,43681.0255,55880.8744,1327.2017,-199.5116,26750.4752
57539.776,28754.0853,54556.042,43126.6576,37212.9232,40025.3981,5756.6017,50449.58,43664.8875,55872.8725,1306.0123,-213.7721,26743.0991
57536.3785,28752.6101,54553.1362,43123.1707,37212.2526,40026.7392,5753.1595,50451.5022,43668.2403,55874.6159,1299.0385,-216.499,26741.1768
57561.5913,28766.1999,54555.5502,43137.2523,37239.8347,40040.2397,5757.3617,50489.2319,43680.2208,55888.5634,1315.3553,-202.3727,26747.033
57574.8682,28766.8258,54556.9807,43148.16,37261.1135,40044.3077,5761.2062,50512.4778,43692.9166,55896.2524,1329.6604,-193.1638,26752.3527
57558.1044,28757.9298,54549.4258,43142.7509,37248.5518,40037.2446,5755.8864,50486.2815,43680.3997,55886.6858,1318.7975,-203.0879,26748.0165
57537.4067,28746.2622,54550.4987,43128.6246,37217.4829,40026.6051,5753.5619,50463.6616,43660.6407,55873.1407,1301.4525,-215.1132,26742.7862
57545.945,28742.0154,54553.1809,43127.1493,37213.1467,40028.2592,5756.0205,50459.7276,43673.6494,55883.3778,1301.229,-210.8663,26747.033
57560.3843,28743.0435,54554.835,43144.7625,37235.2302,40032.506,5755.4394,50477.3408,43690.7709,55886.9094,1326.5759,-193.5214,26755.5267
57563.2453,28742.0154,54553.9409,43152.8538,37246.4508,40030.2261,5752.8466,50487.712,43695.6882,55888.2505,1339.1376,-191.7332,26755.9737
57548.5379,28734.8628,54548.8,43140.0239,37227.9435,40021.9113,5748.6445,50473.1387,43671.8613,55876.404,1322.4185,-208.2735,26750.2517
57525.5156,28726.8609,54547.593,43126.4341,37204.5189,40011.5401,5745.247,50444.5732,43652.1024,55866.8822,1297.6974,-225.7079,26742.6968
57524.398,28720.7812,54546.3413,43127.9987,37206.1729,40016.368,5742.6542,50440.9522,43647.4532,55865.854,1295.8646,-227.8537,26741.8921
57545.5874,28730.303,54540.7534,43134.5254,37230.4469,40023.0736,5741.2684,50465.7626,43666.8545,55867.8657,1314.2377,-210.3299,26745.3343
57559.6243,28739.1543,54540.664,43143.5555,37242.0698,40027.3204,5741.2237,50490.4836,43678.5221,55875.7335,1323.7596,-204.3843,26747.2565
57548.3143,28735.6675,54532.5726,43130.6362,37215.3819,40013.7752,5730.9866,50471.887,43660.9536,55868.1339,1305.0735,-218.3318,26740.3722
57534.7245,28729.9454,54529.2646,43137.5206,37186.1458,40006.2203,5725.8904,50448.1941,43639.496,55854.9911,1282.3641,-233.1287,26734.4266
57541.4747,28731.2865,54531.6786,43163.4039,37197.1428,40017.6197,5728.4385,50455.8831,43641.0159,55854.4099,1292.1542,-227.496,26738.4499
57565.9722,28740.2272,54533.4667,43190.5389,37222.2662,40032.8189,5732.5512,50480.023,43661.4007,55864.5129,1318.0822,-207.3348,26743.0991
57570.979,28742.0154,54532.9303,43207.8391,37224.0543,40035.7693,5731.6124,50489.5449,43664.6193,55862.9036,1324.9665,-202.9091,26743.9038
57549.7448,28731.3759,54530.3375,43208.9567,37201.4791,40031.5672,5727.7232,50472.4681,43645.5756,55850.6548,1310.4379,-217.7954,26738.9864
57522.0287,28714.2098,54530.3375,43200.6866,37179.172,40019.6314,5726.6057,50436.8395,43622.6875,55846.855,1288.3097,-233.0393,26732.9514
57520.0617,28709.2477,54524.973,43191.3882,37183.1506,40016.7257,5726.6504,50431.6092,43615.3561,55846.6762,1284.5993,-237.8225,26731.0292
57541.1618,28717.4731,54524.079,43189.9577,37217.2147,40022.7159,5733.8476,50465.7179,43628.4095,55853.2029,1309.678,-214.9791,26737.0641
57543.3969,28725.341,54528.0129,43185.9344,37233.4868,40022.3136,5741.626,50478.9948,43630.4212,55865.5411,1322.7761,-206.2172,26744.0826
57518.1842,28712.6899,54523.0955,43163.1356,37206.4412,40010.9589,5738.4074,50450.7422,43609.9917,55856.1534,1312.986,-219.36,26739.2099
57496.4583,28703.168,54523.3637,43151.1104,37186.7716,39999.9171,5735.8593,50416.9911,43587.4164,55845.8716,1292.6906,-232.324,26736.6618
57486.8023,28707.1913,54521.665,43174.5797,37187.2187,39998.6655,5740.1955,50408.0057,43584.1531,55848.0173,1294.2553,-228.6583,26741.1768
57504.2367,28718.5013,54519.3851,43217.0033,37207.7823,39999.9171,5744.9341,50417.7064,43594.0325,55855.5722,1308.7839,-218.0189,26742.7415
57508.4835,28724.9386,54519.1169,43240.1597,37225.306,39998.8443,5750.8349,50417.7511,43587.5952,55856.3769,1319.2445,-206.8877,26743.3673
57487.8752,28725.4304,54516.9264,43237.3434,37211.8056,39991.0659,5749.7174,50387.308,43569.6691,55853.2476,1308.8733,-215.292,26740.1934
57452.6042,28720.5577,54509.908,43205.0228,37176.4451,39977.1631,5741.626,50341.8446,43540.6566,55839.7919,1290.0084,-235.8109,26729.5092
57436.3768,28718.2778,54504.8565,43182.5817,37170.6337,39968.8035,5738.9438,50332.9039,43537.3038,55838.5849,1288.7567,-233.978,26725.2177
57449.3855,28720.7812,54506.3317,43185.2639,37196.964,39966.2107,5742.8777,50347.3431,43545.3951,55841.9377,1305.3417,-219.1812,26728.5258
57452.5595,28721.9435,54501.9507,43193.3552,37207.4693,39962.5003,5741.626,50342.8727,43543.0259,55840.4177,1311.7343,-216.8566,26731.3868
57437.5838,28722.1223,54497.838,43228.2239,37188.4257,39955.0796,5737.6474,50321.4151,43523.0881,55833.6228,1295.4175,-229.463,26727.5423
57412.8181,28714.8803,54493.9935,43239.7127,37161.5142,39943.7249,5732.73,50273.627,43500.8258,55822.7152,1272.6188,-251.0548,26717.8863
57407.3642,28715.9085,54491.0431,43259.5164,37163.7493,39946.72,5732.0595,50261.7806,43496.1319,55819.0048,1275.2563,-251.4124,26716.4111
57434.1863,28727.2185,54488.3609,43284.7738,37193.343,39952.4868,5732.5959,50277.6057,43511.7781,55820.48,1291.6625,-236.5708,26719.898
57450.0561,28734.5499,54489.5679,43302.387,37208.9893,39954.409,5735.3228,50290.4356,43519.0648,55819.5859,1302.1231,-229.5971,26724.1448
57430.476,28731.3312,54494.8876,43318.7038,37192.7619,39952.3526,5738.5415,50279.2597,43510.4817,55828.9737,1297.7421,-228.0772,26727.0505
57405.3973,28723.9105,54497.7486,43316.8262,37164.9563,39944.4848,5738.4074,50250.5153,43487.7276,55818.7813,1282.2747,-240.46,26723.1166
57403.028,28724.134,54501.6825,43296.7544,37151.4559,39945.8259,5738.765,50230.7564,43492.6003,55816.2779,1284.5099,-240.2365,26722.4908
57429.0901,28726.2797,54505.5717,43294.7427,37177.8309,39956.2418,5739.7485,50245.3297,43506.4137,55822.0893,1305.297,-226.2443,26726.6035
57439.3272,28725.5198,54504.8565,43285.4891,37186.7269,39953.7385,5739.212,50255.9245,43502.2116,55822.7152,1309.0968,-219.3153,26726.827
57424.5304,28712.6452,54498.1509,43266.7136,37171.1254,39944.7531,5733.937,50239.2948,43485.5819,55815.9202,1296.7587,-230.0441,26718.8698
57402.3575,28701.8269,54496.4075,43247.4464,37139.5648,39938.584,5732.6853,50199.8216,43472.3049,55809.0359,1275.748,-246.4503,26712.2537
57402.3575,28703.9727,54496.8545,43236.4941,37130.2217,39934.8736,5734.6523,50205.4989,43478.7869,55811.4499,1273.1999,-246.9867,26715.6512
57423.0999,28703.0339,54489.5232,43242.7078,37155.3451,39938.2263,5730.8525,50230.22,43488.4876,55811.6287,1286.4769,-235.7662,26716.0982
57423.5916,28698.7424,54487.0198,43238.5057,37159.5025,39940.3721,5723.6552,50227.1801,43492.0639,55808.5442,1288.8461,-236.9732,26713.1478
57410.1806,28696.1049,54487.9586,43223.0383,37136.3461,39930.0456,5720.0342,50202.3697,43484.3302,55801.0787,1281.783,-246.6291,26709.3927
57390.064,28685.2419,54481.2977,43200.6866,37112.7874,39925.1729,5712.837,50172.5078,43465.2418,55790.7969,1262.5605,-264.1976,26702.4636
57386.9348,28676.8824,54471.9547,43193.3999,37112.7874,39918.1098,5708.5454,50169.0209,43452.5907,55786.9971,1259.4312,-264.734,26698.3062
57416.2602,28680.9951,54469.8089,43198.7196,37132.591,39918.3333,5710.0207,50194.7701,43466.4488,55790.0816,1282.23,-250.3842,26701.659
57433.9628,28690.6511,54471.3289,43205.7828,37146.4044,39921.9096,5713.0605,50209.7011,43476.5965,55795.1331,1293.987,-240.46,26706.4422
57426.1844,28682.0233,54466.9926,43196.5739,37130.4452,39918.6909,5711.3618,50190.3445,43462.6937,55796.1613,1285.091,-248.462,26703.1789
57400.1223,28667.4052,54458.0519,43178.1113,37101.4774,39907.1574,5703.6281,50152.7935,43445.6617,55780.2916,1268.1037,-263.5717,26695.9816
57407.2301,28659.8057,54457.5602,43166.399,37101.7456,39900.0943,5698.5766,50142.02,43451.0708,55783.5996,1267.3885,-265.7175,26699.2003
57442.3224,28669.104,54461.7176,43175.4738,37132.4569,39910.1973,5703.2257,50169.2891,43474.5401,55797.1001,1285.0016,-247.0315,26708.4539
57448.715,28672.8144,54461.0918,43181.8217,37145.4209,39915.964,5702.8681,50182.8343,43486.0289,55801.3022,1290.9472,-239.8342,26711.4937
57444.1552,28671.518,54468.8255,43175.1162,37136.1673,39915.4723,5708.5454,50171.122,43487.817,55804.3867,1282.4982,-244.8857,26710.0632
57429.4031,28673.3508,54468.8702,43162.6439,37106.8865,39904.8775,5705.4609,50144.0763,43468.8628,55799.9164,1262.9628,-258.4755,26702.4189
57429.9395,28671.4286,54467.7079,43155.8043,37097.767,39902.6424,5699.56,50147.0268,43468.0581,55797.0107,1256.0338,-260.8895,26700.0049
57457.298,28676.9271,54468.3784,43179.2736,37125.662,39914.4888,5701.3929,50186.0082,43485.0007,55799.1564,1272.0376,-248.1043,26704.3412
57464.9423,28686.7172,54465.6515,43221.5631,37137.5531,39917.8863,5704.2092,50215.3784,43501.0493,55806.9795,1279.369,-238.4037,26708.3645
57447.7762,28683.3644,54463.3269,43226.8828,37127.763,39912.2089,5704.6562,50200.2686,43500.9152,55802.7327,1274.2281,-245.2433,26706.5316
57419.0766,28665.1254,54459.8401,43214.0082,37105.6795,39905.9504,5701.3035,50174.0277,43480.2175,55795.446,1255.542,-263.3482,26697.8145
57415.545,28661.4597,54454.8333,43247.4464,37105.456,39900.4519,5698.5766,50170.7643,43475.0766,55796.3848,1251.2505,-271.6184,26693.7464
57436.3321,28669.0593,54452.911,43321.9671,37137.6872,39906.7551,5704.9692,50203.6214,43499.127,55808.5442,1278.2514,-250.2501,26703.6259
57448.3573,28670.0875,54450.9441,43373.1079,37148.6396,39908.5879,5705.7738,50219.2676,43501.6751,55814.445,1285.0016,-243.4552,26706.8446
57430.6995,28658.8669,54450.7653,43398.6336,37130.3111,39901.6142,5705.0139,50199.3746,43486.6548,55805.7725,1278.4302,-252.6641,26703.5812
57409.8229,28653.0554,54451.7487,43389.7823,37104.3831,39900.8542,5706.5338,50173.0889,43469.4439,55792.3615,1264.3933,-263.6164,26703.4471
57403.2515,28655.6929,54450.0053,43352.3655,37100.1363,39902.7765,5703.0916,50164.4164,43471.992,55789.0534,1264.3039,-259.7272,26706.6658
57429.1795,28669.2828,54454.9227,43350.4432,37136.4802,39925.307,5710.1995,50200.9839,43497.4283,55801.8833,1290.6343,-239.2083,26718.3781
57457.298,28684.8396,54460.8682,43345.3023,37157.0438,39943.9484,5720.0789,50236.8808,43511.7781,55805.7278,1305.4311,-225.082,26724.726
57444.4681,28687.1642,54459.7059,43317.9438,37137.1508,39936.7958,5717.7097,50227.3589,43510.7499,55804.1185,1293.2271,-232.324,26718.5122
57415.098,28678.6705,54456.2638,43329.7455,37108.8535,39921.9096,5707.8749,50195.6195,43489.2923,55794.7755,1265.3768,-254.2287,26707.381
57421.3117,28683.9455,54460.1977,43397.6948,37115.2908,39930.6715,5711.0488,50201.9227,43495.059,55802.1516,1265.1533,-250.563,26709.6609
57434.3204,28690.8299,54461.8964,43440.4761,37141.487,39938.4946,5719.8554,50224.632,43507.2184,55812.031,1285.851,-236.7496,26715.1594
57450.1455,28698.653,54461.5835,43431.9377,37158.6978,39943.3672,5722.0012,50237.4172,43520.1377,55813.9086,1297.6527,-230.2229,26716.7687
57443.2164,28696.3284,54459.8401,43399.7512,37150.3383,39939.7463,5719.0955,50227.7613,43509.4088,55805.9961,1289.3826,-242.3376,26712.3878
57432.7558,28688.7288,54462.3882,43366.4471,37126.8243,39938.4499,5714.3122,50219.2676,43492.8685,55799.9611,1271.9482,-256.2851,26705.9058
57427.9279,28687.4324,54458.3201,43345.8835,37127.8971,39941.5344,5711.4959,50225.4814,43501.3622,55801.6598,1266.852,-255.7933,26703.6706
57446.5692,28688.1924,54454.1627,43352.4996,37158.1614,39949.1787,5710.1548,50251.0965,43518.0813,55808.0077,1283.3476,-238.2249,26710.5997
57459.8908,28690.3828,54452.5087,43387.5918,37169.2032,39952.3526,5708.8137,50265.7592,43523.8928,55807.5607,1295.954,-230.7147,26713.5054
57440.0425,28680.9057,54447.9042,43364.9719,37152.0817,39943.8143,5699.1577,50256.9526,43516.6508,55802.241,1283.5711,-242.874,26707.1128
57404.235,28663.4713,54442.0034,43322.4142,37112.8321,39927.274,5689.4124,50220.9663,43492.2427,55790.2604,1256.2573,-262.4542,26692.8077
57405.6655,28655.5588,54439.7682,43333.903,37112.7874,39918.6015,5686.0596,50213.2326,43485.8948,55785.5219,1250.8929,-267.6398,26688.695
57426.7656,28657.794,54436.9519,43382.4956,37138.0448,39921.3731,5680.3823,50239.7418,43503.9103,55790.2157,1266.4944,-254.6757,26690.0808
57435.9745,28663.1584,54437.2648,43430.5072,37151.7688,39923.2507,5681.9022,50246.2238,43508.1571,55786.3265,1275.9268,-252.3959,26690.2149
57422.2505,28661.9514,54437.3095,43438.3303,37135.0944,39920.8367,5684.6738,50238.7583,43507.1737,55795.7143,1273.0211,-257.5815,26694.5064
57407.0066,28656.3635,54437.6671,43397.1584,37116.4083,39909.3032,5683.0198,50216.4066,43491.8404,55794.7755,1252.0999,-272.2889,26689.4549
57410.8511,28655.0224,54441.8693,43370.9174,37119.5823,39914.9805,5684.9867,50214.0373,43499.7529,55796.0272,1253.9774,-268.4891,26692.8524
57425.6033,28660.4762,54445.7585,43366.3577,37143.2751,39925.1729,5696.3861,50243.8098,43514.5497,55804.2079,1272.2164,-248.149,26704.2518
57437.9861,28665.483,54448.5301,43357.3723,37161.2906,39921.5519,5701.2141,50266.8321,43524.1163,55811.584,1283.7946,-242.6952,26709.1691
57427.7043,28662.7114,54445.8032,43336.4958,37152.2158,39916.5452,5698.8448,50251.5882,43523.8034,55814.1321,1272.3058,-252.7982,26704.7882
57406.2467,28650.6414,54439.3659,43318.3461,37122.488,39912.0748,5694.3297,50225.392,43509.9453,55806.3537,1253.7986,-268.3103,26699.7814
57408.3477,28649.7474,54438.0695,43311.0148,37119.9846,39911.4043,5695.4026,50218.2841,43507.8889,55803.4927,1251.7422,-268.9809,26701.8825
57435.3039,28658.6434,54441.154,43312.1324,37149.4442,39917.7969,5696.8778,50254.3598,43529.5701,55815.205,1271.2777,-253.6029,26702.5083
57442.3671,28661.1468,54442.8974,43308.5561,37159.4578,39914.0865,5696.9225,50276.3987,43543.3388,55823.2069,1279.7266,-244.4834,26705.0117
57428.1961,28661.7279,54443.6127,43295.1003,37147.1196,39914.2206,5700.767,50262.63,43544.0987,55825.2633,1273.3787,-245.6456,26707.7833
57407.1407,28655.5141,54442.8527,43271.0946,37121.9516,39912.2089,5698.8001,50240.1441,43530.8665,55815.5626,1254.8715,-258.1179,26703.76
57401.5528,28654.6648,54442.5398,43266.2219,37123.3821,39912.7454,5697.4143,50250.2024,43526.7985,55813.1486,1250.7588,-262.2753,26699.7814
57430.7442,28658.554,54442.1822,43276.9954,37148.4607,39919.4956,5700.767,50280.422,43542.6682,55818.5577,1270.1601,-247.3891,26702.0166
57446.8374,28663.7843,54443.2998,43280.6164,37169.382,39928.2575,5708.3666,50299.2868,43553.4865,55825.755,1286.298,-231.7429,26708.0516
57434.1863,28663.3819,54446.5631,43274.6261,37162.3635,39933.5325,5711.7641,50286.4122,43537.6614,55825.1739,1281.5595,-238.8954,26709.5268
57412.9522,28664.723,54445.8926,43261.4833,37139.5648,39922.4013,5704.7457,50260.0819,43519.4224,55819.4965,1262.784,-259.7272,26700.6308
57412.8181,28667.0476,54445.8479,43255.8954,37137.1508,39920.9261,5706.6232,50248.1014,43522.5964,55812.4334,1260.7276,-260.6213,26697.6357
57440.5342,28670.758,54445.5349,43267.4736,37171.6172,39937.4664,5712.2558,50275.8175,43537.885,55812.344,1286.3874,-241.8458,26707.1128
57454.437,28671.8309,54449.7371,43277.4872,37186.2799,39948.2846,5717.665,50295.2635,43544.9034,55820.927,1299.575,-230.2676,26714.0418
57445.541,28677.1506,54457.5155,43274.5814,37176.6686,39948.5081,5719.0508,50289.4074,43539.7178,55821.1952,1287.0133,-237.599,26712.7007
57414.6509,28666.9582,54450.8547,43254.1519,37143.4093,39935.3653,5712.3005,50258.8302,43522.3728,55803.6715,1266.2709,-261.0236,26699.6026
57405.4867,28666.1983,54448.083,43245.0771,37133.1275,39930.6267,5705.7291,50249.8001,43517.9025,55801.3022,1261.6217,-263.3929,26697.2333
57426.0503,28672.4567,54452.1064,43259.6952,37162.4976,39937.1088,5707.0255,50279.5726,43530.3748,55810.5558,1279.2349,-242.3376,26706.4422
57432.3982,28672.6803,54455.1909,43259.3375,37174.2547,39939.791,5707.6961,50300.4491,43544.054,55820.0777,1286.298,-231.1617,26711.449
57426.0056,28661.9514,54453.2239,43251.2015,37166.6104,39939.791,5707.3385,50295.1294,43535.7839,55818.513,1277.2232,-240.5941,26704.967
57411.7005,28663.3372,54455.2356,43240.0703,37147.969,39937.7793,5707.0255,50264.9546,43517.9919,55810.6005,1264.6168,-255.3463,26703.9835
57412.7734,28667.6288,54455.8167,43237.0305,37139.833,39942.205,5707.9196,50256.2374,43521.2106,55812.6569,1265.1086,-254.0052,26713.0136
57435.751,28666.6006,54451.7934,43242.3502,37165.2693,39947.7035,5705.1927,50287.7533,43535.4263,55816.7696,1279.2349,-239.566,26716.3664
57449.162,28660.5209,54449.5583,43242.2608,37180.2896,39950.341,5706.1762,50297.0517,43541.1483,55814.7132,1291.4389,-229.6418,26718.3781
57439.9084,28654.6201,54448.5748,43228.6263,37169.4267,39941.8473,5706.4444,50281.7631,43536.3203,55808.7677,1282.9453,-239.6554,26712.2537
57416.7967,28647.1099,54446.9655,43214.0082,37143.141,39931.4314,5700.8117,50247.9672,43521.7917,55801.7939,1261.2641,-257.6709,26704.2518
57407.3642,28634.28,54443.7468,43202.2512,37129.4171,39924.1,5693.1227,50238.7583,43520.2271,55796.4742,1253.1281,-267.2821,26694.9087
57422.4293,28640.2255,54442.6739,43203.2347,37147.4773,39925.9329,5696.9672,50261.8253,43536.4097,55805.6384,1264.6616,-258.2073,26696.5181
57436.4662,28645.2323,54440.8411,43204.2629,37157.9826,39925.5753,5699.2471,50273.9847,43539.8072,55805.9514,1269.6236,-252.4853,26697.1886
57426.7209,28640.2255,54440.9305,43197.155,37147.522,39925.3517,5696.5649,50265.6698,43537.6167,55806.5772,1258.4925,-259.1461,26694.2829
57406.2914,28634.9505,54442.1375,43183.5204,37135.8544,39925.7541,5697.8613,50245.1509,43534.0405,55808.3653,1240.0299,-269.4279,26690.9748
57403.1621,28636.4257,54441.2881,43178.3348,37130.3558,39921.7308,5698.3978,50251.2306,43538.779,55806.8007,1243.7403,-266.3881,26694.2829
57423.9045,28645.0982,54446.7866,43190.3154,37154.1828,39934.4265,5704.7009,50278.6338,43560.3708,55825.1739,1273.4681,-241.9353,26705.9505
57443.2611,28648.7192,54450.1394,43198.809,37182.5248,39941.4003,5709.7524,50297.0517,43577.0005,55836.0368,1289.1144,-228.256,26711.3596
57435.3933,28648.898,54453.4028,43196.8868,37180.2002,39937.7793,5709.3501,50289.6756,43567.7022,55830.0912,1277.8938,-235.2744,26713.0136
57417.4225,28645.0535,54452.8663,43183.8334,37151.0983,39932.1914,5705.148,50267.2791,43552.9947,55822.7152,1261.4876,-248.909,26711.002
57426.1397,28651.4014,54460.6447,43180.3465,37145.6891,39938.3605,5707.2043,50267.8156,43561.5778,55829.3313,1264.7063,-243.4105,26714.6677
57453.4088,28670.3557,54466.8585,43192.4611,37178.9485,39953.5596,5716.2791,50306.1265,43585.4048,55841.8483,1286.0745,-225.8867,26724.4577
57464.093,28677.4635,54465.2045,43198.9431,37196.6958,39954.856,5717.9779,50329.2382,43597.2065,55842.8764,1293.987,-217.393,26727.3188
57457.4769,28672.9485,54462.6117,43197.1997,37184.2682,39949.0893,5717.9779,50313.6814,43592.4679,55842.9211,1287.4156,-226.0655,26719.7639
57434.0075,28665.2148,54463.5952,43180.3912,37160.3966,39944.7531,5715.5192,50289.9885,43572.9325,55833.0864,1266.4944,-245.0198,26709.7056
57439.0143,28670.2663,54464.0422,43174.0433,37162.1847,39946.6753,5717.7097,50294.1906,43570.1609,55831.2088,1261.8005,-246.2715,26711.5384
57451.8889,28669.998,54461.9411,43179.9442,37185.4305,39947.167,5714.8039,50323.2926,43589.6516,55833.444,1276.3292,-232.5475,26712.7901
57465.4788,28673.5296,54463.4163,43186.1579,37201.1214,39948.3293,5712.3452,50334.8708,43597.2512,55836.9756,1284.7781,-226.3784,26710.0185
57460.3826,28675.8989,54465.7856,43179.0501,37183.7765,39943.7696,5710.0207,50331.6075,43588.6234,55833.891,1276.2398,-236.5708,26705.5929
57446.1222,28674.2449,54471.2394,43175.4291,37165.9398,39941.4003,5711.3618,50316.7212,43576.0617,55830.0912,1264.6168,-248.6855,26703.2236
57445.7198,28679.2517,54468.7808,43178.9607,37172.5559,39945.8259,5715.5639,50307.4229,43576.7323,55825.0397,1271.9482,-248.4173,26705.9058
57474.4642,28696.5519,54479.9566,43192.6847,37205.8153,39968.0883,5727.9468,50347.9242,43603.0179,55844.9775,1294.7917,-224.9479,26723.0719
57485.8189,28711.2147,54486.5727,43198.1385,37223.205,39978.7277,5732.283,50376.8474,43622.151,55855.5275,1307.0405,-211.2687,26728.5705
57485.193,28711.5276,54487.5115,43206.0957,37219.9416,39974.6597,5736.8428,50370.1419,43614.6408,55850.789,1297.4739,-215.6943,26727.0952
57468.9209,28707.7278,54493.5018,43200.2395,37195.6676,39967.5518,5737.7368,50353.8251,43609.3211,55850.5207,1281.3359,-227.7195,26724.5471
57474.9112,28717.2496,54498.9109,43205.3804,37197.3217,39975.5538,5743.8612,50361.2906,43611.5116,55851.0125,1287.8627,-220.567,26725.7094
57500.6604,28729.3196,54504.6777,43216.3328,37222.0427,39986.5061,5748.3763,50388.6044,43626.0849,55856.9133,1302.8383,-204.2949,26735.3207
57521.0899,28735.5334,54503.5601,43220.669,37232.1457,39992.4517,5751.282,50408.8104,43634.7127,55862.0095,1313.4331,-195.6671,26741.758
57500.4369,28733.2982,54505.527,43212.7565,37219.3605,39988.2942,5749.9409,50398.4392,43631.4046,55861.9648,1304.5371,-203.8032,26738.7182
57478.8451,28726.6374,54505.8846,43201.6701,37194.55,39977.7889,5743.4142,50373.6287,43617.2336,55854.4993,1288.712,-218.4212,26732.7279
57480.8121,28728.2914,54506.734,43197.4679,37190.1244,39980.6947,5740.1061,50371.0359,43616.429,55854.1417,1287.1474,-223.2492,26731.4315
57495.9666,28731.5547,54507.4493,43207.6603,37220.0757,39988.2942,5740.5084,50394.5947,43623.2239,55857.718,1299.2173,-212.7439,26733.622
57506.1142,28730.2136,54505.8846,43209.2249,37234.5597,39989.9036,5735.9934,50403.446,43630.1976,55856.2875,1300.9608,-212.878,26730.1798
57497.5759,28727.0844,54506.3317,43196.708,37218.5111,39983.3322,5732.3724,50382.2118,43626.9343,55851.5489,1288.1756,-223.6068,26724.1895
57481.0356,28722.5693,54507.1363,43192.1929,37198.171,39977.8336,5728.662,50355.9262,43605.0743,55839.2107,1268.9531,-241.5776,26712.209
57478.8004,28720.6024,54504.9906,43191.6118,37194.9077,39980.3817,5728.0362,50360.5306,43604.6273,55838.272,1266.1815,-241.22,26711.0467
57496.5477,28723.5528,54498.8662,43203.5029,37212.4761,39980.1582,5727.4997,50382.1671,43624.7885,55840.5071,1286.2533,-228.2113,26712.5219
57514.8761,28724.8492,54498.1509,43204.3523,37225.2613,39983.7792,5727.1421,50405.3682,43635.9197,55852.89,1290.3214,-225.7526,26715.8747
57508.1259,28725.7433,54500.699,43198.4961,37222.6238,39986.1038,5728.8408,50408.4975,43631.4493,55854.5887,1287.9074,-227.4066,26718.4228
57487.0259,28719.6189,54502.2637,43189.6448,37203.5801,39981.7228,5729.3773,50386.101,43610.4387,55849.0902,1274.9881,-236.1685,26718.1993
57489.3951,28716.7579,54506.4211,43185.3086,37203.8484,39984.8521,5733.4006,50379.9319,43615.669,55851.1019,1276.7762,-229.1948,26721.2838
57514.9208,28723.1952,54507.2258,43198.6749,37231.8774,39994.0163,5738.765,50399.7356,43636.4561,55859.7296,1297.4739,-212.5651,26728.3022
57538.8819,28730.9289,54514.1548,43209.359,37250.1612,40002.8229,5742.4307,50415.8735,43658.6738,55870.9055,1308.2474,-207.3795,26736.7512
57532.8022,28733.0747,54520.2792,43206.0957,37237.1525,40002.7335,5743.8612,50407.7822,43654.874,55872.1572,1302.1678,-211.9839,26734.8289
57507.1424,28729.7666,54520.9497,43194.9645,37203.4013,39997.682,5742.2966,50386.4586,43648.3026,55864.4682,1286.8792,-223.9197,26729.3304
57507.813,28727.1738,54521.9779,43190.226,37198.4392,39993.8822,5740.9555,50386.6822,43641.4182,55865.0047,1277.3126,-230.3123,26726.7823
57528.4213,28736.0251,54520.1004,43193.087,37225.5296,40003.2252,5740.6873,50422.5791,43652.6835,55870.9502,1295.9987,-220.8799,26729.7328
57540.9383,28738.5732,54517.9099,43200.5972,37244.3944,40011.9424,5742.7883,50434.6043,43664.9323,55873.9901,1308.158,-211.9392,26728.6599
57529.7177,28731.2865,54516.8817,43195.3222,37231.8327,40006.1309,5740.1508,50420.7015,43650.0907,55864.2,1296.4904,-218.8683,26722.6249
57509.3329,28726.0115,54517.6417,43183.6545,37207.2905,39994.9104,5743.3695,50397.7239,43641.597,55862.9483,1279.4137,-235.185,26720.7026
57503.6556,28722.7482,54517.3734,43174.5797,37206.5753,39987.7578,5740.2849,50390.5267,43635.428,55861.6966,1272.44,-242.9187,26721.8202
57524.9344,28727.6655,54520.0557,43182.6264,37225.2613,39991.0212,5738.6756,50414.0407,43650.6718,55865.407,1290.8578,-227.7642,26729.4198
57536.9149,28735.2204,54526.1353,43191.2988,37244.9756,39999.5595,5742.3413,50434.2467,43664.7534,55878.9521,1302.5701,-218.3765,26732.9514
57524.8003,28736.2933,54526.7612,43195.7692,37232.101,40002.3758,5742.2519,50424.4119,43657.9138,55878.1028,1297.608,-220.4776,26730.1798
57507.3212,28731.5547,54526.9847,43187.2308,37200.4062,39998.0396,5742.9671,50401.6578,43642.1335,55872.6043,1281.023,-227.496,26727.3635
57504.0579,28729.0961,54530.7845,43184.7721,37199.1545,40000.1407,5744.0847,50404.2953,43642.4017,55873.4089,1278.922,-227.5854,26729.0622
57530.4329,28737.4109,54533.8243,43192.4164,37227.9882,40009.0367,5748.7339,50430.268,43663.8594,55878.5945,1298.2786,-211.6263,26736.6171
57544.7381,28741.4342,54531.2315,43196.4397,37244.0815,40013.2388,5747.661,50445.3778,43670.4308,55877.5663,1306.7275,-210.5087,26732.6385
57531.9529,28744.4293,54537.6688,43196.2162,37244.5285,40013.4623,5750.8349,50446.2719,43665.7369,55880.8297,1300.2455,-215.2026,26734.0243
57507.0977,28744.6976,54539.457,43188.3931,37221.9533,40004.0746,5747.8845,50429.4634,43654.4716,55874.9288,1282.8112,-229.8206,26731.8338
57499.1852,28735.4439,54533.1985,43179.2736,37204.7424,39997.9949,5741.9389,50420.0757,43646.2909,55873.2301,1276.2398,-235.0509,26727.1847
57529.4942,28740.9425,54533.8243,43194.2046,37231.2069,40006.6674,5742.3413,50448.82,43664.0382,55881.1426,1293.8976,-219.5388,26730.1351
57543.3522,28750.1961,54534.4949,43203.8605,37247.1213,40011.4059,5745.6493,50467.819,43670.9672,55883.199,1304.3135,-211.0451,26734.4713
57524.3533,28745.1446,54529.5328,43190.8965,37225.1719,40004.7898,5743.1459,50451.9939,43660.4172,55875.8229,1291.886,-221.6399,26726.4694
57497.1735,28732.4935,54524.3472,43170.5117,37193.4772,39990.0824,5736.6639,50427.72,43638.1102,55866.3458,1267.5226,-242.3823,26713.7736
57491.7644,28729.3196,54519.4745,43167.4272,37194.55,39987.4002,5735.144,50422.132,43631.1811,55863.8424,1267.2096,-241.7117,26711.1361
57516.6643,28733.477,54514.0207,43176.0997,37218.5558,39997.9055,5734.2499,50441.578,43643.6981,55865.0047,1282.5876,-226.7808,26713.6842
57525.7391,28736.5168,54511.9196,43179.7206,37232.0563,39999.3807,5735.0099,50461.0687,43657.2433,55870.9055,1291.2154,-222.221,26714.623
57517.6477,28737.0086,54516.0323,43176.3232,37226.1107,39999.2466,5738.1392,50462.2757,43656.1257,55877.7004,1280.6207,-230.9829,26714.9806
57493.5079,28729.5878,54521.5309,43165.639,37198.6628,39993.2563,5735.6358,50436.3924,43642.9828,55872.6043,1262.9628,-244.2598,26708.9456
57499.9005,28731.6442,54525.3307,43164.7003,37192.2255,39998.2184,5737.8262,50437.2418,43645.6203,55873.2301,1266.2262,-238.6272,26712.9242
57528.913,28738.8414,54528.9069,43180.1677,37221.6851,40011.3612,5741.5813,50471.2611,43669.8943,55884.3613,1287.3709,-223.5621,26723.7872
57539.5972,28748.5868,54530.8292,43189.1531,37240.1476,40017.9327,5746.7669,50484.9404,43689.7427,55893.9725,1302.3913,-213.8615,26730.0457
57531.5058,28748.9891,54531.3209,43183.6098,37227.4965,40016.0551,5749.0915,50472.2446,43682.009,55893.3467,1296.8928,-219.7623,26729.1516
57523.9509,28744.6976,54534.7184,43179.0501,37219.584,40011.8083,5752.8019,50454.4079,43661.3113,55885.5683,1280.8442,-230.8488,26724.4577
57521.8946,28742.6859,54538.3841,43176.949,37217.93,40013.0153,5754.3665,50457.5819,43661.8477,55886.0153,1280.7548,-232.7263,26723.519
57543.5311,28743.9376,54538.8758,43184.9062,37240.9523,40018.0221,5757.0487,50488.6061,43683.0819,55895.8054,1302.3466,-217.8848,26732.9961
57555.4669,28756.4993,54537.4006,43189.5107,37250.2506,40015.6528,5757.4958,50500.7207,43690.4579,55902.1533,1312.4049,-206.7089,26739.1652
57539.7313,28761.1037,54540.2616,43179.1395,37236.7948,40013.1494,5756.3782,50484.6275,43677.5386,55896.7441,1301.8101,-216.9013,26734.4713
57513.8479,28749.5255,54532.7067,43160.2746,37209.481,40001.8841,5745.7834,50454.9891,43665.8263,55884.406,1279.8607,-238.9401,26724.5471
57512.0151,28741.7471,54531.9915,43161.0793,37210.9115,39996.8773,5743.1012,50443.3662,43658.8973,55880.9638,1272.0823,-243.1422,26726.2459
57526.7226,28746.3069,54531.1421,43173.328,37232.4586,40003.7169,5742.2966,50464.9132,43671.6378,55887.5352,1289.4273,-223.8303,26731.8338
57542.4582,28756.6781,54535.2548,43178.8266,37250.3847,40010.646,5745.8729,50487.5332,43683.5736,55895.8501,1303.5089,-214.3085,26733.9349
57540.6253,28757.4828,54537.8029,43172.5681,37234.4255,40006.1756,5747.7951,50488.3826,43686.1664,55892.7655,1299.6644,-216.2308,26733.1302
57527.7507,28747.5139,54540.9769,43156.8325,37210.0174,39995.8938,5747.1693,50467.7296,43677.3598,55892.989,1276.0162,-232.324,26729.2857
57517.156,28737.0533,54539.7252,43150.7081,37203.5354,39992.1834,5739.8826,50448.1494,43677.3598,55887.9375,1271.2777,-238.0013,26728.1234
57536.6467,28741.1213,54543.7485,43165.1473,37227.3177,40002.1076,5741.4025,50463.6616,43683.8418,55894.0619,1291.886,-223.7856,26733.1302
57544.1122,28744.6976,54543.1674,43176.3679,37241.8463,40006.4886,5747.8845,50488.5167,43686.524,55893.9278,1303.8665,-215.4261,26736.0806
57529.7177,28742.5965,54541.9157,43158.8888,37231.1622,39993.6587,5742.6989,50471.8423,43675.527,55886.4176,1293.0483,-223.7409,26729.9116
57521.1793,28737.7685,54542.9885,43153.7479,37217.4382,39993.301,5743.2801,50452.3069,43667.9721,55880.0697,1281.6042,-236.2132,26725.5753
57518.0948,28734.5499,54543.7932,43150.9763,37213.9961,39991.0212,5743.2353,50450.9658,43658.4055,55874.4371,1278.922,-240.8177,26724.1448
57535.0821,28745.4128,54546.4307,43167.0696,37243.6345,40004.6557,5746.454,50478.6819,43674.6776,55881.7238,1295.9987,-221.1481,26728.4364
57544.6934,28758.3321,54549.56,43176.1444,37257.7161,40013.6411,5750.3879,50501.6148,43690.8603,55892.4973,1306.6381,-206.4854,26730.4927
57537.4067,28755.3817,54545.4025,43168.5001,37244.9309,40011.2718,5750.8349,50502.1065,43681.1596,55887.8928,1295.1046,-216.186,26728.4364
57507.5001,28744.4293,54542.9885,43158.7994,37212.8785,40002.9123,5745.7387,50478.0114,43665.7369,55883.646,1281.9171,-229.5077,26723.6978
57504.639,28741.7024,54544.6873,43154.0161,37203.9825,40006.6674,5745.0235,50477.4749,43669.6261,55884.4954,1281.5148,-229.8206,26725.5753
57531.0588,28742.2836,54545.3578,43163.5827,37230.894,40012.5682,5748.5998,50497.6362,43685.1829,55889.7704,1296.9375,-216.9013,26727.1399
57546.9732,28744.6976,54544.3296,43171.674,37246.2273,40017.1727,5752.6678,50519.6303,43699.041,55896.9676,1310.6614,-208.5865,26729.8222
57526.0967,28734.3264,54541.9157,43161.8392,37225.8872,40001.6159,5748.421,50502.5983,43686.8817,55892.0056,1297.6527,-217.5719,26728.9281
57503.4767,28719.6636,54540.1722,43153.6138,37204.3848,39996.3856,5747.9739,50469.8306,43664.1723,55883.199,1282.3194,-229.1501,26727.8999
57507.0977,28723.8657,54542.5415,43155.8043,37200.0486,40001.9288,5752.8019,50465.8073,43662.4736,55882.3943,1281.1571,-225.1714,26732.0573
57534.188,28738.4391,54540.9322,43168.4554,37229.4635,40011.8977,5751.0585,50493.2106,43678.0304,55886.3729,1300.2902,-215.3367,26733.9349
57543.6652,28746.7539,54541.6474,43172.2105,37244.1709,40021.956,5751.4608,50518.4233,43696.3588,55893.6149,1310.3038,-209.6146,26737.1088
57537.362,28747.8268,54541.7368,43165.7284,37231.6539,40020.9725,5749.5832,50510.2873,43694.3471,55894.956,1297.4739,-217.3036,26737.377
57530.2988,28749.1232,54545.3131,43162.3757,37216.723,40021.956,5747.7057,50487.1309,43677.5833,55888.8763,1282.8112,-224.9032,26735.7677
57522.5204,28744.9211,54543.7038,43156.1619,37204.8318,40027.6333,5745.7834,50487.6226,43670.2967,55879.5333,1276.3292,-228.9265,26731.7891
57542.1453,28751.6713,54544.1955,43165.4602,37224.9931,40033.4001,5744.7106,50511.8519,43687.8204,55884.853,1298.0551,-217.2589,26735.6336
57554.9304,28757.6616,54542.9438,43172.9704,37236.3925,40038.3174,5744.7106,50530.6721,43690.3238,55884.406,1305.9676,-209.257,26735.5442
57545.498,28751.8948,54537.6241,43164.745,37226.513,40034.2941,5743.1906,50512.0307,43674.5882,55875.957,1295.0152,-217.6613,26727.8552
57527.4825,28745.234,54539.5911,43152.675,37193.5666,40025.9793,5741.6707,50483.5993,43657.2433,55873.6324,1283.1688,-230.2676,26724.5471
57519.7488,28743.8482,54539.9934,43146.6401,37184.9835,40023.8782,5742.9671,50473.8539,43659.1655,55871.5761,1283.3923,-234.5145,26729.5986
57543.7099,28754.8006,54542.4074,43157.1454,37215.4713,40027.1863,5748.108,50501.436,43677.4939,55880.4721,1301.0949,-219.5835,26736.1701
57556.0927,28760.2097,54545.8943,43163.4039,37234.2467,40031.7013,5750.4773,50520.4797,43680.8914,55887.0882,1311.1085,-209.3017,26737.7347
57543.9334,28755.6499,54548.2635,43157.95,37228.4353,40027.9909,5752.6231,50514.7129,43668.4191,55886.2835,1302.3466,-210.5981,26737.0194
57510.4952,28738.7967,54547.9059,43137.61,37200.5403,40013.6411,5751.0585,50480.1571,43652.46,55878.2816,1284.2864,-225.6185,26731.6997
57497.3077,28733.6558,54546.4754,43129.2504,37192.896,40009.439,5753.4724,50469.3389,43643.3852,55873.6324,1284.5099,-228.9265,26731.5656
57515.5467,28748.4527,54554.1197,43147.9365,37226.1107,40021.1066,5765.0059,50486.6838,43648.9284,55884.1825,1301.2737,-214.2191,26736.5724
57528.3766,28755.6946,54552.4657,43150.4399,37238.6277,40022.8947,5768.0011,50491.78,43653.2199,55889.3681,1317.5458,-204.1608,26740.7298
57516.2172,28751.6713,54543.3015,43142.885,37228.5247,40009.6625,5767.7329,50470.3224,43636.1879,55883.7354,1313.9695,-210.3299,26735.4548
57488.7693,28744.5188,54540.2169,43123.9307,37206.7094,39994.6421,5765.2295,50432.1903,43611.9139,55871.2631,1286.9239,-228.8371,26726.7823
57484.3436,28751.4031,54542.0051,43125.8082,37204.9659,39990.0824,5769.2081,50412.342,43597.2959,55875.4206,1284.0629,-231.0723,26726.6929
57499.1405,28765.2165,54543.525,43135.4195,37225.8872,39991.3341,5775.6454,50421.8638,43595.1054,55879.8909,1304.4029,-216.3202,26733.5325
57509.8246,28775.3642,54542.7203,43142.7956,37241.6675,39991.9152,5778.7746,50426.6024,43598.4582,55881.5002,1318.0375,-207.0218,26735.8124
57491.228,28779.9239,54538.0712,43137.8335,37227.8541,39989.0095,5775.8689,50412.1631,43586.0753,55874.1689,1304.85,-217.1248,26732.7279
57459.6673,28776.1241,54535.4337,43125.7188,37199.378,39983.2428,5773.589,50376.1321,43558.5827,55866.3458,1285.404,-231.7876,26728.7493
57448.2232,28773.0843,54534.8525,43117.3146,37190.0797,39970.9493,5769.6998,50348.416,43548.9714,55864.2,1281.6042,-236.0344,26726.6929
57466.7305,28784.126,54539.3229,43129.608,37210.9115,39979.4877,5773.9466,50362.9446,43563.2318,55872.336,1299.8879,-223.1151,26733.5773
57488.3223,28790.5633,54541.2004,43139.3534,37235.409,39985.9697,5775.243,50376.758,43570.1609,55877.5663,1311.779,-214.8896,26733.8455
57475.8947,28789.714,54539.4123,43136.09,37226.5577,39986.1485,5775.0195,50365.3139,43562.7401,55870.5926,1306.1464,-217.4377,26732.4597
57454.3923,28779.6557,54539.3676,43124.9589,37198.171,39985.4779,5774.796,50331.6522,43542.5788,55857.8521,1289.2932,-235.6321,26726.7376
57455.8675,28781.1756,54542.7203,43127.8646,37190.5714,39981.7228,5776.9418,50319.5375,43537.0803,55858.0756,1289.1591,-231.8323,26727.4976
57473.5254,28786.54,54546.0284,43140.0239,37207.6929,39987.4002,5778.864,50330.9369,43552.1007,55862.9483,1304.5371,-215.7837,26735.8571
57484.4778,28786.9424,54543.6144,43142.7062,37228.3012,39993.1669,5776.9865,50331.4734,43552.3689,55859.4167,1310.7508,-212.9227,26734.6054
57471.6926,28786.2718,54544.2402,43138.6828,37211.8056,39987.8472,5777.8358,50315.6036,43547.4515,55860.4896,1307.3981,-217.3036,26733.0408
57447.0162,28782.472,54546.4754,43132.2902,37186.6822,39980.4711,5778.1935,50294.1459,43534.7557,55846.6762,1289.9637,-232.2793,26727.587
57442.68,28778.4487,54552.0186,43133.4972,37183.5083,39984.6286,5780.9651,50289.9885,43532.5205,55849.6714,1285.1804,-232.1899,26728.4811
57466.0152,28782.0697,54556.5337,43149.4117,37203.4907,39991.2,5783.7814,50313.7708,43552.9053,55864.1106,1306.1464,-211.6263,26737.1088
57471.7373,28778.0017,54554.075,43150.574,37209.1234,39984.2709,5781.0992,50327.1371,43556.8839,55866.3458,1314.7742,-206.5748,26740.8192
57464.0483,28776.3476,54552.2422,43147.4,37206.0835,39986.1038,5778.5064,50309.3898,43550.4019,55860.7131,1313.5672,-212.3863,26740.4169
57452.7383,28771.2067,54549.247,43137.3417,37177.9203,39979.7112,5773.4102,50279.6173,43542.5341,55852.3089,1302.1678,-226.4678,26737.0641
57446.2563,28760.6567,54545.0002,43126.0765,37164.1964,39969.1612,5767.867,50266.9662,43524.2057,55844.4411,1290.7684,-234.738,26732.2809
57469.3233,28761.2379,54543.3462,43134.883,37186.4587,39971.5304,5769.6551,50292.4919,43531.7159,55848.2856,1305.9676,-222.7128,26736.9747
57491.9432,28768.9716,54541.7368,43149.8587,37206.9329,39979.8006,5773.9913,50305.1877,43543.9199,55853.4712,1319.1104,-208.7206,26738.6287
57481.3485,28765.0377,54542.2286,43140.3816,37190.1691,39971.3516,5767.6882,50285.8311,43537.2144,55845.0669,1306.3699,-219.5388,26732.5491
57466.6858,28755.9181,54545.1343,43126.3894,37162.7212,39965.0484,5763.8884,50256.3268,43518.6625,55840.2836,1286.611,-234.9615,26726.5588
57468.608,28752.3866,54545.7602,43125.0036,37158.2508,39963.5285,5759.5968,50235.495,43510.5264,55841.3118,1280.7995,-235.945,26724.2342
57493.3738,28754.7112,54540.7534,43130.7703,37173.9864,39968.2224,5759.865,50258.9643,43523.1775,55847.5703,1296.1775,-222.7575,26728.2128
57508.707,28754.2641,54541.111,43141.2756,37191.1973,39972.7374,5766.2129,50271.0789,43535.7839,55852.0406,1311.0638,-210.1958,26734.0243
57494.6254,28748.5868,54540.4851,43129.4292,37189.9903,39966.166,5766.66,50263.1664,43524.6974,55848.7326,1306.1464,-218.913,26730.4033
57470.4856,28740.8531,54541.2451,43111.369,37167.6832,39960.5781,5758.3451,50235.6738,43513.1639,55843.8599,1286.0298,-239.8789,26726.0671
57467.0434,28740.5401,54542.6309,43110.7432,37161.9165,39961.9639,5758.4345,50230.8905,43514.2368,55839.5237,1280.576,-238.3143,26728.5705
57489.7081,28749.9279,54546.4307,43121.8743,37193.6113,39974.1679,5764.2013,50269.112,43537.125,55861.6966,1302.7489,-213.6379,26736.4383
57498.3805,28744.8317,54540.9769,43123.6178,37204.1613,39972.9162,5759.1051,50281.2713,43548.9267,55864.5576,1307.3981,-207.5583,26738.3158
57502.5827,28745.5469,54541.4239,43114.543,37189.1856,39970.994,5757.0934,50281.4949,43548.1668,55862.0989,1301.0502,-215.5602,26733.5325
57487.2494,28748.6315,54546.7883,43110.2961,37166.2974,39972.201,5759.7309,50257.3103,43540.746,55863.6636,1288.3097,-226.289,26732.2809
57486.1765,28751.9395,54549.7835,43110.3408,37163.347,39976.2243,5759.9545,50256.6844,43542.8023,55862.2777,1283.437,-229.1501,26729.0175
57513.6244,28756.6781,54547.2354,43130.4574,37194.2371,39988.026,5765.453,50288.2004,43559.1638,55866.3011,1303.2854,-217.9742,26733.5325
57529.7177,28760.9696,54546.9224,43140.6945,37215.8736,39990.887,5771.4432,50316.9447,43567.9257,55871.7102,1318.7528,-205.9042,26738.897
57520.017,28754.6664,54546.386,43132.782,37207.1117,39981.8569,5769.9233,50315.4695,43559.4767,55863.3059,1308.9627,-209.0782,26736.7065
57495.1172,28745.8599,54546.9671,43116.4652,37181.7648,39975.7773,5766.8388,50282.3889,43542.3553,55853.5606,1288.9802,-229.3736,26729.688
57484.9248,28743.4012,54542.4074,43112.4419,37166.3421,39968.0436,5765.3636,50268.352,43533.5487,55854.6782,1284.8675,-234.3357,26728.1234
57506.5613,28748.5421,54541.7815,43125.5847,37196.6958,39977.7889,5770.8174,50293.5648,43549.0608,55866.9716,1304.0453,-218.3318,26731.9679
57524.6662,28761.2379,54547.8612,43140.6945,37222.0874,39994.9104,5775.556,50313.9496,43563.2318,55869.475,1320.0492,-207.2006,26739.2993
57517.2007,28764.7247,54548.2635,43138.3252,37210.1516,39993.5693,5773.6784,50308.3169,43563.7236,55869.7879,1311.8684,-212.7439,26738.897
57502.225,28763.026,54541.3345,43127.1493,37185.5646,39978.9065,5766.7941,50291.4637,43553.6653,55865.7646,1297.7868,-228.0325,26730.4033
57489.1269,28763.6966,54539.2781,43124.0201,37179.485,39975.1067,5766.4812,50289.6756,43548.7032,55863.9765,1292.333,-232.0111,26726.9164
57502.6274,28773.3078,54540.7534,43135.9112,37202.1049,39986.0591,5769.4316,50320.7892,43562.4272,55868.8939,1309.5438,-217.1695,26732.2361
57519.4359,28789.6246,54540.664,43150.6634,37225.8872,39995.5809,5774.6172,50352.3499,43581.2473,55880.6062,1322.2843,-204.5631,26738.9417
57519.7488,28797.0454,54543.4356,43152.0045,37225.7531,39993.2116,5773.3655,50348.0136,43578.2075,55877.8793,1316.8305,-211.0451,26736.8406
57504.6837,28789.1775,54542.8991,43140.471,37203.5354,39987.1767,5767.554,50317.3023,43567.7916,55867.0163,1299.7091,-228.703,26729.1516
57500.4816,28782.6061,54540.5298,43138.5487,37198.5286,39989.993,5764.6483,50310.7756,43561.6672,55859.5955,1294.2106,-233.3969,26727.4082
57516.2619,28787.3447,54539.2781,43141.8121,37218.2429,39999.9171,5763.3519,50336.7484,43570.6079,55860.9366,1304.1347,-222.9363,26730.1798
57537.9878,28797.9394,54544.8661,43156.0725,37236.6607,40016.2786,5766.66,50356.9543,43594.7478,55867.2398,1321.3456,-208.8547,26735.4995
57534.2327,28798.61,54544.9555,43152.6303,37224.6355,40016.7257,5762.8155,50349.4889,43591.2162,55857.6286,1315.3106,-213.3697,26728.0787
57517.2454,28789.8928,54541.4686,43141.8121,37202.2837,40011.093,5760.4462,50329.1041,43579.191,55850.9231,1299.1726,-225.6185,26725.0389
57517.2454,28790.4292,54547.8165,43142.0356,37200.4062,40013.9987,5765.4083,50327.6736,43591.4844,55859.8191,1297.0269,-223.6068,26736.2148
57539.1948,28790.9657,54551.2587,43152.988,37229.5529,40024.7276,5771.175,50358.7425,43607.3095,55869.5644,1313.4331,-204.7867,26742.4732
57550.326,28794.5867,54547.9059,43157.2348,37242.204,40024.1017,5772.8738,50375.3275,43614.1938,55879.0863,1328.4534,-194.9966,26747.3906
57535.6185,28790.8763,54546.386,43155.5808,37235.1408,40019.2738,5775.9583,50362.6317,43612.3163,55876.8511,1325.1901,-194.9519,26749.0
57512.0598,28782.0697,54546.2966,43144.5837,37213.8619,40007.9638,5774.2596,50340.4588,43605.3872,55873.543,1308.2922,-207.0218,26746.1389
57507.3659,28769.508,54546.2519,43128.8481,37202.9543,39999.8277,5772.3373,50339.1623,43604.1355,55874.2136,1297.3398,-213.9509,26742.9203
57530.4329,28775.4089,54550.2752,43139.8898,37227.4518,40003.7616,5775.1983,50361.7823,43616.6525,55882.9308,1315.6235,-205.1443,26746.4072
57544.1569,28776.3476,54546.8777,43145.8354,37239.2535,40002.197,5774.2149,50376.2215,43622.5533,55884.5401,1323.4913,-202.1044,26743.3673
57534.501,28777.6887,54543.1226,43138.6828,37226.8707,39998.129,5768.8057,50355.2556,43612.0927,55876.404,1311.6449,-210.911,26734.9631
57510.7187,28763.5624,54544.8214,43117.8957,37198.8416,39984.1368,5767.107,50323.4714,43602.5709,55874.3924,1290.5896,-227.9431,26731.9232
57496.5924,28752.5654,54543.0779,43108.5974,37185.3858,39971.754,5766.2576,50316.2742,43597.0724,55871.3526,1286.0298,-237.4649,26729.9563
57516.9325,28753.1465,54541.3792,43121.1591,37218.0194,39980.0688,5772.7844,50340.8164,43621.3464,55876.717,1298.368,-222.0869,26732.9067
57528.7789,28760.165,54543.8379,43125.1824,37242.9192,39980.2923,5772.4714,50367.3702,43624.9226,55881.4555,1306.5487,-209.7934,26733.622
57511.3893,28762.6237,54540.4851,43116.7781,37227.8988,39971.3516,5768.6716,50358.8766,43616.2055,55880.9638,1300.469,-216.4096,26733.2196
57493.2843,28754.577,54536.4171,43108.1951,37206.3965,39963.9308,5764.7377,50343.0068,43601.3639,55875.7782,1284.6887,-229.7759,26728.2575
57490.1551,28752.8783,54538.25,43105.3787,37208.3634,39965.8084,5765.0954,50326.8689,43593.6302,55874.2136,1282.1853,-233.3522,26728.1234
57512.2386,28754.4429,54536.9536,43112.7548,37230.6257,39979.3983,5768.2693,50358.8319,43607.6671,55880.4274,1302.0784,-219.9411,26734.6501
57528.7342,28756.8122,54536.5065,43115.75,37240.1029,39986.1485,5769.6551,50389.0514,43611.2434,55882.6178,1311.5555,-212.6098,26737.1535
57516.2172,28758.7792,54537.7582,43113.0677,37230.894,39977.6101,5770.1916,50371.3489,43609.634,55879.8909,1307.1746,-220.8352,26736.2148
57494.4019,28754.4876,54538.3841,43102.1154,37203.9378,39969.34,5770.6833,50344.8844,43600.0228,55878.9074,1286.5663,-234.9615,26735.0972
57486.9812,28748.855,54538.2947,43102.9201,37199.8698,39978.4148,5774.5278,50339.1623,43601.7215,55875.8229,1284.3311,-231.6982,26735.0078
57507.7683,28750.9561,54542.1839,43113.783,37227.0495,39991.2447,5779.3558,50374.4781,43620.1394,55880.6956,1308.6051,-215.0685,26741.6686
57526.7226,28752.476,54545.8943,43124.2436,37252.0834,39997.3691,5783.6473,50399.7803,43633.9974,55889.0104,1320.1386,-203.4903,26748.1506
57518.0054,28749.2126,54543.6144,43118.3428,37236.3478,39997.8161,5780.071,50397.3216,43630.1082,55886.1494,1313.3883,-209.5252,26744.5743
57494.4913,28747.9609,54542.9438,43107.9268,37217.3935,39987.2214,5779.8922,50368.0855,43617.636,55879.4439,1297.9656,-219.7623,26739.4781
57484.6119,28745.7258,54539.2781,43102.6965,37210.688,39982.3487,5777.97,50350.07,43604.8061,55876.6276,1288.8461,-223.8303,26736.4383
57507.0977,28754.89,54534.3608,43115.9735,37228.7035,39989.8142,5778.7746,50366.5209,43612.8527,55879.0416,1303.0171,-212.4757,26738.2264
57518.5418,28755.3817,54534.2714,43118.3875,37248.4177,39990.7976,5778.9534,50390.9737,43625.5038,55888.3399,1316.0259,-208.4076,26742.8309
57515.9937,28757.304,54539.6805,43116.5993,37238.4936,39995.9385,5781.6803,50389.2303,43627.9625,55891.3797,1315.4,-210.1958,26745.6919
57502.4039,28747.6927,54539.4123,43114.6324,37217.0359,39995.4915,5779.0875,50362.3635,43610.2152,55876.717,1299.3515,-220.4776,26739.6569
57493.0608,28745.1446,54538.1159,43109.6256,37209.0787,39990.6635,5775.4219,50351.277,43604.7614,55872.2019,1293.3165,-227.2278,26736.3489
57506.0248,28750.3749,54537.4006,43115.0347,37223.6967,39997.3243,5775.8242,50363.2128,43625.8167,55883.646,1310.4826,-210.7769,26742.4732
57525.9626,28756.4546,54537.8476,43122.3661,37237.4654,40005.2816,5774.036,50377.7415,43634.0421,55889.7704,1318.2163,-199.1987,26743.5908
57523.9062,28752.2078,54543.4356,43121.8743,37232.5033,40000.3642,5774.3043,50373.2711,43620.4523,55891.5585,1309.678,-204.9208,26742.5179
57504.9073,28751.3137,54544.6426,43115.3476,37207.1117,39993.7034,5776.8077,50356.2838,43612.7633,55883.1543,1297.6527,-216.5437,26739.4334
57490.9598,28751.4925,54544.5532,43113.4254,37200.8979,39994.2398,5779.3558,50348.9524,43613.4338,55880.4274,1293.6741,-217.1248,26736.0359
57512.0598,28756.1417,54543.1226,43124.8695,37221.1486,40003.4934,5780.9204,50377.6968,43626.6214,55884.7636,1307.5322,-208.05,26739.5675
57532.2658,28760.8802,54543.8379,43130.5915,37238.6724,40010.199,5780.071,50402.8648,43637.0373,55894.5984,1319.6915,-198.1258,26743.2779
57529.4942,28764.4565,54546.8777,43123.4837,37230.7152,40005.5498,5777.2547,50397.0981,43636.5455,55889.9045,1316.8752,-200.4504,26739.6122
57509.7799,28757.3487,54543.972,43117.0911,37209.3022,39994.1057,5772.5608,50370.0078,43619.8264,55880.785,1300.4243,-213.5038,26736.1701
57508.7517,28751.1796,54545.0449,43112.4419,37209.2128,39990.7082,5773.3208,50363.794,43617.0995,55881.6791,1299.4856,-215.0238,26736.5724
57522.3863,28748.8997,54544.2402,43115.75,37234.1573,39995.0445,5772.2479,50387.1739,43629.393,55883.7354,1311.8237,-207.5583,26737.0194
57540.0442,28758.198,54545.6707,43127.8646,37252.3516,40007.7403,5776.4947,50414.9795,43642.2229,55891.4244,1324.296,-201.1657,26743.1438
57532.6681,28764.8588,54542.8097,43121.3826,37244.6179,40000.5877,5777.2547,50405.8152,43636.9926,55890.6645,1315.7129,-205.3231,26740.998
57507.9024,28754.2194,54536.8642,43104.8423,37214.9348,39987.4002,5767.9117,50374.4334,43628.0966,55882.0814,1295.4623,-220.12,26733.7561
57504.2367,28753.8618,54536.3724,43095.2311,37208.5869,39987.579,5766.1682,50363.9728,43625.5038,55877.6557,1286.6557,-224.1433,26732.415
57520.5535,28760.4779,54536.5959,43101.7131,37231.3857,39997.3691,5768.7163,50388.3809,43645.8439,55888.474,1300.782,-211.9839,26739.344
57536.1103,28769.6868,54540.5298,43114.0959,37252.6646,40000.6771,5771.935,50409.5703,43653.3988,55890.8433,1316.7858,-199.6458,26741.8027
57533.8304,28764.1883,54542.5862,43113.2019,37245.5567,39998.4419,5774.9748,50400.0932,43649.8672,55890.0386,1313.746,-204.4737,26740.6404
57512.1045,28753.6383,54539.2334,43094.5605,37215.3819,39990.7529,5766.66,50374.8804,43631.047,55882.6178,1293.8082,-223.8303,26730.9397
57502.0015,28743.5353,54534.7184,43088.8385,37204.3401,39984.6286,5762.9049,50367.6385,43619.1559,55880.5168,1284.8675,-231.3852,26722.3567
57523.4592,28749.8832,54533.7796,43103.1436,37226.3789,39990.9317,5765.7659,50397.6345,43643.6981,55890.5751,1302.1678,-216.6778,26725.7988
57540.67,28757.9745,54537.1771,43117.0017,37245.512,39993.2116,5768.6269,50428.614,43660.2831,55896.4759,1309.8568,-204.1608,26732.2809
57540.0889,28760.2544,54538.2947,43117.9851,37233.7103,39992.9434,5769.8786,50426.7812,43653.7564,55889.0998,1299.0385,-211.1793,26729.2857
57518.4524,28749.0338,54534.5396,43099.8802,37211.135,39983.0639,5766.8388,50394.2817,43636.4561,55879.9803,1283.3476,-228.7477,26722.312
57509.2882,28746.888,54536.8642,43101.8472,37209.5257,39984.9415,5766.0341,50391.376,43638.4231,55881.3214,1286.3874,-227.3172,26723.3402
57523.5933,28753.4148,54538.5182,43111.6372,37233.9338,39995.8938,5767.6882,50416.7229,43654.0693,55892.8549,1301.4078,-213.6827,26727.2741
57535.4397,28768.0775,54540.0828,43123.2601,37256.5091,40002.197,5774.4831,50445.9143,43669.2685,55898.5323,1316.2047,-201.568,26731.7444
57526.6331,28765.2612,54538.8311,43121.1591,37253.2904,39996.0279,5769.7445,50438.8511,43659.0314,55893.1231,1303.9112,-208.05,26725.5306
57507.053,28756.7675,54542.0498,43107.2563,37228.7929,39990.887,5766.7941,50415.7394,43642.7146,55890.0386,1287.2815,-222.5786,26721.0603
57497.1288,28752.1631,54538.7417,43102.1601,37214.5325,39988.4284,5765.3189,50405.547,43644.1898,55893.302,1283.3029,-225.3056,26721.3732
57513.535,28761.819,54537.7582,43115.5711,37242.1592,39996.475,5770.8174,50427.5411,43666.0051,55901.3933,1305.9676,-208.1841,26732.6385
57525.605,28761.4614,54538.3841,43128.6693,37262.0523,40000.7665,5772.1585,50449.4905,43673.4259,55901.4827,1314.5059,-203.5797,26736.7512
57512.1939,28755.9181,54537.49,43117.1358,37243.6345,39993.9716,5769.7892,50439.7452,43666.5863,55894.3748,1304.2688,-212.878,26729.3751
57486.4,28752.3419,54540.0381,43107.8374,37217.2594,39986.1485,5768.4928,50417.617,43647.7661,55894.9113,1286.2086,-227.1831,26724.6366
57479.2922,28750.4643,54538.0712,43103.3224,37215.1583,39985.5226,5765.1848,50412.029,43641.3288,55895.6265,1275.8821,-232.7263,26724.1895
57504.9073,28753.3253,54533.0644,43106.094,37237.7336,39988.5625,5761.2956,50429.4634,43656.9303,55900.4545,1286.9239,-219.0918,26726.8717
57535.6632,28763.8307,54535.4784,43131.3068,37266.8803,39997.3691,5766.3471,50460.3982,43669.6261,55901.6168,1304.2688,-206.7089,26729.6433
57524.9344,28763.5177,54536.4171,43127.2835,37252.8881,39994.4186,5765.4083,50456.3302,43666.5863,55896.0736,1299.5303,-216.5884,26726.4694
57502.6274,28753.4148,54535.3442,43114.2747,37229.2399,39984.9415,5759.7756,50436.2136,43650.7612,55884.0036,1281.4701,-233.6651,26718.4228
57493.9996,28744.9211,54533.9584,43108.6421,37215.1136,39981.1864,5757.6746,50418.9581,43652.6388,55885.3894,1276.2845,-232.9946,26717.6628
57518.81,28756.6334,54538.8311,43120.265,37245.512,39996.1621,5764.246,50442.338,43672.4424,55900.7227,1300.3349,-215.4261,26727.1399
57539.7313,28760.2544,54536.4618,43127.2835,37262.1864,39997.2796,5765.0059,50464.2427,43683.7077,55902.9579,1309.1862,-206.7983,26729.8222
57529.9859,28756.1417,54531.8127,43121.3826,37248.373,39992.094,5760.4462,50457.6713,43675.3035,55898.4429,1300.2455,-214.2638,26730.0457
57517.4242,28749.3914,54535.076,43119.9074,37232.8162,39998.1737,5765.4083,50438.9852,43669.9837,55897.4147,1296.1328,-218.0636,26732.2361
57516.3513,28748.9444,54537.3112,43119.1027,37228.5247,39992.8093,5766.4365,50433.7102,43664.0829,55898.1746,1291.0813,-225.5738,26731.6103
57526.7226,28753.5489,54539.6805,43123.9754,37246.1826,39997.9055,5767.9117,50457.0901,43679.5056,55907.5624,1303.9559,-214.6661,26734.2478
57539.1501,28756.097,54542.6309,43132.9608,37267.1038,40009.3496,5769.3869,50480.9171,43696.0012,55909.574,1321.1221,-204.1161,26736.6171
57530.2988,28750.0173,54538.5629,43128.9822,37254.4974,40002.957,5765.7659,50465.2262,43691.2626,55899.9628,1307.6216,-216.5437,26735.0972
57508.707,28739.7802,54533.0644,43110.6985,37222.892,39987.5343,5757.5405,50437.957,43670.7884,55894.956,1283.2582,-233.2181,26729.4198
57503.8791,28733.0747,54533.7796,43102.473,37212.5655,39986.3273,5755.9311,50431.9221,43663.8147,55895.8501,1275.9715,-236.5261,26724.8154
57518.8994,28734.0581,54531.3656,43111.8608,37232.4586,39992.5858,5754.8136,50451.6363,43668.3744,55898.2193,1292.9142,-223.6962,26725.9777
57536.0209,28736.2486,54528.5493,43125.0036,37249.133,39995.4468,5755.0818,50462.4099,43686.8817,55903.8073,1305.4758,-212.5651,26730.2692
57533.4281,28736.6509,54526.4482,43116.2417,37238.8065,39989.0095,5752.3996,50458.0736,43684.8253,55906.7577,1294.9258,-221.1928,26727.6764
57515.0102,28730.9736,54525.5542,43101.9366,37208.6316,39984.8968,5749.3597,50440.8628,43669.4473,55898.6217,1279.7713,-238.0013,26723.9213
57505.3096,28734.8628,54528.9963,43102.7412,37209.4363,39991.1106,5756.8699,50438.6723,43671.1907,55898.5323,1278.8326,-237.5096,26727.8999
57524.7109,28736.7851,54530.4269,43114.23,37236.5713,40000.1854,5760.0439,50471.8423,43680.8467,55903.9861,1289.0697,-220.9246,26732.3703
57540.9383,28740.0037,54533.7796,43124.9589,37261.1582,40010.1095,5766.7047,50497.6809,43691.1285,55913.4632,1306.1017,-208.1394,26739.344
57531.5505,28740.1378,54535.2995,43125.4059,37254.6762,40011.8977,5769.6551,50498.6644,43688.491,55910.9598,1307.264,-213.2356,26739.5228
57512.0598,28733.1641,54536.283,43113.336,37232.5927,40004.8345,5763.9778,50476.3126,43671.1013,55904.299,1288.4885,-226.2443,26732.102
57507.1871,28729.8113,54539.2781,43109.0891,37228.2118,40000.8559,5764.1566,50463.5274,43675.7505,55901.9297,1281.3807,-230.8488,26730.6715
57524.0403,28733.924,54542.1392,43120.9356,37250.1165,40011.5848,5770.7727,50485.8345,43693.5872,55914.6255,1300.1114,-212.431,26738.137
57542.7711,28743.3118,54540.5298,43130.7256,37268.9813,40016.5021,5776.3159,50503.4477,43700.7844,55917.8442,1316.2941,-201.3445,26741.7133
57539.1948,28745.681,54538.8311,43130.1892,37266.2097,40020.9278,5776.0477,50508.9909,43700.4715,55912.9268,1309.7227,-205.5913,26743.7696
57524.9344,28746.6198,54539.7252,43121.1591,37246.7637,40018.7373,5777.4335,50487.4885,43684.6912,55907.473,1295.194,-218.5553,26737.5559
57512.641,28744.5188,54538.7864,43111.9502,37225.306,40010.9589,5773.1867,50476.4467,43674.5882,55900.7227,1283.9288,-223.1598,26732.2361
57533.0257,28747.4692,54541.7815,43123.5731,37241.5334,40019.5867,5774.6172,50504.4758,43683.5736,55910.8704,1301.4972,-210.5534,26735.2313
57552.0247,28753.1912,54545.7155,43141.3651,37264.1981,40030.2261,5780.0263,50531.3873,43707.0429,55920.9734,1321.3009,-195.846,26742.4732
57538.3902,28750.1514,54541.9604,43135.4642,37255.3915,40023.2971,5774.6172,50529.7333,43704.1819,55915.4749,1312.6284,-203.1773,26738.6287
57512.641,28739.6014,54532.8408,43114.8559,37221.238,40004.0299,5764.693,50500.0055,43678.2539,55900.1863,1286.4769,-222.0422,26731.0292
57497.8888,28739.4226,54531.5444,43105.334,37206.8435,40000.1407,5759.5074,50472.0658,43674.3647,55893.4808,1274.3175,-232.9946,26725.0836
57510.227,28742.82,54528.2811,43109.268,37221.3274,40006.1756,5756.11,50482.3923,43681.4278,55896.3418,1284.2864,-229.3289,26722.9825
57519.8829,28742.9541,54529.7116,43110.5196,37240.9523,40006.3992,5757.5405,50504.8335,43691.8885,55909.1717,1295.7752,-221.4164,26726.4694
57518.8547,28744.5635,54533.4667,43112.8442,37240.3711,40004.7004,5758.5239,50511.7625,43694.1236,55909.127,1293.4506,-225.842,26727.587
57499.8111,28736.0251,54531.5444,43098.8073,37207.5588,39993.3457,5756.2888,50489.1872,43679.9973,55899.8287,1274.8986,-243.5893,26719.8086
57491.0045,28735.3545,54533.2879,43099.7014,37197.9475,39996.0726,5757.5405,50482.437,43678.5668,55895.2689,1275.7927,-243.5893,26718.2887
57512.8645,28737.2768,54534.8078,43114.4089,37223.652,40002.8676,5762.1896,50504.6099,43697.0294,55898.8452,1291.9307,-224.5903,26722.2226
57531.9529,28736.6509,54536.283,43125.9871,37241.1758,40003.7616,5756.9593,50521.6867,43700.6056,55901.1698,1305.1182,-212.6545,26725.8435
57527.6613,28732.1359,54537.4006,43121.6955,37232.3692,40002.2864,5757.0934,50509.6167,43694.8389,55900.4545,1300.469,-216.9907,26726.0224
57498.6041,28727.1291,54536.8195,43105.6023,37210.0174,39993.9269,5755.3947,50486.505,43683.3054,55900.0969,1276.3739,-237.152,26722.5355
57482.9131,28726.5927,54537.043,43100.0143,37205.4577,39990.2165,5755.3053,50478.5925,43675.1246,55894.9113,1267.8355,-242.3376,26722.2226
57504.9967,28737.8132,54539.0546,43111.5925,37235.3643,39999.9619,5759.9545,50498.262,43691.0838,55900.3204,1288.3097,-223.9197,26727.8999
57519.3465,28740.0484,54534.9419,43119.7733,37245.2885,40003.8511,5761.7426,50509.3932,43696.0012,55904.6119,1304.6265,-211.4475,26731.1633
57506.8742,28737.6791,54529.7116,43110.1173,37233.5315,39994.8657,5758.4345,50498.6644,43687.9992,55904.8355,1297.8315,-219.5388,26723.4296
57489.7528,28736.4721,54530.5163,43101.6684,37213.102,39990.6635,5756.0652,50478.1455,43667.9274,55896.9676,1275.2563,-236.9732,26717.4393
57487.1153,28726.0562,54527.0294,43092.1018,37198.6628,39986.9531,5753.4277,50468.713,43673.2471,55891.4691,1265.8238,-240.9965,26713.1925
57509.8693,28733.5217,54528.3705,43107.7927,37220.2992,39997.5032,5755.7076,50503.4029,43683.9759,55896.9229,1280.4419,-229.8206,26716.9476
57527.5272,28745.8152,54531.8574,43120.8909,37240.8181,40005.0133,5757.4064,50534.2036,43698.594,55916.7266,1297.3845,-217.2142,26725.8883
57526.6778,28753.9065,54531.008,43124.8248,37238.1806,40006.6227,5761.2956,50532.2814,43703.1984,55920.7052,1300.3796,-218.8683,26729.688
57507.6789,28748.095,54528.9069,43114.543,37211.9397,40004.4769,5759.9545,50510.3767,43693.5872,55911.2281,1286.0298,-231.7429,26723.1166
57493.8655,28744.7423,54524.9283,43099.2991,37194.3712,40001.6159,5754.5453,50497.7703,43677.8069,55900.4992,1273.5128,-236.2132,26719.0039
57523.191,28750.7325,54528.6387,43117.4487,37224.5908,40011.7636,5760.2227,50520.6585,43696.2694,55907.2047,1293.3165,-219.3153,26729.6433
57545.3639,28750.8219,54537.6688,43130.2786,37247.3896,40016.2786,5766.3471,50552.4427,43707.8476,55915.5196,1308.3816,-205.6807,26738.897
57526.1861,28739.6908,54534.7631,43121.2932,37228.7035,40005.5498,5764.2013,50533.6672,43700.7397,55911.7645,1295.3281,-213.4591,26730.0457
57505.3543,28735.131,54529.354,43110.6091,37206.3071,39996.1174,5757.4958,50506.3534,43685.5406,55904.1649,1275.5245,-231.877,26720.3003
57498.3358,28732.6723,54529.4434,43111.9502,37203.6695,39996.7879,5756.6464,50489.3661,43683.9312,55901.3933,1269.5342,-234.9615,26721.552
57507.1424,28735.3545,54530.0245,43117.7169,37222.1321,39999.0231,5756.2441,50504.4758,43694.8836,55904.3437,1279.1455,-228.0325,26723.0272
57526.2308,28742.2389,54534.0478,43130.9938,37249.0883,40011.9424,5764.4695,50540.0151,43711.7815,55914.2232,1300.1114,-214.1297,26728.9281
57519.3912,28743.3118,54536.8642,43128.9375,37238.4042,40013.7752,5762.6367,50549.8499,43707.9817,55912.3904,1297.6527,-214.8449,26725.9777
57498.3358,28743.6694,54535.7019,43119.4156,37214.3984,40009.2155,5760.625,50537.7799,43693.4084,55908.5459,1281.023,-227.6301,26719.7639
57487.5176,28737.098,54529.6669,43114.0959,37203.0437,40007.3379,5758.9263,50527.1852,43690.2344,55904.1202,1273.9599,-233.8439,26715.2041
57513.7138,28747.0222,54534.629,43125.5847,37226.6471,40014.5799,5765.7659,50549.9393,43707.177,55911.7645,1294.0317,-217.8848,26725.0389
57531.1929,28747.2457,54536.4618,43131.9773,37246.3167,40022.8947,5764.5589,50565.0491,43716.9671,55913.5079,1306.4593,-210.2405,26724.8154
57529.9412,28750.8667,54539.8593,43136.0453,37238.9406,40019.9443,5769.7892,50561.9198,43714.1061,55912.0774,1305.2523,-209.0782,26725.5306
57511.5234,28752.9677,54537.4006,43122.9025,37208.5869,40007.2932,5766.2576,50535.6342,43698.5046,55905.6401,1293.3612,-220.7458,26723.4743
57496.95,28744.2505,54535.9701,43117.5828,37200.8532,39999.4254,5763.5754,50520.3456,43690.6815,55906.6683,1286.8345,-225.842,26725.2624
57516.4407,28749.0785,54536.1936,43125.1377,37219.137,40010.0648,5763.039,50530.7168,43702.8408,55908.68,1302.3019,-214.532,26729.4645
57536.9149,28752.1183,54535.2101,43129.3398,37240.5052,40010.6907,5762.4131,50550.878,43716.6989,55909.3058,1311.4661,-205.9489,26729.7775
57526.9461,28750.5537,54534.3608,43116.0182,37236.0349,40006.1756,5760.3121,50551.5933,43712.1391,55909.574,1298.5915,-209.9723,26727.5423
57518.1395,28748.095,54538.6076,43116.7781,37218.4664,40002.2864,5760.2227,50532.0132,43701.1868,55905.5507,1278.3408,-223.0257,26724.5024
57515.3232,28745.4575,54535.5678,43105.6917,37200.1827,40001.2583,5756.8252,50516.6799,43689.1168,55900.991,1269.9813,-234.6486,26719.5404
57532.3999,28757.5722,54539.3676,43125.093,37224.1437,40015.3399,5762.9943,50542.1162,43700.9633,55907.2942,1291.886,-218.5106,26728.7046
57548.5379,28766.3788,54536.8642,43133.5419,37242.204,40018.2456,5756.8699,50559.1035,43708.1605,55911.9433,1300.0667,-212.6098,26731.6103
57544.5592,28765.7976,54538.1606,43127.5964,37227.2283,40019.7655,5751.5502,50546.0501,43713.3461,55909.6634,1296.8034,-218.2871,26730.2692
57523.191,28753.4595,54536.4171,43114.9006,37201.5685,40015.2504,5749.1362,50520.7032,43699.7563,55898.4429,1277.9832,-236.0344,26724.3683
57517.0219,28747.5139,54537.7135,43111.7266,37198.2604,40016.5915,5747.5269,50508.5886,43692.9166,55894.8219,1276.4633,-239.2083,26722.7143
57520.0617,28740.8084,54536.1042,43115.2582,37210.6433,40015.3399,5745.4705,50521.5973,43692.7825,55897.1912,1288.1756,-230.1335,26722.6249
57530.6565,28741.2554,54532.2597,43118.0745,37225.7531,40012.5682,5746.0964,50543.2785,43698.594,55899.6499,1300.3349,-220.9246,26724.5919
57525.292,28736.3827,54529.7563,43114.0512,37217.3488,40010.3331,5742.2966,50529.3757,43696.9399,55895.5371,1291.4836,-226.4231,26721.2391
57494.9831,28730.9736,54528.5493,43099.7014,37192.9854,39996.2515,5739.9273,50505.1017,43678.1645,55889.0104,1272.8423,-238.1355,26718.6463
57476.3864,28728.0232,54528.5046,43092.6383,37194.9077,39996.5644,5745.5599,50494.4623,43666.9886,55891.1562,1268.3719,-242.7846,26718.3334
57499.6769,28743.6247,54530.4269,43112.2631,37224.5461,40009.9754,5753.8301,50520.5691,43673.6494,55896.163,1287.9968,-222.9363,26726.827
57512.0151,28748.9444,54530.6057,43109.9385,37239.0747,40011.7189,5758.0769,50535.6789,43677.4939,55902.5109,1302.3913,-210.3746,26732.9514
57512.5515,28747.7821,54537.4006,43106.6304,37231.4304,40011.0483,5765.6765,50514.6235,43668.7768,55904.7014,1298.7256,-215.0685,26736.1253
57493.1502,28742.5965,54538.4288,43099.6567,37216.0077,40001.4818,5773.1867,50494.4623,43651.3424,55899.1134,1284.8228,-229.0606,26736.5277
57474.8665,28743.8482,54537.8476,43092.2806,37205.3236,39996.475,5776.9865,50481.7665,43637.3502,55894.4643,1283.3923,-232.5028,26732.415
57490.8257,28747.3351,54539.8146,43104.3506,37226.3789,40005.0581,5780.2498,50485.7898,43643.2064,55897.6382,1301.2737,-214.532,26733.8455
57501.1969,28751.8948,54538.1159,43110.1173,37243.2768,40005.5498,5781.9039,50488.919,43644.5922,55902.198,1315.6682,-202.8644,26736.3042
57493.9996,28760.165,54539.2781,43111.1455,37238.4489,39999.6936,5785.659,50473.7198,43635.2044,55900.991,1314.6847,-208.497,26739.1205
57468.6527,28751.3137,54537.6688,43098.9414,37217.93,39988.9648,5785.4801,50437.51,43616.2502,55893.7043,1295.5517,-225.5738,26734.6501
57456.0016,28753.9959,54537.5347,43090.2243,37206.5306,39980.5605,5782.485,50415.9182,43610.7963,55887.3564,1285.851,-232.5475,26731.7444
57469.1445,28770.1339,54538.3841,43090.9395,37220.0757,39988.3389,5781.6803,50428.3011,43616.1608,55889.3681,1295.4175,-223.6068,26733.7561
57480.2309,28778.9404,54538.2053,43093.3088,37241.5334,39991.0212,5780.7863,50438.9852,43621.9722,55893.9725,1306.8616,-216.1413,26736.3042
57477.1017,28781.3991,54539.1887,43092.2359,37237.376,39986.7296,5781.2333,50422.6685,43618.6194,55893.8384,1305.3864,-219.6729,26737.2429
57468.7421,28776.0347,54541.3792,43091.1183,37215.8289,39983.7345,5785.659,50393.1195,43601.4533,55881.7238,1296.2669,-230.4018,26732.2809
57452.023,28772.682,54535.3889,43085.888,37198.171,39977.9677,5782.2615,50371.6171,43591.6632,55871.889,1283.0794,-239.0742,26725.5753
57467.6245,28780.058,54534.3608,43097.4662,37216.1418,39987.3108,5781.6356,50388.515,43599.6652,55870.7714,1298.1892,-226.4231,26727.8552
57489.6187,28783.1873,54537.6241,43115.437,37246.9425,39995.5809,5790.1293,50407.6034,43610.7963,55880.5615,1319.8256,-205.9042,26735.7677
57477.4146,28777.3758,54532.1703,43110.6091,37241.0864,39988.4731,5786.0613,50389.1408,43608.2929,55879.3098,1314.4165,-213.1015,26733.7561
57453.9453,28768.8822,54528.8175,43098.5391,37207.514,39982.3934,5778.9981,50359.5024,43585.5836,55866.614,1293.6294,-234.738,26724.0107
57447.508,28763.8307,54528.1023,43095.8569,37184.0,39980.6052,5776.9865,50336.5248,43572.2172,55863.6189,1281.2912,-240.8177,26721.105
57460.8743,28762.4896,54526.493,43106.9434,37200.8532,39985.4779,5778.7299,50356.0156,43572.2619,55866.5693,1293.7635,-231.6087,26726.6929
57467.401,28763.5177,54523.319,43112.8889,37217.0359,39986.7296,5776.2712,50369.9183,43584.8683,55876.1358,1310.885,-223.3386,26725.3518
57460.919,28761.1037,54524.3472,43107.2563,37205.3236,39981.1417,5774.4831,50364.1516,43583.8401,55876.8511,1306.1911,-227.1831,26722.6696
57439.7743,28750.0173,54524.7942,43087.3185,37166.208,39964.1991,5768.8057,50327.3159,43559.0297,55865.854,1278.7879,-245.8245,26713.0584
57439.6849,28739.9143,54518.9828,43084.4128,37153.1546,39958.8346,5765.6765,50299.421,43554.7382,55859.0591,1270.7412,-250.2054,26714.1759
57463.1095,28745.4575,54518.6251,43094.337,37183.6424,39963.8861,5762.7708,50320.2081,43567.2551,55863.2612,1289.9637,-238.0013,26721.105
57479.2922,28752.0289,54519.3851,43105.4682,37197.8134,39963.8414,5762.5026,50350.2488,43576.777,55867.0163,1305.297,-228.256,26725.4859
57480.5886,28748.4527,54519.8321,43102.9201,37191.0632,39965.5402,5763.8884,50331.1157,43571.949,55864.647,1300.782,-228.7477,26719.9427
57457.2086,28738.4838,54518.8487,43087.3632,37164.2411,39957.7171,5759.9545,50294.6377,43560.5496,55856.8239,1281.8277,-243.1422,26715.3382
57454.6605,28731.9571,54519.7874,43088.0785,37156.3733,39951.7715,5761.0273,50282.2101,43556.6604,55856.9133,1273.647,-247.3891,26714.7124
57473.9277,28737.3215,54519.7427,43093.7558,37173.4947,39953.3808,5757.2275,50297.6328,43558.7615,55856.6898,1283.2582,-239.0295,26715.517
57487.4729,28742.0154,54515.8088,43101.8025,37192.7619,39956.9124,5755.3053,50321.281,43566.0034,55855.3487,1297.0269,-229.9547,26716.5005
57485.3271,28741.3895,54521.7991,43101.3107,37188.9621,39957.7171,5760.7591,50329.6852,43569.4903,55858.3885,1296.0881,-227.3619,26718.6463
57470.4856,28738.3944,54530.0245,43092.2806,37164.4646,39956.3313,5764.2013,50311.9826,43564.5282,55868.8939,1282.2747,-231.4299,26722.759
57462.6178,28733.477,54523.5425,43080.0766,37150.5171,39953.649,5759.0604,50293.6542,43553.2182,55859.5955,1268.1484,-243.1422,26718.2887
57481.4826,28744.9658,54519.5192,43087.2738,37172.6453,39963.4838,5760.9826,50311.3568,43560.1026,55863.6636,1286.298,-230.6253,26721.3732
57492.6138,28749.6597,54520.4133,43090.1796,37192.3596,39969.6082,5760.6697,50331.071,43570.2056,55869.2515,1299.1279,-222.1316,26722.5802
57494.4913,28749.8385,54524.7048,43094.2476,37187.4422,39973.5421,5758.0769,50331.7863,43569.4456,55871.4867,1292.2883,-227.9431,26723.0272
57479.918,28745.7258,54523.5425,43090.6266,37164.0176,39967.9095,5757.1828,50317.0788,43563.2318,55869.8773,1278.9667,-241.667,26720.2556
57466.7305,28736.2486,54522.2908,43078.5567,37151.9029,39961.1592,5754.5006,50305.2771,43563.4106,55865.7646,1271.8141,-249.7584,26717.7522
57490.0657,28739.5567,54522.9167,43086.9162,37180.379,39963.6626,5757.4064,50321.7727,43579.5486,55868.7598,1282.9006,-238.9848,26718.4228
57503.9238,28738.6626,54523.9002,43095.8569,37201.7026,39967.3283,5762.592,50349.7124,43583.7507,55873.3642,1296.5798,-224.6797,26719.2274
57486.4,28730.0795,54525.5989,43091.6548,37195.3994,39959.5052,5762.592,50343.6327,43579.3251,55872.1125,1293.7635,-229.7312,26717.9757
57463.9589,28722.2564,54526.3588,43086.5139,37173.003,39946.9435,5757.8534,50319.5375,43570.8314,55868.1786,1275.9715,-241.8011,26715.8747
57455.5099,28719.2613,54523.8554,43078.1096,37157.312,39943.3672,5753.5172,50298.8398,43561.5778,55861.5625,1263.9463,-248.7302,26711.9855
57476.9229,28737.098,54523.0955,43090.7607,37184.76,39957.1359,5756.2888,50316.8106,43566.4058,55866.3905,1275.5245,-240.1918,26717.7969
57494.6702,28743.4459,54521.6203,43101.9366,37199.2439,39968.4012,5759.7756,50341.3975,43587.1035,55877.7452,1290.1872,-220.0305,26723.2955
57495.5642,28740.7637,54518.7593,43100.5955,37193.656,39974.6597,5760.5803,50349.4442,43595.1501,55875.957,1291.7519,-220.567,26722.8931
57469.0551,28735.7122,54515.3618,43086.2904,37176.4451,39964.9143,5758.6581,50330.4899,43585.0471,55864.0212,1276.8656,-238.8954,26721.3285
57456.4487,28735.6675,54518.2675,43089.956,37171.036,39966.9707,5762.2343,50324.2314,43583.8401,55871.5761,1273.4234,-241.3541,26724.5471
57477.951,28741.5683,54520.8156,43103.5906,37193.2983,39976.6713,5768.2693,50357.2226,43604.9402,55880.4274,1287.8627,-226.8702,26728.5705
57501.331,28751.3584,54523.6319,43116.2417,37214.4878,39984.7627,5769.9233,50380.3343,43618.4406,55882.3049,1301.2737,-216.0072,26730.9397
57502.4933,28755.2923,54525.5095,43121.1144,37209.7492,39983.7792,5769.074,50379.3955,43619.1112,55880.9638,1300.5137,-219.9411,26729.9563
57477.6828,28746.6198,54524.3472,43109.268,37186.7716,39980.0241,5763.3072,50353.2887,43603.5097,55869.028,1282.0065,-234.9615,26721.1944
57473.1231,28745.7258,54522.3355,43106.5857,37179.2167,39992.4517,5757.5405,50340.727,43591.6632,55862.2777,1273.7811,-244.2598,26717.5734
57496.3689,28758.0192,54523.9002,43113.3807,37201.032,40004.4322,5754.0089,50371.7065,43612.4057,55865.7646,1286.7004,-231.0723,26720.3003
57519.0336,28760.7461,54525.0177,43124.4671,37222.8473,40008.9025,5753.8301,50397.5004,43626.8449,55870.9949,1304.1794,-217.0354,26725.2177
57519.2124,28758.6898,54524.526,43121.1591,37218.6899,40008.2767,5750.522,50387.1292,43617.5913,55872.1572,1301.229,-221.8634,26722.4908
57494.4466,28743.6694,54519.251,43101.7131,37186.0117,39996.3856,5747.2587,50369.8289,43609.7234,55862.4566,1280.8442,-236.0791,26717.6628
57485.7295,28739.512,54518.2228,43098.8073,37173.7629,39995.4915,5749.7621,50364.4645,43606.8177,55861.9648,1275.1222,-244.3939,26718.8698
57503.2532,28747.7374,54519.7874,43108.1951,37199.1098,39998.7996,5754.8136,50393.0748,43622.1957,55868.8045,1293.8529,-233.7992,26722.8037
57521.0452,28749.4361,54522.2908,43120.3991,37227.9882,39998.7102,5756.1547,50414.7112,43635.4727,55874.7053,1310.6167,-220.2988,26726.8717
57513.088,28747.2904,54521.0838,43119.5945,37226.9601,39987.3108,5754.8136,50406.2623,43635.6068,55872.2019,1303.8665,-224.5903,26724.6813
57490.4233,28747.5139,54521.0391,43104.4847,37196.1594,39976.6266,5755.3053,50384.6258,43626.0849,55870.682,1282.8112,-235.0062,26718.1993
57474.5536,28742.0601,54521.4415,43098.7179,37174.5676,39977.0737,5752.7125,50374.0758,43618.083,55868.5362,1273.334,-245.5115,26715.07
57497.7547,28752.5207,54523.2296,43108.1951,37206.1282,39980.1582,5754.7688,50391.6442,43637.8866,55872.6937,1288.1756,-235.2297,26718.7357
57517.8713,28763.1154,54526.7612,43115.8841,37232.5033,39984.0474,5755.7523,50419.271,43649.8225,55881.1873,1300.3349,-225.7973,26718.2887
57508.5729,28764.9035,54524.3025,43107.7033,37217.9747,39978.0571,5753.1595,50418.1534,43639.8983,55876.717,1289.2932,-232.1005,26715.4723
57484.7907,28756.097,54525.9118,43092.2359,37186.9057,39970.994,5750.8796,50390.3031,43623.6262,55875.4206,1272.2611,-245.7798,26714.7571
57477.4146,28753.683,54523.9896,43088.2573,37177.2945,39972.9609,5753.7407,50379.8425,43620.1841,55881.1426,1265.6897,-245.7798,26718.4228
57496.6818,28760.2097,54520.9944,43095.4546,37206.6647,39978.0571,5760.8932,50410.4644,43626.3084,55886.3729,1280.7995,-233.6651,26722.5802
57509.5117,28761.0143,54516.837,43096.2592,37227.7647,39976.4925,5756.8252,50417.6617,43632.5222,55888.6975,1290.1872,-224.7244,26722.4461
57504.1473,28757.0357,54517.7758,43089.2855,37220.7463,39969.9658,5753.7407,50404.4294,43630.0188,55887.9822,1285.7169,-227.7195,26719.9874
57481.2144,28748.7656,54515.9429,43077.5732,37187.3081,39962.6344,5751.5949,50380.7366,43605.9237,55882.1708,1268.6402,-241.22,26715.1147
57462.3942,28742.82,54513.6184,43069.8395,37176.3557,39956.8677,5750.2538,50361.2906,43599.1734,55881.0979,1260.6829,-249.2666,26712.9242
57487.4729,28743.2671,54517.7311,43078.6908,37196.07,39966.7025,5750.7455,50383.687,43622.7769,55887.4458,1276.6421,-238.5825,26715.9641
57503.1191,28749.6597,54518.7145,43087.6315,37221.2827,39972.8715,5752.5784,50418.064,43628.3201,55889.7257,1284.3758,-233.3969,26719.138
57491.7197,28740.0037,54515.5406,43079.8084,37216.6783,39965.0484,5750.6561,50400.6296,43618.9324,55880.6062,1276.4186,-241.4882,26713.5948
57469.2786,28728.6937,54512.2325,43068.1854,37191.3314,39957.8065,5747.661,50364.3304,43606.1472,55873.3642,1257.6431,-253.5135,26707.0681
57461.9919,28728.202,54512.1431,43071.6276,37180.4237,39960.891,5750.8349,50344.9738,43603.912,55869.7879,1249.9988,-256.6874,26704.3412
57482.6896,28741.166,54516.3006,43088.6149,37203.0437,39967.0154,5754.8583,50371.2595,43621.8828,55877.4769,1269.8025,-239.9236,26710.4656
57488.7246,28740.0037,54511.2938,43087.4527,37214.5772,39968.7141,5752.3102,50392.4489,43623.4027,55875.5547,1280.7548,-234.3357,26712.6113
57482.1979,28734.1028,54511.9196,43089.6431,37207.2011,39971.5304,5754.2324,50395.3546,43622.7322,55873.9007,1279.4137,-235.6768,26713.2819
57466.6411,28727.7102,54518.3122,43085.3069,37192.3149,39968.3565,5757.6299,50376.2662,43616.7419,55873.0513,1267.6567,-248.7302,26712.0302
57462.886,28722.9717,54520.905,43080.1213,37188.4704,39968.0436,5760.4462,50363.9281,43614.015,55874.1689,1260.1465,-256.2851,26711.5831
57478.8451,28730.4372,54518.6251,43087.7656,37202.5073,39976.7607,5763.2178,50374.344,43618.4406,55875.957,1272.9317,-246.048,26720.6579
57492.0326,28734.6393,54520.2792,43092.9959,37224.3226,39982.6616,5760.4462,50401.2555,43629.84,55884.853,1289.2932,-236.7944,26724.726
57490.0657,28733.8346,54523.8107,43092.9959,37227.3177,39988.8307,5758.8369,50403.4907,43627.426,55887.1776,1290.9919,-235.185,26725.2624
57474.1066,28731.823,54524.526,43087.2738,37205.5471,39985.4779,5759.4627,50387.2633,43614.9538,55881.6791,1276.4186,-246.2268,26720.9709
57469.2786,28729.409,54524.7942,43076.6344,37193.8795,39980.6499,5758.4792,50376.4451,43602.705,55874.7053,1263.231,-254.0052,26714.9806
57481.885,28735.131,54525.8671,43083.6529,37211.6715,39981.1417,5758.7922,50389.2303,43623.5815,55878.9968,1275.301,-240.46,26720.6132
57490.8257,28736.7851,54523.7213,43094.337,37230.3128,39980.7394,5759.865,50406.7987,43641.0159,55881.4108,1285.9404,-230.0888,26724.9942
57485.3271,28735.9357,54523.3637,43093.4876,37227.4071,39983.2875,5759.7756,50399.065,43640.6136,55880.2038,1285.9404,-235.8556,26723.0272
57470.575,28733.7005,54524.7942,43084.4575,37205.7706,39978.2807,5758.8369,50372.4664,43627.5601,55880.3827,1276.4186,-246.5397,26718.0204
57457.7004,28726.9503,54522.3355,43073.8181,37198.6181,39971.6645,5756.3782,50367.5938,43622.3745,55877.7004,1266.0027,-251.8147,26716.3664
57485.2377,28734.4158,54526.9847,43087.6315,37223.0262,39984.9862,5762.2343,50391.0631,43638.3337,55884.5401,1279.4584,-237.9119,26722.5802
57498.3358,28738.8861,54526.2694,43096.9745,37232.548,39990.8423,5759.0604,50408.5869,43646.2909,55891.0221,1290.5449,-228.1666,26727.1399
57491.9432,28745.2787,54526.94,43096.4828,37226.6471,39989.7695,5760.9826,50415.7394,43647.3191,55892.0056,1288.5332,-229.5077,26728.034
57484.1201,28741.8813,54529.2646,43086.3351,37212.4314,39984.4944,5761.7873,50400.1826,43635.3832,55887.4458,1277.2679,-240.1918,26725.3518
57477.7275,28735.7569,54524.3472,43069.7501,37193.3877,39975.1067,5756.8252,50376.5345,43625.1014,55881.992,1267.4332,-254.0499,26716.8134
57494.089,28743.8482,54523.9002,43081.3283,37211.448,39982.7063,5758.3004,50389.275,43636.5902,55884.4507,1280.6207,-243.9022,26716.7687
57508.5282,28751.269,54522.0673,43088.4808,37233.7997,39987.4896,5759.9097,50413.1913,43646.7379,55889.9492,1291.0366,-233.1287,26718.9592
57512.0598,28754.4876,54521.0838,43085.8433,37228.4353,39982.7957,5760.178,50422.8473,43643.6087,55894.7772,1287.5497,-236.2132,26717.5734
57496.3689,28745.6363,54517.0605,43076.4109,37205.3683,39972.5139,5760.5803,50408.6316,43636.9032,55886.9988,1279.3243,-246.1374,26714.4889
57480.9909,28734.6393,54512.0537,43071.3594,37194.3712,39962.6344,5758.0769,50385.7881,43627.1578,55880.9191,1272.0823,-253.737,26709.035
57488.814,28735.6675,54516.1664,43078.8696,37214.6666,39968.9823,5759.5074,50408.9445,43640.703,55888.5634,1283.7946,-243.4999,26712.7454
57505.399,28747.1563,54520.0557,43088.5255,37238.5383,39977.1184,5762.6814,50433.7102,43646.6932,55897.4147,1299.3515,-228.1666,26720.1215
57507.5001,28742.5071,54518.2675,43088.6149,37235.0067,39975.1067,5759.9545,50426.9153,43641.2394,55897.9511,1294.0764,-234.0674,26720.0768
57488.814,28732.9406,54519.7427,43076.9473,37208.274,39974.4809,5757.764,50409.1233,43640.2112,55894.0172,1278.609,-244.3045,26717.3052
57474.4642,28732.6723,54520.0109,43066.6208,37191.8678,39968.2224,5754.8583,50396.2934,43631.7623,55890.888,1269.7577,-253.424,26716.6346
57491.228,28742.1048,54519.4298,43075.7403,37211.2244,39969.34,5756.8252,50413.9066,43646.1121,55893.3467,1283.3923,-243.9022,26719.0039
57530.3882,28749.7938,54522.7826,43100.7743,37238.8959,39984.3603,5765.3636,50442.0251,43668.8662,55908.0988,1305.6993,-220.3435,26726.0224
57524.2639,28748.6762,54521.5309,43092.8618,37230.3128,39981.4993,5765.9447,50441.4439,43662.9653,55908.2329,1296.401,-227.1384,26721.999
57498.9617,28742.0154,54521.8438,43078.2884,37205.1001,39969.1612,5763.486,50415.6053,43646.6038,55900.2757,1274.7198,-247.3891,26716.5005
57481.9744,28735.7122,54517.1499,43067.3361,37184.6706,39962.6791,5755.7523,50399.7803,43637.7972,55894.7772,1263.2757,-254.8546,26709.8844
57496.3242,28742.0601,54516.9264,43075.2039,37199.2439,39967.2389,5754.2324,50416.2759,43658.6291,55904.2096,1273.7811,-239.0295,26712.6113
57507.6342,28750.5537,54515.3618,43077.752,37224.0096,39969.2059,5756.0652,50434.2914,43670.3414,55903.2261,1290.6343,-229.1948,26715.7853
57507.3659,28752.1183,54512.3219,43080.7024,37229.9999,39975.4643,5760.625,50443.3662,43659.2996,55895.3136,1292.6459,-234.291,26714.0865
57490.2892,28743.0435,54512.2325,43069.7501,37203.4013,39969.0717,5755.7076,50424.9036,43653.2199,55891.6926,1275.2116,-247.1209,26707.6492
57485.3271,28738.5285,54511.6961,43059.5577,37188.6492,39958.9241,5749.2256,50402.6413,43649.286,55884.5401,1260.8171,-254.944,26701.7931
57498.4699,28743.8035,54509.9974,43067.2467,37210.5092,39968.7588,5751.6396,50420.9697,43654.6952,55885.0765,1270.2495,-244.081,26705.2352
57518.81,28759.4944,54515.183,43089.7325,37234.3808,39982.0805,5761.2062,50457.5372,43669.8049,55895.716,1292.9589,-228.256,26715.8747
57518.1842,28757.7957,54518.5804,43094.8734,37235.7219,39986.1485,5764.7377,50460.0406,43672.2189,55900.4098,1292.9589,-230.4018,26716.1876
57494.089,28743.3565,54511.4726,43076.7685,37203.2672,39972.5139,5755.4394,50433.1738,43650.9401,55890.0386,1271.3224,-246.6291,26707.381
57483.1814,28736.7851,54514.7359,43071.4935,37186.2352,39971.9328,5752.8913,50424.546,43641.1947,55889.3234,1262.4711,-251.5018,26707.4704
57491.1833,28738.305,54518.5357,43077.0367,37207.827,39981.8122,5755.2606,50435.4984,43660.0149,55892.8996,1274.0046,-241.1753,26711.1808
57502.3144,28745.5022,54516.9264,43089.4643,37233.7997,39989.1883,5754.7241,50457.6713,43675.1693,55896.61,1283.9288,-230.2229,26715.4276
57491.3174,28748.7656,54519.9215,43086.9162,37228.5247,39981.1417,5753.1595,50463.2145,43681.1596,55900.678,1280.8889,-233.1734,26718.9592
57473.9277,28736.1145,54518.5357,43071.9405,37198.7969,39969.34,5750.2985,50432.4138,43656.7962,55892.0503,1261.0406,-252.1276,26708.6774
57469.3233,28727.7102,54516.4794,43061.4352,37185.4752,39968.6247,5745.8729,50414.4877,43640.3006,55883.199,1251.2952,-263.1247,26699.9602
57491.5409,28736.1145,54516.077,43073.3263,37206.3071,39982.1699,5750.522,50435.2301,43653.2646,55887.3117,1265.5109,-250.9654,26702.6424
57511.0316,28740.2719,54515.2277,43085.1281,37226.513,39993.2563,5752.6231,50461.5158,43665.424,55893.0337,1277.5362,-237.1073,26709.2586
57502.538,28739.3779,54514.7359,43086.9162,37220.8357,39988.6072,5755.0818,50466.4779,43666.4075,55893.3467,1277.4915,-238.7613,26709.4374
57485.4165,28732.8064,54513.1266,43083.3846,37202.6414,39978.4595,5755.5735,50444.5285,43652.6388,55884.853,1267.2096,-251.4124,26705.8164
57481.3485,28730.0795,54516.9264,43074.891,37184.4023,39979.8006,5756.1547,50429.9551,43651.6553,55887.2223,1261.6664,-257.2238,26705.1011
57502.4486,28735.6228,54521.6203,43077.8861,37203.5801,39991.7811,5758.3898,50455.9726,43666.2734,55889.1445,1278.3855,-244.4834,26708.7668
57528.2872,28746.2622,54525.6883,43098.4497,37241.3993,39998.6655,5763.486,50482.0347,43680.802,55893.8384,1295.8199,-224.9479,26719.3168
57529.5389,28742.4624,54525.1071,43101.3554,37234.7832,39995.1339,5760.8932,50478.9054,43677.0469,55898.2193,1292.7353,-225.1714,26720.4791
57500.9286,28732.8511,54520.3686,43084.994,37206.5306,39987.0872,5753.9642,50454.542,43666.3181,55891.1562,1268.9978,-243.634,26713.9524
57487.7411,28735.5334,54520.7262,43082.0435,37195.0418,39989.233,5753.9195,50438.0912,43654.6952,55888.027,1262.9181,-247.7467,26713.2819
57500.3475,28739.0649,54516.7476,43086.3351,37209.034,39993.5693,5754.143,50449.6247,43658.0926,55889.5469,1274.5857,-239.7895,26717.5287
57521.1346,28735.4439,54515.0489,43092.3253,37231.8774,39992.6752,5751.6843,50475.0609,43675.1246,55894.1513,1287.7285,-231.877,26720.0321
57514.4291,28732.5829,54512.3667,43083.6529,37222.0874,39984.1815,5746.2752,50478.0114,43672.5765,55898.7558,1278.8773,-237.3755,26718.3334
57488.367,28722.8823,54508.5669,43068.7666,37195.4888,39973.0951,5740.2849,50456.956,43656.4386,55891.5138,1257.509,-254.3181,26707.4257
57481.572,28724.2681,54514.8253,43067.1126,37175.0146,39980.337,5743.5036,50441.578,43647.0956,55885.5683,1253.441,-261.5601,26705.9952
57498.5594,28731.7783,54514.2442,43071.6276,37195.3547,39985.4779,5744.3976,50461.5605,43659.6125,55886.6411,1266.6732,-251.9488,26706.934
57520.3747,28741.926,54516.1664,43082.3565,37228.1671,39989.2777,5746.6328,50483.0629,43669.8496,55891.2903,1281.3807,-238.6719,26709.2586
57511.881,28740.4954,54513.216,43083.6976,37224.2779,39985.6567,5743.1906,50482.5711,43658.5397,55886.2835,1278.0726,-245.5562,26708.5433
57503.1638,28735.2204,54514.4677,43079.6295,37204.0272,39985.0309,5742.7436,50463.6616,43650.4036,55879.9356,1263.8569,-258.1179,26709.1244
57497.6206,28739.2437,54516.7476,43075.8744,37192.8513,39985.6567,5747.5716,50452.8433,43648.7049,55888.2505,1257.4196,-260.4872,26714.0418
57509.5117,28750.2855,54518.9381,43084.6363,37213.3702,39995.8044,5753.4277,50473.7645,43664.1276,55895.1348,1274.094,-243.5893,26720.7921
57522.3863,28752.6548,54520.9944,43093.8452,37238.9406,40000.4983,5752.176,50498.3515,43678.6562,55901.3933,1287.1027,-230.2676,26723.6978
57517.6477,28742.7306,54521.0838,43096.4381,37232.9056,39993.4351,5747.9292,50493.1211,43673.9177,55897.0571,1284.2417,-238.1355,26722.8037
57501.331,28735.891,54520.458,43088.3914,37201.032,39980.6052,5747.7057,50461.4711,43658.0032,55886.5964,1267.7908,-251.5465,26715.9641
57486.4894,28729.6325,54517.284,43072.8793,37180.379,39973.2292,5739.3461,50446.1825,43655.6786,55879.4439,1254.8715,-262.4989,26712.5219
57498.0229,28732.3594,54517.1499,43082.9376,37200.8979,39981.4099,5741.626,50465.0474,43665.0664,55885.5236,1268.7743,-250.2948,26715.2041
57510.5846,28735.5334,54514.4677,43087.4079,37222.7132,39980.0688,5739.8826,50478.816,43673.2471,55889.9045,1276.4633,-243.1422,26713.3713
57506.8295,28729.856,54512.3667,43082.2223,37216.8571,39977.3866,5738.765,50480.9618,43674.2753,55887.2223,1271.68,-246.8526,26710.0185
57492.7926,28721.4518,54510.2209,43076.8579,37196.5617,39975.4643,5739.6144,50458.7442,43652.4153,55871.129,1259.6548,-257.8497,26704.1624
57490.3786,28722.927,54516.4794,43070.1971,37189.6327,39979.4877,5740.9555,50454.542,43648.9731,55873.9901,1251.474,-262.0965,26702.866
57498.917,28728.0679,54516.7476,43069.6607,37206.7094,39984.3156,5743.4142,50472.8705,43668.1509,55883.0649,1262.1582,-254.944,26707.4257
57509.0647,28729.7219,54516.9264,43082.6247,37223.0709,39985.5226,5744.3529,50488.1591,43679.6844,55888.3399,1280.2631,-243.4105,26712.8348
57504.9073,28731.7783,54521.7991,43090.8501,37218.2876,39986.9978,5748.108,50487.4438,43675.8846,55888.2505,1282.99,-239.566,26716.4111
57496.2348,28728.6043,54525.1966,43087.7209,37204.7424,39987.132,5751.282,50466.612,43662.7418,55885.2106,1271.7694,-249.1325,26715.7406
57490.6021,28722.5693,54525.9118,43081.2389,37194.9077,39981.7228,5751.9078,50455.5702,43657.4668,55881.6344,1261.2194,-262.0071,26714.6677
57503.745,28723.374,54524.6154,43086.9162,37215.0689,39984.7627,5755.3947,50479.4866,43669.0003,55884.0483,1269.5342,-249.6243,26715.1594
57522.1628,28736.6062,54521.0838,43100.6849,37240.5946,39995.268,5757.0487,50502.1513,43675.4376,55887.1329,1284.4652,-234.6486,26716.9476
57522.7439,28736.8298,54522.3355,43098.2262,37237.2419,39991.6917,5756.1547,50496.161,43673.56,55897.2806,1281.3359,-237.2861,26718.4228
57499.2299,28718.1437,54517.5076,43077.2156,37210.8668,39975.5538,5744.7106,50461.784,43650.9848,55882.7966,1256.5255,-260.4425,26705.6376
57481.7955,28713.8522,54515.8982,43074.4886,37192.4937,39969.1164,5741.8495,50445.8249,43641.15,55872.2466,1246.9143,-266.8351,26703.5365
57491.9879,28718.4119,54518.0887,43080.8812,37201.9261,39973.6762,5742.2966,50464.8685,43661.7583,55877.8346,1260.1018,-255.7933,26706.1293
57510.9869,28723.7763,54516.9264,43087.1397,37224.8143,39976.6713,5739.7485,50487.5779,43681.0255,55889.9939,1273.5128,-243.0081,26708.0963
57507.0977,28718.6354,54516.9264,43084.234,37224.5908,39978.9512,5740.6873,50482.0794,43675.3929,55891.6479,1273.7364,-246.1374,26706.4869
57492.3009,28714.0757,54519.2063,43074.6675,37204.1613,39979.1747,5739.1226,50463.6616,43662.0712,55885.5683,1263.1863,-253.8711,26701.659
57488.367,28709.7394,54520.9944,43068.8113,37190.0797,39980.8288,5737.4239,50453.9609,43653.3093,55884.0483,1255.7656,-259.4143,26701.7037
57504.0132,28716.3109,54521.5309,43078.199,37211.5821,39988.2942,5741.3131,50464.3321,43667.2568,55892.7655,1268.9531,-247.6126,26709.8397
57526.3649,28718.3672,54521.8438,43092.6383,37237.4654,39988.2942,5744.2188,50484.4934,43682.9478,55895.8948,1289.1144,-229.7759,26715.6959
57524.6215,28711.6617,54524.3025,43090.716,37234.4255,39985.4332,5743.9506,50476.5809,43679.9526,55892.0503,1285.8063,-228.9265,26716.1429
57496.3689,28704.8221,54523.0061,43073.4605,37205.0554,39975.7326,5738.1392,50453.1115,43666.0945,55885.7024,1266.7179,-243.5893,26713.4607
57486.9365,28710.3206,54523.5425,43076.545,37193.2089,39977.2078,5745.3811,50455.0785,43664.3511,55884.0036,1260.5935,-247.0315,26714.8912
57501.8674,28716.7579,54525.2413,43091.2971,37215.1136,39987.9813,5752.3102,50482.6158,43675.4823,55892.8549,1275.7927,-234.3804,26718.7804
57522.0287,28729.409,54529.9798,43103.5906,37245.5567,39995.268,5758.8816,50516.7246,43693.2296,55901.6615,1295.0152,-220.2094,26724.1448
