FC3,FCz,FC4,C5,C3,C1,Cz,C2,C4,C6,CP3,CPz,CP4
56002.0655,27657.0171,53696.5281,41706.3832,36421.9844,38869.5896,5905.5537,50336.2119,44444.6057,55949.8966,-17.4344,-975.3406,25584.1613
56018.874,27665.5555,53693.4882,41715.011,36443.5315,38873.6576,5907.2524,50358.0719,44457.972,55956.5574,-0.2682,-963.0919,25586.1729
56016.8624,27669.1318,53694.6505,41714.2063,36450.4606,38877.5468,5908.5935,50368.8902,44462.8894,55956.5574,1.1623,-963.0919,25585.6365
55997.774,27660.1464,53689.6884,41703.3434,36429.0476,38868.8296,5902.6927,50350.6064,44454.1723,55950.5671,-14.5286,-977.3076,25582.5967
55978.1939,27648.8364,53686.7827,41691.6311,36406.6064,38854.7927,5897.0153,50326.7795,44437.5426,55947.6614,-33.2594,-992.1938,25576.6958
55984.8547,27652.8597,53686.1122,41693.4192,36408.4393,38854.8374,5896.5236,50332.0098,44442.9964,55948.4661,-28.4761,-985.3989,25574.2818
56005.1501,27657.33,53684.9946,41704.5951,36432.445,38860.9618,5899.0717,50361.1118,44453.8146,55950.3436,-12.1593,-974.1783,25576.4276
56013.4202,27661.5769,53682.1336,41710.2724,36439.5082,38861.5876,5896.4342,50366.0291,44453.0994,55952.5788,-7.7337,-973.8207,25579.4227
55992.2308,27649.1046,53678.4679,41689.0383,36410.6745,38855.8209,5890.5333,50341.4422,44446.3938,55946.812,-24.6316,-987.7682,25571.5549
55975.6905,27645.0813,53679.3619,41683.5845,36397.9787,38857.2961,5890.4439,50324.0973,44435.0839,55943.8616,-33.617,-999.4358,25567.2634
55979.7585,27646.78,53679.6749,41690.3794,36411.1662,38857.1173,5888.8346,50334.9155,44443.4881,55957.0491,-23.827,-990.2269,25571.8231
56004.5689,27651.7421,53677.0821,41698.2919,36437.3177,38858.9501,5889.6393,50358.1613,44450.3725,55962.7265,-13.1875,-981.6438,25571.7784
56007.2511,27649.6857,53676.0986,41704.8186,36442.6821,38860.8277,5892.2321,50367.7279,44455.7369,55963.1288,-11.4441,-984.4154,25573.656
55996.8352,27646.6012,53677.2162,41696.2355,36422.655,38853.3175,5889.5051,50356.552,44447.3326,55956.915,-30.0407,-998.2735,25570.5267
55975.8693,27641.3262,53676.0986,41677.2366,36400.5268,38842.231,5885.2583,50324.8572,44435.3521,55947.7508,-48.6821,-1009.047,25565.3858
55970.1025,27644.9025,53677.6185,41676.6107,36412.3732,38843.2145,5885.4818,50333.3956,44436.2909,55952.087,-43.2283,-1004.4426,25565.1176
55991.1132,27652.5021,53677.4397,41691.2735,36443.3527,38850.233,5893.6626,50367.5938,44457.2568,55960.536,-17.6579,-984.5495,25573.656
56000.4562,27655.9889,53685.0393,41698.9177,36454.618,38856.8938,5901.8433,50383.7764,44465.2587,55968.225,-10.7735,-976.0559,25579.6015
55987.4475,27654.6925,53686.3357,41691.4523,36435.4849,38855.2397,5902.9162,50372.6006,44456.0051,55964.2464,-22.7988,-985.3542,25580.3615
55971.0413,27651.161,53683.2511,41676.8789,36407.3664,38848.9813,5897.7306,50348.2819,44442.3258,55953.6964,-37.3274,-998.9887,25578.1263
55980.8761,27658.537,53687.5874,41684.7914,36417.7823,38855.7315,5899.7869,50361.9611,44458.1956,55957.5409,-25.2575,-987.1423,25581.9261
55999.8751,27663.0968,53685.8886,41695.6991,36441.2069,38862.5711,5901.888,50387.8891,44470.489,55965.7663,-9.9242,-974.1336,25584.206
56003.5408,27658.3135,53681.463,41698.426,36438.7482,38864.0463,5899.9658,50393.8794,44467.1363,55963.0841,-3.6657,-971.362,25586.8882
56005.7759,27653.262,53683.3405,41700.1247,36435.619,38865.9239,5904.0338,50376.7133,44460.3413,55955.708,-14.0369,-976.19,25585.3683
55988.7886,27645.7071,53684.3687,41681.2152,36416.4859,38858.6372,5900.8598,50359.3236,44452.1606,55955.5292,-29.3255,-984.8624,25581.2109
55990.8003,27653.7985,53683.4747,41679.2929,36420.3304,38861.3194,5899.7869,50359.8601,44462.1295,55957.7197,-22.9776,-979.9004,25580.9426
56007.1617,27660.8616,53687.945,41695.7438,36443.308,38870.126,5906.4925,50376.8474,44478.9827,55964.6934,-4.068,-966.087,25589.1234
56007.0276,27659.0288,53691.4319,41703.254,36447.5548,38869.1872,5905.2408,50386.9951,44476.9263,55964.7828,0.5811,-962.2872,25589.3916
55992.3649,27657.2853,53692.5048,41690.5135,36428.4664,38864.8957,5903.3632,50378.0991,44464.6776,55969.1638,-11.7123,-972.1667,25586.1729
55981.0996,27654.2008,53690.7613,41685.2832,36416.9776,38864.5381,5904.5702,50368.7561,44456.0945,55971.3542,-24.6763,-981.4203,25583.6248
55989.0121,27659.1182,53690.4931,41691.1393,36426.7677,38867.3991,5904.8831,50389.0067,44460.8778,55972.3824,-17.5685,-979.1404,25583.7142
56003.6302,27662.0686,53691.9236,41702.2258,36448.3595,38870.1707,5904.1679,50409.1233,44477.5969,55978.8197,-1.2517,-966.9363,25585.1448
56003.2278,27660.0569,53688.9285,41705.0421,36450.6841,38876.2951,5902.7821,50409.7044,44482.559,55977.4339,0.0894,-961.9296,25585.1895
55990.4426,27659.9675,53691.4319,41703.0305,36437.4518,38870.6177,5903.2291,50394.8182,44476.524,55977.2998,-18.1943,-974.983,25582.1943
55975.2434,27648.4787,53686.9168,41686.6243,36412.4626,38860.2018,5896.3001,50380.0213,44463.7835,55967.1074,-34.824,-991.3445,25573.1195
55970.8625,27645.2601,53680.256,41683.1821,36410.898,38855.8656,5889.5051,50375.1487,44458.0615,55962.1453,-34.2429,-994.6078,25568.6045
55988.3863,27649.4622,53674.9363,41694.8944,36430.2546,38856.7597,5886.8229,50394.2817,44464.3646,55960.2231,-22.307,-985.3989,25568.8727
55996.9693,27652.1891,53674.2657,41698.426,36439.7317,38860.4254,5887.1806,50396.1593,44467.8515,55967.8674,-18.4625,-980.1686,25571.5549
55991.0238,27649.5516,53680.0772,41695.7438,36424.309,38857.3408,5888.2982,50382.5247,44454.1723,55968.5826,-30.0854,-987.7682,25569.5879
55973.5,27640.745,53676.5456,41683.8974,36402.6725,38845.4944,5882.7996,50348.2372,44439.3307,55955.3951,-43.6753,-1002.0733,25559.6191
55989.8168,27641.4603,53678.1996,41687.9654,36412.1497,38850.8588,5883.1125,50348.8183,44446.7962,55954.2775,-38.6238,-995.3231,25563.7318
56010.6039,27647.5847,53676.5903,41690.8711,36431.6851,38855.9997,5881.682,50375.5063,44462.9341,55959.9549,-23.0223,-981.3309,25570.482
56015.566,27651.6974,53677.7526,41692.8381,36437.1836,38860.4254,5881.3244,50381.0048,44467.628,55962.1006,-11.6676,-978.1122,25571.9125
56003.7643,27651.0268,53681.0607,41686.0878,36422.0738,38857.922,5881.5479,50378.859,44458.1509,55961.8324,-26.1962,-988.8858,25570.4373
55989.9062,27646.8247,53680.8372,41680.0082,36408.1264,38859.2631,5878.9551,50366.7891,44449.836,55959.1055,-44.167,-1002.2968,25567.4422
55997.1929,27645.5283,53682.0889,41687.8313,36418.6764,38868.8296,5881.1009,50378.6355,44462.353,55964.2464,-32.7229,-993.2667,25572.2702
56023.6126,27655.3184,53682.3571,41704.8633,36447.1078,38879.4243,5887.5382,50406.7093,44477.0604,55972.3377,-10.2371,-977.3076,25578.618
56027.0548,27660.6381,53679.8537,41702.5834,36458.3731,38883.8053,5889.7734,50416.0076,44472.4113,55966.8392,-6.0797,-976.19,25578.6628
56008.5922,27660.5934,53679.3172,41690.6476,36442.2798,38879.2902,5887.2253,50406.4858,44455.9157,55961.6536,-22.8435,-986.4271,25576.6511
55991.0238,27655.7207,53680.6583,41680.4552,36412.6414,38874.3281,5886.3759,50382.3906,44447.4667,55959.2396,-39.3391,-992.2832,25577.9475
55995.3153,27651.608,53679.7196,41682.7798,36414.1613,38872.2718,5886.6888,50389.3644,44457.1674,55955.9762,-30.8007,-986.0694,25581.5238
56010.7827,27649.9093,53676.8585,41691.1393,36440.2235,38876.6527,5889.3263,50416.41,44471.6513,55960.9383,-14.8416,-973.7313,25584.6977
56013.152,27654.5137,53679.2725,41689.53,36445.9008,38876.3845,5893.8414,50429.1505,44473.663,55969.9237,-9.5665,-971.0491,25586.4859
55996.8352,27653.4855,53682.5359,41689.9323,36431.2828,38871.2436,5895.8977,50402.2837,44453.9934,55964.2464,-17.5238,-980.8391,25585.6365
55969.4767,27649.2387,53682.7147,41673.3921,36408.484,38862.6605,5890.3098,50361.2906,44433.7875,55956.1551,-31.6054,-993.222,25579.9145
55973.5447,27651.0268,53679.4066,41674.7779,36409.9145,38859.4419,5889.8181,50366.7891,44429.8089,55955.4845,-26.1962,-987.3658,25580.585
55986.5981,27655.9442,53677.1715,41681.7963,36427.8853,38861.0065,5888.2982,50390.6161,44430.837,55957.4068,-12.517,-981.4203,25582.2837
55982.2619,27656.1677,53678.6467,41677.5495,36437.8542,38854.748,5888.477,50381.1836,44419.8847,55953.0258,-10.5053,-982.0014,25583.4907
55972.5165,27654.9608,53679.3172,41674.0179,36432.2215,38852.5128,5893.6179,50351.277,44409.5135,55949.6731,-26.3304,-988.7964,25578.8863
55953.1599,27649.2387,53674.6681,41663.2891,36410.7192,38841.4711,5889.8181,50320.074,44403.702,55943.0569,-41.3954,-1001.0898,25571.689
55956.1998,27647.7188,53675.1598,41665.5689,36408.8863,38840.2194,5893.4391,50306.797,44404.0149,55946.5438,-34.4664,-997.29,25571.1973
55968.4038,27655.0949,53673.9081,41677.8624,36441.6987,38847.819,5896.7024,50315.1119,44402.808,55948.2425,-16.2721,-988.6622,25575.2653
55969.5661,27659.8781,53671.6729,41672.9003,36445.9902,38840.13,5894.9143,50312.4744,44398.0694,55945.918,-17.3002,-989.0199,25571.4208
55950.4777,27653.3067,53670.5554,41663.6914,36418.0505,38823.7685,5894.2884,50281.629,44381.2162,55934.3845,-36.031,-1003.4591,25564.0894
55931.0317,27644.366,53666.1744,41653.8566,36390.8708,38822.9191,5890.5333,50261.4677,44361.4125,55924.1921,-53.1524,-1014.0091,25558.0544
55936.3961,27645.126,53663.1346,41658.4611,36398.2916,38827.0319,5890.0863,50257.9361,44372.4096,55935.055,-43.9882,-1005.0237,25561.6754
55953.9199,27660.9063,53668.4096,41679.9188,36425.6948,38834.4973,5899.3846,50270.1849,44387.3405,55949.4048,-18.0155,-988.7069,25573.2089
55949.0472,27663.812,53666.6662,41679.1588,36418.7658,38827.4342,5900.0105,50269.872,44380.7244,55943.7722,-19.6248,-985.4436,25571.9572
55930.0929,27662.0239,53665.5933,41665.256,36401.7338,38820.0581,5894.959,50245.1509,44355.9587,55931.8364,-34.2429,-1002.0286,25566.3693
55913.0609,27655.0949,53666.4873,41653.7672,36379.2926,38815.7666,5892.2321,50218.3288,44340.6701,55922.6722,-49.8891,-1014.6797,25562.793
55919.9005,27658.6264,53669.1695,41660.2492,36387.2498,38821.3098,5891.5615,50225.7049,44346.3922,55920.884,-45.0164,-1005.8731,25562.6589
55941.2241,27668.4612,53668.052,41675.8507,36403.3431,38828.4624,5892.1427,50245.5086,44360.0267,55923.7003,-26.8221,-992.6856,25566.7716
55950.3436,27674.1832,53668.9013,41677.773,36410.4509,38830.5634,5894.6013,50249.8895,44364.1841,55925.3097,-20.4295,-992.5067,25569.0515
55939.1677,27672.4845,53671.1812,41666.9101,36391.9437,38828.5071,5895.853,50226.2861,44346.3475,55924.8179,-30.3537,-1002.1627,25567.7998
55922.6274,27667.4777,53673.6399,41665.7925,36371.8718,38828.06,5898.9823,50194.4125,44337.0938,55917.7995,-41.2166,-1006.5883,25566.9951
55931.5681,27668.0589,53673.1929,41670.4416,36374.9117,38828.9541,5896.9259,50190.4339,44342.19,55916.1454,-40.2778,-1002.2968,25566.414
55953.294,27675.0773,53679.0043,41681.4834,36401.8679,38838.2971,5899.2058,50215.5125,44362.1278,55923.9686,-21.0553,-982.7614,25573.6113
55962.6818,27672.5292,53681.463,41687.6078,36410.7639,38833.335,5901.3069,50218.1947,44359.4903,55925.6673,-13.6346,-977.9781,25573.7007
55944.9792,27670.9646,53679.1384,41674.5096,36389.8873,38822.9638,5897.1941,50187.1705,44341.1171,55918.3806,-28.0738,-993.7137,25569.6774
55928.4836,27659.8334,53677.6185,41662.4844,36368.832,38816.5265,5893.6179,50161.3766,44324.0851,55905.8189,-42.2895,-1008.0189,25563.7318
55927.2766,27653.9326,53675.8751,41661.2774,36373.8835,38817.6441,5892.4556,50169.8703,44334.1434,55916.1901,-35.1369,-1004.8002,25564.447
55948.019,27655.676,53679.8537,41676.9683,36394.4024,38822.8744,5894.9143,50192.222,44356.361,55932.5069,-17.7026,-991.1209,25571.8678
55952.5788,27657.0618,53675.9198,41679.0694,36397.3081,38818.5382,5896.9706,50185.7847,44356.0928,55929.1095,-14.3498,-988.2599,25572.8066
55936.4855,27652.9938,53675.5621,41665.0772,36373.9282,38813.7549,5892.7685,50169.7361,44338.6137,55919.6323,-25.7492,-998.7205,25564.9835
55921.1969,27647.0482,53670.5106,41649.2075,36342.7699,38808.7481,5888.2087,50144.5234,44325.8286,55913.4185,-47.5198,-1017.8089,25558.5909
55930.4953,27645.9306,53672.1647,41650.2804,36346.0779,38810.3127,5886.6888,50140.0083,44339.0608,55916.056,-44.6588,-1010.2987,25559.932
55960.4019,27657.7771,53676.5009,41664.6302,36369.7708,38813.2185,5887.9405,50160.0802,44348.4485,55920.9287,-28.0291,-996.1277,25563.9106
55967.4203,27659.9675,53672.5223,41670.3075,36378.0409,38812.9503,5884.3642,50172.1054,44348.4485,55920.6158,-25.034,-996.8877,25561.0496
55951.2377,27650.401,53669.706,41661.0986,36360.6513,38807.0047,5880.4303,50152.4806,44334.9481,55918.2912,-40.859,-1010.6117,25556.6686
55937.9607,27643.0696,53669.3484,41645.7653,36334.9468,38796.1864,5876.407,50132.4981,44326.365,55911.8092,-58.4275,-1024.8274,25552.5112
55946.3203,27645.7071,53667.9178,41646.257,36338.3442,38801.5509,5876.3176,50145.7304,44333.0258,55914.8043,-52.9289,-1021.2958,25552.8241
55967.3309,27659.1629,53668.0073,41659.3552,36370.3072,38815.6325,5886.063,50176.2629,44347.5544,55921.5099,-31.6501,-1001.9839,25558.5015
55980.2502,27665.3767,53668.0073,41663.8255,36380.3208,38822.9191,5894.0202,50195.7983,44357.4339,55924.4156,-26.1068,-997.3794,25561.4519
55975.3776,27663.1415,53670.4659,41666.9101,36374.4646,38824.7967,5898.267,50191.9985,44350.639,55921.2863,-34.6899,-1003.7273,25562.4801
55968.5826,27658.5817,53676.0986,41662.7526,36365.4345,38820.5498,5900.6363,50176.5758,44346.258,55922.7169,-43.273,-1009.2705,25565.0282
55969.4767,27658.6264,53676.4115,41666.1948,36377.0574,38820.9969,5903.9444,50187.5281,44353.4106,55921.5993,-33.617,-1001.9839,25570.7055
55986.5534,27662.4262,53679.2278,41679.6952,36405.4441,38827.2107,5910.8287,50216.8089,44375.0024,55929.3777,-9.2536,-978.5146,25577.4558
55989.4145,27665.4661,53682.8488,41685.9537,36407.0535,38823.5897,5911.6781,50214.2161,44385.8653,55937.6478,-2.9504,-971.7643,25579.2439
55967.5545,27656.4807,53680.0772,41671.8274,36385.6405,38813.6208,5904.8384,50188.1987,44365.3464,55933.6245,-18.0602,-989.2881,25573.2536
55950.9248,27645.2601,53678.6467,41659.4446,36363.3335,38807.6752,5898.8035,50165.4893,44352.1589,55928.0366,-32.8571,-1000.5087,25566.5928
55961.3407,27644.7237,53679.6302,41660.9198,36371.1566,38814.1572,5899.2505,50171.9713,44357.6127,55931.5234,-25.7045,-991.7021,25571.5102
55985.7041,27656.436,53678.1996,41673.705,36398.5151,38822.1145,5903.2738,50207.2871,44375.4047,55938.8995,-12.2935,-980.7497,25574.7736
55988.3863,27662.8286,53674.3551,41676.3425,36403.656,38822.6509,5902.0221,50220.3405,44375.7176,55935.8597,-10.5053,-983.0743,25573.1642
55970.2814,27652.8597,53668.5884,41666.3289,36378.8903,38811.2962,5893.2155,50201.0733,44361.2784,55925.8014,-28.8785,-1000.2851,25565.1176
55957.7197,27651.7868,53669.1248,41662.4844,36358.7737,38807.0494,5890.6227,50183.1919,44350.9966,55922.3145,-41.6636,-1012.0422,25561.0943
55960.4466,27654.2455,53665.1462,41660.5175,36368.5191,38808.6587,5889.5946,50194.0995,44349.1638,55921.7334,-41.0825,-1011.1481,25558.9485
55978.8644,27664.3485,53663.8051,41670.9334,36392.0331,38817.4206,5889.5051,50225.839,44359.7585,55924.2368,-30.6219,-999.6146,25559.0379
55978.4174,27670.1599,53664.5651,41673.9732,36390.245,38819.6558,5891.3827,50220.9216,44374.6895,55923.745,-27.582,-992.8197,25558.7697
55966.6604,27674.3621,53666.3979,41672.4086,36375.5822,38825.1543,5891.7403,50201.2968,44362.6642,55922.091,-34.4664,-1002.3862,25554.5676
55952.9364,27669.8023,53670.6001,41664.809,36353.1411,38821.4439,5887.4488,50184.8906,44344.1123,55918.9618,-44.7929,-1014.0538,25552.8241
55965.1405,27670.607,53666.8003,41667.4912,36363.0652,38829.5799,5887.0912,50199.5534,44349.7449,55917.2183,-44.1223,-1006.0966,25553.9417
55985.3464,27670.0258,53666.4426,41680.4999,36389.3062,38840.2194,5888.2535,50229.907,44370.5767,55926.8296,-25.7939,-991.4339,25556.7133
55991.8284,27677.8936,53671.8071,41684.3444,36399.7221,38844.2427,5892.9473,50242.2005,44383.0937,55932.194,-18.2837,-983.4319,25562.1672
55976.7187,27666.3601,53670.2871,41669.637,36380.8572,38834.1844,5885.7501,50222.7545,44374.7789,55925.3991,-32.41,-998.1841,25558.9485
55961.4301,27649.3281,53665.6827,41656.9859,36359.489,38829.8482,5877.1223,50196.6029,44355.6011,55918.4253,-45.9999,-1011.1034,25552.4665
55966.4816,27649.9093,53665.1462,41663.1103,36369.8155,38834.095,5878.9104,50199.911,44365.3464,55922.538,-37.2827,-1000.8663,25556.8922
55980.2055,27657.5983,53667.0238,41673.4368,36398.0681,38840.3535,5886.3759,50228.4318,44381.4397,55932.2834,-22.7988,-986.3377,25566.1458
55987.2687,27654.5137,53668.7672,41677.8177,36407.0088,38840.5323,5885.1689,50237.2831,44386.1783,55934.9656,-19.0437,-984.6836,25567.5316
55977.0763,27652.055,53670.8683,41665.256,36390.692,38833.1562,5882.2632,50219.7146,44381.6632,55931.2105,-35.0475,-994.5631,25564.1788
55965.1405,27658.4476,53673.9081,41657.12,36380.142,38831.1893,5887.1806,50211.7574,44367.7604,55928.4836,-47.5645,-1007.5271,25563.3295
55966.7498,27663.4544,53673.1929,41658.9975,36381.2149,38833.9162,5889.8181,50215.9148,44370.8003,55929.6012,-40.7249,-1004.1296,25565.0729
55981.949,27667.9695,53676.0539,41666.5971,36405.3547,38837.2242,5893.8414,50239.6077,44386.7147,55940.8665,-23.9611,-987.3658,25566.7269
55984.6312,27675.6138,53676.6797,41671.0675,36418.5423,38834.855,5896.0319,50245.9556,44390.6039,55943.1016,-17.3897,-984.326,25568.8727
55968.5379,27670.7411,53673.1929,41657.4329,36399.6774,38823.3662,5892.5897,50219.0441,44383.6749,55934.3845,-28.8785,-998.4523,25565.6093
55957.7197,27663.5438,53672.0306,41646.57,36380.0526,38815.856,5891.6062,50204.739,44370.3532,55936.5749,-43.6306,-1011.5951,25564.6259
55969.9237,27672.6186,53677.7526,41652.9179,36393.6424,38824.7073,5898.0435,50226.9119,44378.8022,55944.2192,-35.4946,-1001.8945,25569.9903
55982.0384,27673.6021,53676.948,41658.774,36416.3965,38825.4672,5899.4293,50251.5435,44390.738,55947.4826,-22.6647,-991.3892,25568.8727
55993.5272,27675.0773,53676.3221,41666.9995,36421.4033,38825.0649,5900.3234,50256.3268,44396.3706,55952.7576,-18.4178,-987.8129,25568.2915
55977.2551,27670.2493,53674.3999,41656.5388,36393.7318,38817.1077,5895.2719,50238.4007,44387.9664,55945.4262,-36.5227,-1003.1015,25564.0894
55957.0491,27668.4612,53674.3104,41646.1676,36377.4151,38812.2797,5895.6742,50214.4843,44377.9528,55934.0715,-45.4634,-1011.5504,25561.1837
55966.9286,27668.1483,53674.0869,41653.0967,36390.7367,38820.7734,5898.3117,50227.8954,44382.0208,55939.6148,-40.0543,-1002.7438,25565.0729
55991.9626,27672.3951,53674.7128,41665.7031,36417.9164,38828.2388,5900.0105,50251.5882,44402.495,55946.1862,-26.4645,-987.5447,25568.4704
55990.3532,27673.915,53676.7244,41668.2959,36423.9067,38833.4244,5903.3632,50258.4726,44407.5465,55950.7012,-22.1729,-980.8391,25569.7668
55974.6176,27665.8684,53678.0655,41657.9694,36397.0846,38828.06,5902.6033,50235.6738,44398.0694,55948.6896,-37.4615,-993.5796,25565.0282
55957.7644,27656.9724,53673.9081,41643.4407,36368.5638,38815.3195,5897.373,50225.3026,44384.4795,55941.8947,-53.2866,-1005.8731,25562.793
55966.3922,27661.5769,53675.3386,41654.9742,36380.8572,38823.4556,5899.2952,50238.1772,44387.9217,55943.5487,-41.8872,-995.9936,25568.068
55992.6778,27673.468,53677.7079,41671.8721,36418.5423,38840.13,5906.5372,50261.2889,44402.8527,55951.8635,-22.0835,-977.1287,25578.2604
55996.3882,27676.1055,53677.395,41678.7118,36422.5209,38848.3107,5912.3039,50267.2791,44405.356,55948.1978,-16.0486,-972.0325,25577.6793
55981.4572,27668.5059,53673.5952,41668.9217,36409.2439,38845.6285,5912.3933,50249.5766,44391.185,55938.7654,-26.0174,-983.2084,25572.5384
55964.157,27663.0074,53670.7789,41654.9742,36388.3227,38841.6499,5909.8452,50222.7098,44380.9927,55943.0569,-37.5062,-995.2784,25570.9291
55973.7235,27666.7178,53670.153,41655.6895,36396.727,38844.1533,5912.7957,50232.4104,44388.5922,55939.9724,-31.2477,-988.4834,25570.1244
55996.9246,27672.708,53671.9859,41672.7215,36430.2546,38849.92,5915.4779,50267.6815,44398.6505,55939.0336,-20.0272,-974.4912,25573.2089
55997.774,27675.6585,53676.5456,41679.2035,36435.4849,38853.0493,5918.6965,50271.2131,44403.2997,55939.2124,-13.2322,-966.9811,25577.9922
55984.81,27671.2775,53679.4066,41672.5874,36418.274,38852.6469,5920.4847,50243.9439,44397.8906,55936.3961,-23.1117,-981.8673,25577.5005
55962.6371,27668.9529,53678.7361,41664.5855,36397.3975,38849.473,5918.473,50227.4036,44377.2376,55933.7586,-34.377,-998.3182,25572.2702
55964.8722,27667.5224,53679.4066,41666.2842,36402.3149,38847.6849,5916.6849,50236.4337,44381.3056,55938.2737,-28.6549,-992.015,25574.3712
55984.2736,27666.6731,53680.0325,41677.013,36427.93,38851.0376,5913.3321,50267.2344,44398.7399,55946.1862,-17.0767,-975.6982,25581.2109
55990.4426,27668.0142,53681.3289,41677.013,36434.1438,38852.1105,5912.5274,50278.3656,44407.2336,55949.6731,-14.4839,-973.3289,25583.4013
55972.5612,27652.9044,53676.3668,41662.9314,36412.6861,38839.7723,5908.7276,50249.666,44403.3891,55940.2406,-28.5655,-991.2103,25574.3265
55959.776,27641.5497,53677.3056,41655.4213,36392.5248,38835.4361,5907.2971,50235.4503,44384.9266,55936.6196,-40.1437,-1001.4027,25574.103
55961.8324,27643.159,53673.9528,41653.946,36395.2518,38830.3846,5901.8433,50236.2102,44379.0704,55937.2008,-39.2944,-997.1559,25569.7668
55983.603,27644.679,53669.2142,41655.5554,36421.2245,38831.7257,5897.3283,50253.3317,44387.877,55942.5205,-32.0524,-989.0199,25567.9786
55993.0354,27649.2387,53666.3979,41666.3289,36427.6618,38836.4196,5900.4575,50254.4492,44393.912,55937.9607,-29.0126,-988.8411,25568.3362
55969.6555,27643.2931,53663.7157,41655.153,36398.7386,38831.5022,5894.0649,50230.8011,44380.635,55924.9967,-42.4236,-1004.1744,25558.5015
55948.1531,27633.5031,53659.3795,41636.2435,36372.0506,38822.338,5886.7782,50212.2045,44368.6098,55925.1308,-54.27,-1018.7477,25554.2994
55962.19,27636.1406,53659.603,41646.257,36384.7911,38823.9026,5890.3992,50218.5971,44373.0801,55926.0249,-44.0776,-1011.6845,25556.4004
55982.4854,27640.6109,53660.2736,41657.8352,36404.6842,38832.0833,5893.6179,50242.6028,44396.2365,55933.4904,-26.4645,-997.6029,25560.1555
55992.5884,27651.608,53662.1511,41660.9198,36410.1827,38831.8151,5896.2107,50267.9944,44401.1092,55935.3679,-22.8435,-994.5184,25565.1176
55978.8197,27650.7586,53662.7322,41648.8498,36389.7979,38821.0416,5897.82,50256.5056,44394.6272,55932.194,-35.8522,-1006.8119,25562.3907
55963.2182,27640.0745,53665.9062,41636.6458,36373.0788,38820.0134,5896.6577,50226.9566,44379.741,55926.8296,-49.3079,-1015.3949,25560.0214
55972.9189,27639.7616,53671.36,41639.1045,36384.1653,38824.7967,5899.474,50235.0032,44387.6982,55933.0434,-48.548,-1005.1131,25563.6871
55993.706,27646.9141,53672.7011,41651.1744,36406.3829,38835.4361,5900.5916,50265.5357,44410.6311,55941.537,-30.309,-990.7186,25570.2138
56001.1715,27648.1211,53674.534,41650.8168,36408.5734,38833.9609,5900.7704,50270.319,44421.2258,55942.2523,-26.2409,-985.8906,25571.7337
55986.3299,27647.3165,53677.2609,41648.2687,36396.3246,38831.5022,5902.9609,50253.6446,44410.0499,55940.0618,-37.4168,-999.0782,25569.4091
55969.6108,27649.2387,53677.7973,41640.6691,36382.7795,38826.9424,5902.5586,50235.5844,44402.9868,55940.0171,-51.0067,-1010.254,25566.9951
55977.6127,27656.5254,53680.0325,41648.2687,36400.0797,38836.5537,5906.7607,50250.3365,44409.6476,55946.812,-40.0543,-998.497,25574.1477
55991.1579,27662.2921,53680.3454,41654.8848,36426.4101,38842.9463,5906.1795,50282.076,44417.7389,55951.9976,-24.0058,-984.4601,25578.3498
55987.5369,27655.8101,53676.5903,41648.6263,36425.516,38839.4594,5903.3632,50286.5463,44419.7506,55946.812,-19.9378,-984.9072,25576.4723
55982.1278,27648.3893,53676.8585,41649.2075,36407.1429,38834.9444,5900.3234,50268.4414,44408.1277,55949.7178,-30.0407,-994.0267,25575.5335
55971.846,27645.1707,53677.842,41650.7721,36393.2848,38832.3069,5898.2223,50249.3531,44404.0596,55946.365,-46.8045,-1003.5038,25572.3149
55973.6341,27648.8364,53673.7293,41648.8498,36395.8329,38829.1776,5894.8696,50264.8652,44405.4902,55942.1182,-45.9105,-1003.1909,25571.7337
55991.1579,27651.9209,53674.221,41661.9033,36419.0787,38840.3535,5897.5965,50289.3627,44417.3366,55947.3038,-26.8668,-990.5398,25574.2371
55993.9295,27654.5137,53671.7176,41661.4115,36420.2857,38837.0454,5895.1378,50289.6756,44418.6777,55950.1648,-22.307,-987.6788,25569.7668
55978.6856,27646.4671,53664.2075,41645.9441,36400.5268,38826.7189,5889.4157,50266.5192,44402.6291,55942.6546,-38.9814,-999.4358,25561.3625
55956.4233,27636.1406,53661.9723,41635.8858,36381.3937,38816.8395,5883.8278,50245.3297,44393.2414,55937.1114,-57.7122,-1017.7642,25553.003
55957.4068,27642.3991,53663.8051,41646.257,36395.6094,38827.1213,5888.7452,50253.0634,44403.6126,55942.6099,-49.6209,-1008.6,25557.2051
55974.3047,27650.0434,53662.5534,41655.5107,36411.3897,38832.7092,5890.131,50278.4103,44410.7205,55943.6381,-33.7958,-993.6243,25560.0661
55981.3231,27653.0385,53662.5534,41659.8469,36415.8601,38837.3137,5891.1145,50290.1673,44416.3084,55945.918,-32.5888,-994.1608,25561.9884
55966.9286,27641.9073,53661.1229,41650.4145,36401.1973,38833.1115,5886.51,50277.6057,44407.8147,55944.0851,-44.7035,-1006.0072,25556.5792
55951.8635,27637.7499,53661.1229,41641.6973,36380.0526,38827.9259,5883.9619,50255.388,44394.2696,55935.815,-57.2205,-1014.8138,25554.7017
55958.4349,27642.6673,53660.0053,41646.4806,36396.6376,38830.7869,5888.1193,50260.4842,44397.7118,55934.1609,-49.4421,-1009.6282,25559.6638
55979.1327,27646.2883,53662.8664,41661.9927,36417.1118,38840.2641,5888.477,50289.6756,44415.772,55938.8101,-31.0689,-994.6972,25567.9339
55991.5155,27647.54,53667.5155,41668.7429,36423.7726,38842.8569,5891.8744,50298.3481,44426.0985,55954.1881,-20.1166,-985.1307,25579.1992
55974.9752,27643.2484,53666.6662,41663.1997,36407.7687,38841.4711,5894.3778,50284.043,44417.6942,55951.9082,-28.0291,-992.2832,25577.3664
55961.0724,27636.8558,53664.9674,41651.7556,36387.7863,38836.7772,5891.8297,50262.7641,44408.1277,55941.0006,-42.96,-1001.671,25570.2138
55972.9189,27641.3709,53668.4543,41650.4145,36396.2799,38845.6732,5894.5566,50281.629,44414.8779,55944.5322,-37.4615,-995.7254,25573.2536
55994.3765,27651.608,53674.1316,41673.8838,36423.7726,38852.4234,5900.234,50315.246,44432.1334,55955.8421,-20.9212,-976.8605,25581.6579
56001.2162,27659.297,53679.9878,41681.2152,36431.3275,38853.0046,5903.4973,50324.6784,44437.0061,55960.8936,-13.5899,-971.809,25584.0719
55985.4805,27655.9889,53678.6467,41666.9101,36412.552,38848.4001,5903.4973,50307.9593,44429.3618,55954.054,-26.5092,-985.98,25577.4111
55968.5826,27652.9491,53678.9149,41657.6117,36394.4918,38842.1416,5902.3798,50282.7018,44416.666,55945.1133,-46.134,-996.5748,25574.8183
55973.7235,27660.4146,53681.0607,41669.7711,36402.2702,38852.1999,5902.5586,50291.1508,44430.0324,55943.9063,-37.1486,-984.9519,25574.9077
55999.9198,27670.294,53680.3007,41682.4222,36427.483,38860.8724,5905.9113,50319.8504,44449.3443,55949.9413,-16.8979,-967.4728,25579.2439
56007.1617,27667.5671,53676.6797,41680.0529,36430.791,38858.1008,5903.4079,50323.6055,44442.3258,55949.3601,-15.1098,-971.4067,25577.6346
55992.3649,27656.6148,53675.6068,41669.9499,36411.3897,38853.2728,5898.5353,50302.3267,44430.3006,55944.2192,-27.2244,-988.1258,25570.7055
55973.1871,27647.54,53677.1715,41657.4329,36397.3528,38844.3768,5895.7636,50284.9817,44413.8497,55940.33,-42.5577,-1003.5485,25566.2799
55983.2454,27649.194,53674.0422,41658.1929,36411.8367,38845.2709,5893.6179,50294.1459,44422.3434,55940.7324,-37.2827,-998.5417,25567.174
56000.8138,27652.5468,53672.3435,41673.705,36435.1273,38850.5459,5897.1941,50310.865,44437.6767,55941.09,-18.7755,-985.4436,25572.896
56003.3619,27657.5536,53675.428,41681.4387,36443.755,38856.8044,5900.0105,50321.7727,44447.2879,55951.8188,-12.4276,-980.6156,25575.8911
55987.2687,27655.4078,53679.9878,41671.8274,36425.516,38852.1999,5899.2505,50315.0672,44439.5542,55957.3174,-31.0242,-988.7516,25574.4159
55965.6769,27644.5895,53673.4611,41658.5952,36395.0282,38842.991,5891.6062,50293.7883,44418.5436,55947.2591,-52.7054,-1003.0121,25569.0068
55975.7352,27637.2582,53672.7458,41665.0772,36410.585,38845.6732,5892.5003,50306.0371,44422.2093,55946.2756,-45.8658,-998.7652,25572.896
56000.9032,27638.4652,53673.4164,41681.1705,36439.9552,38853.8539,5897.4624,50331.0263,44444.3822,55952.9364,-24.0952,-977.1734,25582.4178
56003.3172,27642.7567,53673.0587,41680.4552,36439.7317,38856.9832,5898.4905,50330.9369,44443.354,55952.6682,-22.4859,-976.637,25579.6015
55980.7867,27637.5711,53668.9013,41661.948,36415.4577,38844.1533,5890.5333,50318.1964,44435.3968,55947.9296,-38.3109,-991.8362,25570.6608
55974.9752,27636.0959,53668.6778,41663.3338,36396.6823,38843.6615,5890.8015,50305.4559,44435.0392,55944.3086,-50.4702,-1003.1015,25568.4257
55982.1278,27644.5448,53671.9412,41669.2346,36411.3003,38849.3836,5892.545,50311.8932,44442.7282,55949.7178,-42.6471,-993.9373,25571.6443
56006.4912,27656.4807,53677.395,41681.6622,36443.6656,38862.437,5899.474,50339.8329,44455.6922,55954.4116,-19.1331,-979.1404,25577.3664
56015.6554,27665.1084,53685.9781,41689.7535,36453.0534,38872.3612,5904.6596,50347.1196,44459.7602,55955.3951,-11.3547,-974.1336,25581.9261
56005.5524,27663.4991,53689.8226,41687.9654,36438.6588,38870.3048,5908.37,50340.4588,44461.8165,55954.0093,-21.5024,-978.8722,25581.7473
55989.9509,27656.9724,53689.0179,41679.6505,36420.1069,38869.9919,5908.5935,50325.5725,44453.2782,55947.6614,-32.5888,-988.7964,25579.0651
55994.9577,27660.0122,53693.5776,41683.0927,36427.5277,38874.507,5907.6995,50332.9933,44456.2286,55945.7392,-26.0621,-983.1637,25583.0437
56014.8507,27674.0938,53701.4455,41700.84,36455.2885,38882.1512,5918.9647,50362.4976,44475.6746,55963.6652,-7.4208,-961.2143,25591.0903
56020.9751,27670.294,53699.702,41702.1364,36453.858,38879.1114,5917.2213,50369.6948,44476.9263,55970.3708,-5.722,-958.845,25593.0126
56001.1715,27661.9792,53696.3493,41690.7817,36433.3838,38871.5118,5908.2806,50342.0681,44458.4638,55954.1434,-19.5354,-973.5972,25587.3352
55982.9772,27655.3184,53691.9236,41679.6952,36414.966,38861.9006,5903.0056,50318.5987,44447.9585,55945.5603,-37.5956,-991.0315,25581.2556
55982.7983,27650.0881,53683.2064,41680.0976,36415.6812,38858.8607,5898.7588,50329.6852,44452.5629,55947.2591,-36.5227,-990.2716,25579.2439
55993.7507,27651.608,53676.7244,41686.1326,36431.2381,38862.7946,5897.5071,50352.484,44458.0168,55949.3601,-21.4577,-982.0908,25577.5899
55996.1647,27649.9987,53678.4232,41692.9722,36434.7696,38867.1309,5894.5566,50357.7143,44454.8428,55946.1415,-17.4791,-983.7896,25574.9971
55979.6244,27643.3825,53675.0257,41683.8527,36416.62,38854.7033,5886.5994,50341.6657,44441.8341,55940.5088,-31.9183,-997.9159,25568.1574
55962.1453,27633.056,53670.1083,41663.6914,36388.3674,38845.1368,5883.3808,50318.1964,44428.6019,55932.3728,-52.616,-1011.0587,25562.1225
55966.4816,27632.0726,53672.7905,41666.6865,36397.0399,38848.8024,5889.0581,50327.1371,44436.3356,55937.5137,-45.8211,-1003.0568,25567.7551
55995.0471,27642.4438,53679.7643,41679.8741,36425.8736,38858.1902,5894.1096,50353.4675,44451.5347,55950.5671,-27.3585,-984.1025,25574.1924
56005.016,27649.3728,53683.43,41689.0383,36433.0262,38862.7052,5896.613,50354.9427,44457.4356,55956.8256,-18.1943,-974.983,25576.964
55993.4825,27646.6012,53682.9382,41686.222,36422.8785,38863.3311,5898.0882,50338.2683,44444.2481,55948.2872,-25.3916,-986.9188,25574.1477
55979.6691,27645.126,53687.2745,41684.1209,36407.6346,38859.7548,5902.1562,50324.0973,44434.6368,55947.7508,-32.6335,-993.8478,25574.6841
55980.4291,27642.8908,53686.7827,41688.5018,36416.0389,38862.5264,5902.9162,50345.2867,44445.5445,55951.4612,-25.0787,-989.1093,25577.5005
56000.188,27651.5186,53689.599,41698.0237,36443.755,38869.8131,5904.4808,50368.7114,44465.7058,55961.9218,-7.7337,-974.6253,25582.9543
56018.427,27656.8383,53694.2035,41705.2209,36453.2769,38874.9987,5908.2806,50376.3109,44470.8467,55970.8178,-3.5763,-971.2279,25589.034
56010.3357,27649.954,53693.98,41695.118,36431.3275,38870.7072,5908.0571,50367.5938,44455.9157,55963.5311,-17.3897,-982.6273,25585.4577
55988.2075,27640.1192,53694.0694,41681.2599,36404.9524,38862.437,5905.1067,50344.8397,44446.7962,55955.3504,-35.0475,-995.0995,25580.8532
55993.9295,27640.8345,53693.8459,41681.7963,36417.5141,38866.505,5905.1514,50349.4442,44452.0712,55960.6701,-28.789,-985.3095,25581.1214
56004.9266,27643.0696,53687.9003,41685.5514,36438.8376,38871.7353,5902.5586,50370.723,44467.181,55966.0345,-14.3051,-975.0724,25582.7755
56006.3124,27652.9044,53689.4649,41693.4192,36444.4703,38871.6012,5903.1397,50380.6919,44470.0867,55967.465,-10.1477,-971.5855,25583.0884
55991.8731,27654.7372,53690.9401,41681.5728,36428.0194,38865.2533,5902.4692,50356.8649,44458.3297,55959.9549,-25.5704,-986.6059,25577.9028
55979.982,27650.5798,53690.4037,41674.1073,36413.0437,38860.6936,5900.8598,50331.2051,44448.5396,55954.6798,-39.9202,-999.0782,25572.0913
55990.6214,27654.7372,53690.3143,41679.2035,36415.7259,38862.5711,5900.6363,50344.7503,44451.7136,55958.1667,-30.8454,-989.6457,25573.2089
56012.392,27662.7839,53693.3988,41695.5203,36436.6472,38874.7752,5906.8054,50376.3109,44474.11,55968.5826,-8.9854,-969.4844,25582.8649
56021.4669,27664.7508,53695.0082,41698.1131,36447.7783,38878.6644,5911.4099,50388.4703,44476.3899,55971.6225,-1.7434,-963.4048,25589.3022
56001.8867,27657.7324,53694.1141,41682.6904,36429.897,38867.6226,5913.3321,50371.3042,44468.2539,55967.1521,-21.1895,-972.0325,25588.5422
55980.6526,27648.0317,53691.8789,41675.4037,36408.7075,38858.9054,5912.4827,50350.7406,44451.1324,55959.5525,-35.8522,-985.5777,25586.307
55990.1744,27653.1726,53691.0743,41683.0927,36416.7988,38866.2815,5914.8967,50359.1895,44457.2121,55960.983,-22.62,-979.4533,25586.4859
56009.084,27663.0521,53693.0859,41694.0004,36438.6588,38878.2173,5917.713,50382.7929,44473.7077,55973.4553,-4.4256,-963.3154,25592.5208
56005.9994,27660.2358,53694.6505,41696.6379,36440.9387,38882.0171,5917.0425,50389.6326,44475.9876,55977.5233,-4.068,-962.2425,25593.549
55987.4922,27652.8597,53688.7497,41685.5514,36424.6666,38874.3281,5911.9463,50378.5461,44464.9458,55966.8839,-19.7589,-980.0345,25582.1496
55971.2648,27643.2931,53681.6865,41675.3143,36406.4276,38867.8908,5905.5537,50357.759,44454.3958,55958.9267,-35.4946,-998.8546,25576.3829
55981.3678,27650.7586,53683.4747,41679.3376,36422.3421,38871.8694,5904.4808,50372.0641,44458.9108,55959.4184,-28.8785,-993.2667,25576.1147
56002.6914,27660.3252,53683.2064,41693.8663,36452.9192,38873.747,5906.0454,50402.6413,44475.1829,55965.2746,-14.4392,-977.844,25581.345
56001.3503,27659.7887,53684.4581,41696.772,36458.8648,38876.7868,5907.0736,50405.9494,44484.973,55972.4718,-17.6132,-979.3192,25580.585
55978.5962,27648.0317,53683.2064,41682.1092,36429.137,38867.6673,5900.4575,50384.3576,44469.5055,55966.5263,-32.6782,-990.8527,25574.7288
55960.8489,27632.0726,53679.8537,41666.5077,36402.1808,38860.4701,5897.5965,50362.6764,44454.3958,55954.4563,-49.7997,-1001.4027,25570.7502
55976.0481,27630.2397,53677.6632,41671.0228,36413.2673,38860.4254,5895.6742,50364.0622,44461.0119,55955.9315,-41.4401,-995.636,25570.8843
55994.3765,27634.5313,53675.741,41681.841,36430.3887,38861.7665,5894.0649,50381.0942,44467.7174,55963.6652,-24.721,-981.6885,25574.9077
55993.1695,27637.5264,53677.4844,41684.1209,36432.4898,38862.7946,5893.3049,50385.9222,44475.4511,55963.1735,-16.8085,-972.7478,25579.825
55978.5068,27635.2018,53677.5291,41680.7681,36412.0603,38857.922,5892.3215,50382.4353,44463.8729,55957.7197,-22.5306,-981.7779,25577.0087
55966.7945,27627.9151,53672.1647,41670.844,36386.4452,38852.9599,5888.2982,50362.8999,44444.3375,55945.5156,-41.0825,-995.9936,25570.3032
55979.2221,27630.9103,53673.2376,41679.6505,36398.4257,38854.8374,5885.2136,50366.208,44450.2383,55950.3883,-37.1486,-994.2949,25571.8678
55998.981,27642.9802,53677.5291,41688.3677,36423.6385,38862.7946,5888.8793,50395.8464,44461.8165,55962.9053,-17.6132,-980.6156,25578.7075
55995.4047,27640.5662,53675.9645,41688.0548,36426.0525,38867.1309,5888.2087,50397.7239,44459.8496,55960.0443,-16.8085,-982.8955,25577.5899
55984.5418,27640.745,53676.4115,41675.6272,36402.2255,38861.1406,5882.2185,50378.7696,44445.008,55948.9578,-37.5062,-994.6972,25572.449
55973.2765,27634.5313,53676.1433,41666.5077,36382.1089,38859.8889,5881.8161,50355.2109,44432.8934,55944.1298,-51.7219,-1002.4309,25568.5151
55987.671,27640.5215,53678.1996,41670.531,36392.6142,38862.7946,5884.9454,50369.7395,44442.0129,55942.5205,-45.0611,-998.497,25568.4257
56004.3007,27645.7071,53683.43,41680.5893,36420.2857,38873.6129,5886.4206,50384.6705,44451.7583,55950.7906,-31.7842,-983.9684,25571.2867
56007.6088,27646.8247,53685.1734,41682.8245,36422.3868,38873.0317,5885.5712,50389.4538,44447.1985,55954.6351,-30.6666,-981.9567,25571.7337
55988.0733,27644.5895,53686.8721,41674.7779,36405.8912,38868.2485,5884.409,50374.6122,44443.1305,55949.8966,-38.8026,-990.6739,25569.0515
55965.0064,27635.023,53685.9334,41661.1433,36390.8708,38858.0114,5886.3759,50356.9543,44427.8419,55940.4194,-50.1573,-1003.8167,25566.8163
55968.0462,27637.6605,53687.5427,41667.1783,36407.9028,38863.0182,5892.7238,50364.6433,44430.0324,55939.7936,-36.7016,-999.7487,25575.7123
55993.0801,27648.2105,53687.498,41680.3658,36439.2847,38870.6177,5901.1728,50386.6374,44438.9284,55948.1084,-11.4888,-983.4319,25581.5238
56003.1384,27657.6877,53685.9334,41687.876,36452.6063,38874.9987,5905.4643,50381.8542,44441.7894,55953.0258,-0.6706,-969.7974,25584.1166
55978.5068,27652.3679,53683.5641,41678.8012,36438.3906,38868.7849,5908.37,50353.3781,44426.1879,55945.6944,-9.4324,-974.2677,25584.206
55954.6351,27645.6177,53683.1617,41665.7925,36416.173,38861.1853,5907.3865,50317.6153,44403.3891,55943.4146,-25.3469,-986.6506,25582.3731
55961.296,27647.7635,53686.4251,41663.8255,36423.5491,38852.1552,5907.6101,50317.4812,44399.9022,55948.2872,-21.9941,-981.4203,25584.1166
55983.2901,27658.4029,53688.4367,41677.326,36453.0087,38855.6868,5915.7461,50338.9388,44417.3366,55957.7644,-5.5879,-967.0705,25589.1234
55980.4738,27661.711,53684.5475,41679.2482,36454.9756,38853.541,5918.5177,50332.3227,44412.6427,55953.7411,-4.1127,-971.2279,25585.1448
55962.6818,27668.5953,53684.1452,41665.6137,36434.6355,38845.4497,5917.6683,50303.7572,44402.8527,55949.3601,-18.7308,-983.5213,25580.4956
55941.8499,27663.0968,53684.4581,41657.6564,36407.1429,38837.1795,5917.8472,50272.1071,44386.4018,55940.1512,-31.3371,-996.7089,25575.4441
55941.4029,27662.2474,53683.9217,41659.8916,36415.5024,38831.8598,5917.2213,50269.112,44386.1783,55939.3018,-21.9941,-993.6243,25577.1875
55955.1716,27666.2707,53689.1073,41670.0393,36434.9484,38838.0736,5922.094,50283.2383,44400.081,55945.3368,-13.5005,-980.0792,25582.3731
55960.1784,27672.1716,53690.4037,41673.8391,36430.0311,38836.1067,5922.3622,50273.18,44403.1209,55941.537,-15.3333,-975.7429,25582.1496
55947.8849,27676.7761,53691.1637,41668.4747,36415.2789,38831.3681,5925.402,50245.7321,44393.152,55939.3913,-26.0174,-982.8955,25580.8085
55930.8976,27671.6352,53686.4698,41658.8187,36393.6871,38831.8598,5927.2796,50221.011,44372.2755,55930.4953,-40.9037,-995.1442,25578.7522
55938.0054,27677.6254,53687.7215,41666.7312,36405.31,38840.577,5928.129,50235.0479,44377.1034,55931.2552,-29.7725,-983.7449,25584.2954
55948.4661,27687.4602,53687.7215,41678.8906,36433.7862,38847.2378,5926.6984,50255.7904,44385.463,55933.1328,-11.9805,-970.8256,25584.9212
55949.5389,27690.1424,53687.5874,41679.1588,36434.0991,38845.4944,5925.9385,50253.0187,44384.3901,55930.1823,-5.5432,-972.1667,25581.3003
55944.2192,27686.7896,53687.4533,41679.5164,36414.206,38844.1533,5926.0279,50231.8293,44364.8994,55920.3476,-19.9825,-982.9402,25576.2488
55929.2436,27685.2697,53693.7118,41669.0111,36388.4568,38837.9395,5927.7713,50200.7604,44351.846,55921.7334,-35.5393,-992.1491,25574.4606
55930.0035,27685.0462,53698.0927,41673.705,36392.4801,38847.2378,5932.0629,50197.4076,44365.4805,55925.1308,-27.5373,-985.8012,25580.4956
55950.433,27688.7566,53697.6457,41691.8546,36418.7658,38859.129,5936.1309,50219.0441,44375.3153,55923.1639,-10.9524,-971.5855,25584.6083
55960.8489,27690.7235,53699.6573,41696.5485,36432.3556,38856.5361,5937.919,50232.0081,44369.0568,55927.5001,-2.9504,-969.7527,25586.8882
55947.9743,27689.1142,53697.8692,41691.6758,36415.413,38849.8306,5935.058,50210.6398,44348.225,55916.9948,-13.2769,-982.3143,25580.8532
55938.229,27684.8674,53693.98,41676.4319,36393.1507,38847.0143,5937.5614,50181.7614,44346.3027,55912.0327,-23.514,-984.9072,25577.9475
55944.3086,27684.5098,53694.4717,41682.1986,36401.1973,38850.6353,5941.2718,50192.0879,44357.7021,55919.8558,-12.7405,-971.8984,25583.0437
55966.4816,27688.9354,53694.6058,41699.9012,36422.5209,38857.9667,5938.9919,50214.3949,44364.5418,55925.8908,5.3644,-957.5039,25593.549
55975.154,27694.2998,53688.6603,41706.2938,36426.9465,38855.9997,5937.6061,50220.4746,44368.2522,55928.3495,8.0913,-957.3698,25593.1467
55960.983,27680.1288,53688.1685,41690.9605,36404.7736,38848.9813,5937.5167,50195.8877,44361.4572,55923.9239,-5.9903,-966.7575,25590.8668
55950.4777,27672.6186,53689.8673,41675.0908,36377.2362,38840.4429,5931.0347,50168.5292,44349.7002,55918.47,-18.6414,-978.6487,25587.3799
55955.6186,27673.5127,53694.2929,41679.5611,36383.763,38843.4827,5927.5925,50169.2891,44347.778,55923.1192,-16.9873,-969.3503,25587.5587
55967.465,27678.2066,53693.7565,41687.9207,36405.3547,38848.6683,5927.8607,50187.394,44359.9373,55933.401,-2.5928,-957.2804,25592.5655
55976.0481,27679.1006,53692.2365,41689.6641,36407.5452,38846.2543,5925.5809,50188.0646,44356.3163,55932.6857,1.5199,-959.8285,25590.5092
55953.5623,27656.4807,53683.0276,41668.6088,36376.4316,38827.3448,5913.4662,50163.3883,44342.1006,55917.9336,-19.5354,-981.3309,25575.5335
55944.1298,27655.2737,53689.5543,41660.5622,36357.1644,38826.9871,5915.1649,50138.9354,44339.7313,55926.2484,-35.2263,-990.4504,25574.6841
55956.1998,27665.9578,53691.2531,41667.0442,36378.9797,38833.8715,5920.887,50153.2406,44345.0511,55930.7635,-26.1068,-982.1355,25579.6462
55978.0598,27679.4136,53691.8342,41676.9683,36410.898,38839.8618,5925.3573,50184.7565,44355.5564,55939.8383,-3.9786,-964.9247,25585.5471
55990.7109,27680.5758,53695.4105,41686.1773,36420.6433,38846.9696,5929.783,50194.1442,44370.6661,55949.6731,5.1856,-959.5603,25589.6598
55984.1841,27675.8373,53698.1374,41677.7283,36402.2255,38844.4662,5928.9336,50175.3241,44357.7468,55947.2144,-7.3761,-970.155,25590.5539
55969.1191,27673.2445,53699.255,41663.0208,36386.8028,38837.3584,5926.609,50157.6215,44346.4369,55940.33,-20.7424,-978.8275,25585.3236
55976.1375,27672.0375,53695.9916,41665.1666,36390.9602,38834.542,5925.4467,50166.5175,44354.8858,55941.1794,-17.9261,-972.0773,25588.6763
55993.259,27680.1735,53695.9022,41673.6156,36415.8601,38840.2641,5927.1902,50186.0976,44370.3085,55949.4942,-0.0447,-956.744,25595.6948
55997.1929,27687.5049,53694.0694,41685.5514,36420.3304,38843.2592,5929.2912,50198.7934,44383.4066,55953.607,6.6608,-954.017,25598.1535
55986.0617,27674.7197,53690.5825,41678.1753,36400.0797,38838.5206,5926.7431,50186.2764,44369.1462,55948.1084,-8.5384,-966.3552,25595.0242
55959.0608,27657.1065,53685.0393,41664.049,36372.8106,38829.5799,5917.8919,50161.2425,44352.3824,55941.0453,-24.6316,-981.8673,25585.6812
55958.2114,27649.9987,53682.3124,41661.188,36374.2411,38831.1893,5917.4001,50164.9529,44352.74,55940.3747,-22.8435,-981.1968,25583.4013
55979.4009,27653.8432,53683.7876,41672.6321,36402.5831,38831.9045,5920.3506,50190.568,44361.7254,55945.0686,-8.2254,-969.1268,25586.0388
55978.6856,27656.6148,53680.7925,41671.6486,36403.3878,38827.613,5918.4283,50196.8712,44362.6195,55941.0453,-9.656,-970.0656,25582.7308
55966.6157,27651.9209,53681.6418,41660.6963,36383.6288,38824.6626,5917.9813,50183.9519,44356.5398,55941.8499,-23.3352,-981.5544,25579.6462
55957.6303,27653.9773,53682.5806,41654.0802,36370.4413,38821.131,5916.6849,50154.8946,44339.7313,55930.9423,-37.5062,-997.0665,25572.136
55967.2415,27664.125,53689.4202,41667.4465,36383.8524,38833.648,5923.5245,50166.6516,44353.2318,55934.2951,-24.9892,-989.8692,25579.6462
55990.4873,27679.2347,53693.7565,41683.6292,36414.6978,38849.7412,5929.4254,50211.8915,44377.0587,55950.3883,0.5811,-966.3552,25592.342
56003.4513,27691.3494,53700.4173,41697.3978,36429.2264,38855.5974,5935.1027,50231.2481,44377.9528,55959.329,6.6161,-957.3698,25595.0242
55996.0753,27696.3562,53706.2287,41700.6612,36419.2575,38857.5196,5943.954,50222.978,44379.3386,55958.4349,-1.6987,-958.4874,25598.824
55979.2668,27699.5301,53708.2404,41691.0052,36405.0865,38861.0065,5945.608,50205.946,44374.4212,55956.8703,-10.2818,-965.2376,25599.7181
55983.8265,27702.0335,53705.1558,41692.2122,36415.413,38860.4254,5945.6974,50216.4513,44375.1365,55956.8256,-3.1739,-960.7226,25598.377
56005.91,27703.4193,53703.0101,41699.3648,36430.8357,38862.437,5942.4341,50231.2481,44382.7808,55953.6964,14.2157,-950.0384,25598.9134
56018.874,27704.1346,53703.5465,41700.6612,36436.6025,38862.4817,5938.8131,50242.3793,44393.4202,55954.7246,18.239,-952.81,25598.7346
55996.5223,27696.2221,53698.6738,41681.2599,36410.4956,38855.1056,5931.3029,50217.4795,44378.981,55943.3699,-6.7055,-976.2794,25589.2128
55977.4339,27681.5593,53693.4882,41671.4698,36387.9204,38854.4798,5923.0328,50193.9207,44358.6409,55935.5021,-25.7939,-989.4669,25579.1992
55980.5632,27681.604,53688.705,41679.3376,36398.6492,38857.7431,5915.4332,50197.8993,44362.7983,55934.4739,-21.7706,-988.8858,25572.8066
55991.9626,27683.8839,53684.7711,41690.8264,36417.0223,38861.7665,5914.8967,50225.1685,44375.7176,55937.7372,-8.8066,-977.084,25573.7901
55992.3649,27680.0841,53686.2463,41692.4357,36423.862,38861.7218,5914.0027,50233.3492,44378.8469,55939.436,-5.6326,-971.7643,25576.8299
55976.5399,27668.0589,53682.4465,41673.6603,36403.5219,38848.3554,5908.0571,50214.3949,44367.3581,55942.5652,-23.827,-987.6341,25571.5549
55963.7547,27659.2076,53677.4397,41662.9314,36379.2926,38836.062,5902.9609,50199.0169,44354.3047,55932.8198,-38.4003,-1001.4474,25561.0496
55966.9286,27657.7324,53674.6234,41662.7973,36384.8805,38830.9211,5901.5751,50201.5203,44359.2221,55930.8082,-32.4994,-994.0267,25562.8377
55984.81,27664.0356,53681.3736,41675.0014,36415.6365,38837.7607,5909.2641,50222.1286,44375.2706,55940.5982,-18.2837,-975.7429,25572.2255
55987.9392,27666.0472,53682.5806,41679.4717,36424.7113,38846.1202,5915.1202,50235.0032,44381.5738,55945.1133,-12.0252,-971.0044,25577.9475
55980.8761,27667.7459,53682.0441,41675.5825,36414.4742,38839.1912,5914.1815,50223.9168,44376.0753,55944.8451,-18.9543,-973.9548,25576.7852
55967.6439,27666.9413,53685.3075,41663.6467,36394.4918,38832.7092,5913.0639,50206.0354,44366.464,55942.4758,-31.1583,-986.0247,25573.8795
55968.4038,27672.708,53687.5874,41662.3056,36403.4325,38828.9094,5916.5508,50214.0373,44377.6399,55949.3601,-25.5704,-980.3921,25580.8085
55985.57,27674.9879,53687.3192,41672.6321,36428.5111,38834.4526,5919.4565,50237.7301,44401.3327,55958.7032,-9.2089,-965.8635,25586.3518
55985.8829,27678.3407,53687.6768,41673.8391,36429.897,38832.441,5922.2281,50250.56,44400.3046,55960.8936,-9.1195,-962.3319,25585.1448
55973.2318,27673.0657,53688.4367,41666.7312,36419.1234,38826.9871,5924.5527,50241.5299,44397.6223,55960.8042,-19.5354,-971.4067,25586.1282
55960.2678,27664.7508,53691.0743,41656.8518,36397.4422,38827.4342,5922.4516,50227.6272,44387.8323,55956.2445,-31.6948,-982.8508,25582.8649
55972.6954,27662.7392,53692.9965,41655.2424,36403.3431,38834.855,5926.6984,50228.9683,44387.1617,55956.8703,-27.582,-979.4086,25581.9708
55987.8945,27670.8305,53693.0859,41662.4844,36422.655,38834.4079,5932.1076,50240.8594,44396.4601,55961.0277,-14.3498,-965.9976,25586.1729
55993.6166,27679.7712,53693.1753,41669.637,36433.2944,38839.0571,5936.1756,50257.1762,44397.3541,55958.3455,-9.8795,-966.7575,25585.0554
55977.1657,27675.9267,53693.8906,41667.7147,36425.7395,38837.8501,5939.3495,50249.7554,44387.6982,55959.0608,-17.5238,-976.5476,25585.1001
55965.9898,27670.294,53695.9469,41662.2609,36410.0039,38841.4711,5940.8247,50230.667,44384.4348,55957.8985,-25.7492,-985.9353,25585.6812
55974.8411,27676.6866,53695.634,41667.9382,36423.7726,38846.7908,5941.0483,50238.4007,44391.0509,55959.2843,-14.171,-976.5923,25588.4528
55993.3931,27682.9451,53693.0859,41685.4173,36453.5451,38851.3952,5942.4788,50267.6815,44404.6855,55960.8042,9.0748,-963.3154,25591.895
55996.8352,27681.1123,53693.4435,41689.4853,36464.5422,38848.9813,5943.7305,50283.8641,44414.2967,55962.3241,10.9076,-962.4213,25590.9562
55985.4358,27674.228,53693.8012,41681.7516,36440.3576,38845.852,5942.6129,50259.9478,44402.2715,55959.5078,0.1788,-973.4631,25589.4363
55964.8722,27667.433,53688.4367,41665.8372,36412.1497,38836.1514,5937.919,50235.4503,44389.5757,55950.1201,-20.5189,-987.187,25584.7424
55967.1521,27667.0754,53687.1403,41663.155,36417.3353,38837.8054,5934.6557,50237.7301,44395.8789,55948.0637,-19.7142,-985.086,25581.5685
55996.2541,27679.6818,53689.7331,41676.4766,36438.1224,38849.1601,5935.6838,50263.3899,44414.6991,55957.9432,-2.1905,-974.0889,25587.067
56004.4795,27686.2085,53693.7565,41683.3609,36447.7783,38855.6868,5942.4788,50281.5396,44421.0917,55963.3076,2.861,-970.0209,25593.2361
55980.4291,27684.2862,53692.7283,41670.7098,36424.7113,38845.9414,5940.1542,50264.1946,44412.2851,55956.1998,-14.2604,-980.3921,25585.2342
55955.0822,27668.9529,53687.1403,41654.8401,36396.8611,38837.4478,5931.2582,50239.0265,44397.4435,55945.6944,-33.0359,-997.0665,25577.8134
55958.6585,27668.7294,53684.5922,41656.7624,36410.0486,38836.1961,5928.3972,50249.0848,44391.6321,55941.0006,-29.2808,-991.8362,25576.7852
55981.4125,27681.5146,53687.9897,41668.3853,36435.0379,38848.1766,5933.1357,50277.4715,44401.8692,55943.8616,-15.6015,-978.2016,25582.4178
55989.7274,27683.7945,53691.2978,41676.3872,36452.9639,38856.8938,5936.3544,50282.8807,44413.3133,55958.9714,-11.0418,-973.2395,25585.413
55975.5564,27671.2775,53688.1685,41666.8653,36429.4052,38847.7743,5930.9006,50259.5007,44404.909,55957.0938,-25.3469,-982.6273,25579.6462
55957.8985,27664.7508,53687.0062,41656.0024,36411.6132,38842.6334,5927.6372,50231.5611,44388.9052,55951.5059,-38.4897,-994.3843,25577.1428
55962.503,27667.0307,53684.2346,41663.5573,36422.208,38848.8472,5929.1571,50235.2715,44392.7497,55950.4777,-28.789,-990.0033,25582.0155
55978.1939,27668.4612,53681.6865,41674.1073,36440.8046,38853.094,5931.0794,50268.3967,44405.9372,55956.6468,-10.0136,-973.3737,25588.7657
55980.9655,27667.1648,53679.3172,41681.8857,36447.8678,38854.301,5927.9054,50279.9749,44406.6525,55959.9549,0.8494,-970.0209,25590.9115
55971.9801,27667.5671,53678.1996,41679.1141,36435.9319,38853.8986,5927.2796,50260.2607,44398.427,55956.5574,-7.5102,-978.7381,25586.9776
55960.8489,27661.3533,53678.9596,41670.6204,36419.7493,38851.5294,5927.3243,50234.2433,44391.7662,55949.226,-21.8153,-988.7964,25582.9096
55971.5778,27662.5603,53679.2278,41671.738,36424.8008,38853.3175,5927.1902,50243.0499,44397.98,55953.0258,-14.1263,-980.5262,25582.9543
55994.3318,27666.7178,53675.741,41679.8741,36450.1923,38854.8374,5926.2961,50255.1645,44410.6311,55955.3951,1.4752,-967.2493,25587.7823
56001.3056,27669.8023,53676.0539,41684.255,36455.825,38852.2446,5927.4137,50256.6844,44413.5368,55957.6303,5.0515,-966.5787,25587.0223
55985.1676,27661.9345,53675.9645,41672.8109,36433.6073,38845.7179,5925.4915,50237.149,44406.0713,55954.3669,-8.2254,-981.5097,25578.3498
55966.9286,27656.883,53679.4066,41661.8586,36415.9942,38840.6664,5924.9103,50214.3502,44400.6175,55951.7741,-23.4246,-991.8809,25575.8911
55973.2765,27664.125,53679.2278,41666.2395,36421.001,38842.3204,5928.7548,50228.9683,44407.4124,55953.9199,-19.6248,-982.0014,25582.1496
55989.5933,27668.4612,53683.6535,41668.4747,36444.8726,38848.9366,5931.8841,50264.3287,44425.4279,55963.3076,-6.3479,-964.8353,25588.7657
55998.8916,27673.1998,53690.1355,41674.2414,36456.9873,38855.4633,5934.1639,50283.4171,44428.6019,55964.5593,-4.3362,-960.9014,25589.7939
55990.845,27675.9714,53695.4552,41672.1404,36438.7482,38855.955,5939.573,50273.8506,44431.1947,55967.778,-8.2254,-966.9363,25590.9115
55980.9208,27677.2678,53701.3113,41662.3503,36422.0738,38856.4914,5942.7023,50259.5454,44423.5504,55965.811,-14.7969,-976.0112,25591.895
55997.5505,27683.9286,53706.2287,41674.9567,36435.8425,38864.3593,5945.161,50264.9993,44425.9644,55966.0792,-6.0797,-966.6681,25596.0524
56024.9984,27695.5962,53712.3084,41688.8595,36471.1136,38871.1542,5946.368,50286.0993,44442.5941,55975.2434,10.9524,-948.0268,25599.4052
56024.5514,27685.8062,53704.3512,41687.2948,36467.7608,38868.7402,5941.4953,50296.247,44442.0129,55971.9801,3.0398,-957.5933,25593.4149
56004.6136,27685.4485,53700.8643,41678.3541,36447.4654,38867.4438,5939.6625,50283.1489,44434.8603,55969.1191,-12.2488,-971.8537,25587.7376
55985.8382,27673.7362,53697.8245,41665.1666,36431.2828,38856.2679,5933.851,50262.1382,44425.1597,55963.9782,-28.9232,-984.9072,25579.2439
55985.7488,27664.6614,53692.013,41661.3668,36431.6404,38850.9035,5923.7033,50267.5474,44428.9595,55962.3688,-27.2244,-983.4319,25577.0534
56007.9217,27670.1599,53691.1637,41670.844,36448.9406,38854.301,5926.2514,50296.0682,44442.2811,55971.1754,-10.9076,-969.1715,25581.032
56007.3853,27665.2426,53687.6321,41671.4251,36446.8396,38850.7247,5923.2563,50299.9574,44449.4784,55975.8246,-12.3829,-974.7148,25579.7356
55984.1394,27656.0336,53682.1336,41661.9927,36427.2147,38843.2145,5917.1319,50285.7417,44445.2316,55969.2085,-24.8104,-987.5,25576.6511
55960.8936,27645.5283,53674.5787,41652.2026,36402.5384,38837.1795,5911.0522,50265.5357,44425.3385,55960.536,-36.7016,-997.4241,25573.343
55968.0015,27648.3893,53680.9713,41658.2823,36409.4675,38847.3719,5914.3156,50272.3753,44428.1995,55963.8888,-26.3751,-990.0033,25579.378
55993.8401,27655.9889,53687.945,41678.3094,36442.6374,38862.6158,5922.7198,50297.901,44445.2763,55970.1473,-3.3975,-966.9363,25591.0009
56002.0208,27657.5983,53692.8177,41685.909,36457.9707,38867.9355,5927.816,50306.1265,44451.2665,55982.8877,2.5481,-956.9228,25598.8687
55987.224,27650.8927,53692.4601,41685.909,36446.5714,38862.6605,5929.6936,50295.5765,44449.7019,55986.1511,-2.5034,-968.2328,25597.8405
55964.7828,27647.6741,53689.7331,41674.3308,36424.9349,38856.8938,5927.369,50274.9681,44434.3686,55970.6837,-17.7026,-982.1802,25593.0126
55973.4106,27651.161,53687.5874,41680.8575,36436.1554,38862.1241,5926.1173,50287.798,44442.3258,55972.9636,-9.4324,-975.6088,25594.7113
55992.946,27656.0336,53687.5427,41698.8283,36470.6218,38875.6245,5931.9735,50319.8951,44460.0284,55981.0102,6.2138,-957.5486,25600.7463
55992.9907,27655.3184,53687.7662,41693.5086,36469.1466,38876.8762,5933.1805,50323.6502,44465.3481,55977.4339,4.6045,-957.4145,25594.6666
55986.5534,27654.8266,53689.5096,41684.4338,36453.1428,38868.1591,5929.9618,50302.9972,44447.1985,55969.5661,-13.0981,-972.7031,25584.7424
55966.6157,27647.3612,53689.152,41672.7215,36428.6005,38859.2184,5922.2281,50278.1421,44429.5853,55959.9549,-29.8619,-988.8858,25574.9971
55976.1375,27652.7703,53687.7215,41679.3376,36433.7415,38862.6158,5922.9434,50290.9273,44434.5474,55959.329,-23.2011,-986.293,25578.2604
55994.8683,27659.3417,53688.8391,41687.2501,36453.9474,38867.1756,5925.1338,50318.3752,44444.3375,55967.3309,-7.8678,-972.1667,25582.2837
55998.7575,27665.8237,53692.0577,41684.3891,36464.5869,38862.2582,5926.3855,50324.7678,44449.7019,55974.1706,-6.7949,-967.4728,25585.2789
55988.6098,27670.8305,53696.3046,41680.9916,36457.6131,38860.6042,5929.2018,50315.2013,44450.4172,55971.3542,-17.9708,-975.2512,25587.2458
55969.4767,27666.0025,53699.6126,41675.1802,36439.0612,38860.5148,5930.3641,50301.3432,44439.1519,55969.1638,-29.3702,-986.5612,25583.759
55984.9888,27666.5837,53697.8692,41684.6126,36451.8017,38868.9637,5930.7665,50316.1401,44446.215,55972.5612,-24.9892,-978.7828,25587.0223
56008.1899,27675.0773,53696.081,41700.2141,36478.7579,38875.9822,5934.1192,50340.5482,44463.3365,55977.9257,-7.9125,-962.7342,25592.7891
56013.8673,27675.8373,53698.6738,41704.7292,36480.0096,38880.8101,5935.1474,50357.0437,44465.9293,55978.8644,2.5928,-954.8217,25594.8007
56001.4844,27667.1201,53698.7185,41695.8332,36456.3167,38874.8646,5930.5876,50335.0496,44448.5843,55978.1045,-4.6492,-961.5272,25595.8736
55980.5185,27663.2309,53693.1753,41683.2268,36435.3955,38866.9521,5921.2446,50312.1167,44440.94,55968.1803,-22.5306,-978.9616,25587.7376
55983.2454,27658.2688,53689.2861,41680.2317,36436.6472,38863.5099,5918.2495,50319.0458,44439.7777,55966.6604,-24.3187,-982.2249,25580.0039
55999.0704,27660.6381,53691.9236,41682.3328,36458.0601,38865.5663,5920.127,50339.0282,44460.8778,55967.6439,-17.6132,-973.0607,25582.5967
56009.3075,27653.8879,53691.8342,41682.9586,36464.5422,38867.1309,5916.9531,50346.6725,44461.6377,55970.0578,-15.0204,-975.4747,25582.5967
55998.6681,27652.4127,53685.8886,41677.4601,36447.1078,38858.3243,5912.3039,50320.8339,44444.8292,55967.1074,-29.0573,-992.5067,25576.07
55977.6574,27647.0482,53684.6817,41666.9101,36429.897,38850.9035,5910.5605,50303.3102,44433.3404,55963.4417,-43.7647,-1003.6826,25571.5102
55981.4125,27642.2203,53684.2346,41669.8605,36433.6967,38854.301,5907.6995,50314.3966,44443.4434,55960.8489,-39.0708,-998.944,25571.242
55984.0947,27633.6819,53677.6632,41677.773,36447.6442,38858.0114,5903.6762,50333.8426,44454.7534,55965.4534,-25.5704,-987.4105,25573.7454
55991.1579,27637.7052,53679.5408,41687.5184,36458.0601,38858.8607,5908.7276,50345.4655,44458.3297,55972.9636,-19.4013,-977.3523,25579.6015
55982.5301,27641.8626,53682.4465,41681.5728,36441.654,38858.5925,5911.2757,50336.1672,44448.2714,55971.2648,-30.9795,-983.2084,25580.7191
55966.9286,27637.5711,53679.5855,41671.8274,36426.0077,38858.3243,5910.6499,50312.4744,44441.5659,55970.5943,-39.5179,-987.8576,25584.1613
55983.2007,27646.4671,53678.1102,41680.3211,36442.6374,38863.0182,5915.612,50320.7892,44448.8078,55975.2882,-27.3138,-981.8673,25588.2293
56006.5806,27659.7887,53683.5641,41699.3648,36477.9085,38874.8646,5925.8491,50360.5306,44469.5055,55988.2075,-7.5549,-965.2823,25593.996
56008.7264,27656.6595,53684.1899,41699.9906,36478.5343,38877.0103,5926.4749,50366.6103,44468.7903,55985.4358,-8.9854,-963.4048,25596.3653
55993.706,27647.8082,53684.4581,41685.9537,36456.3167,38866.505,5920.3506,50348.3266,44457.4803,55979.7585,-20.7424,-976.8605,25588.8999
55976.2716,27647.6741,53687.7662,41674.2414,36432.7133,38862.7052,5917.5342,50330.9369,44453.5017,55977.9704,-31.0689,-987.9023,25583.759
55978.9538,27652.7256,53689.599,41677.1024,36438.3012,38865.7004,5919.2777,50349.7124,44457.3909,55974.1706,-25.3022,-981.3309,25583.446
55995.0918,27658.6711,53688.0791,41691.3182,36455.5568,38870.3048,5923.1222,50379.5743,44466.5104,55974.3047,-7.2867,-967.0705,25586.307
56007.7876,27657.9559,53684.1452,41695.565,36461.5917,38870.5283,5924.4633,50382.8377,44466.4657,55972.1589,-6.4373,-965.6399,25585.3236
55994.5107,27655.4525,53683.7429,41685.8196,36440.8046,38862.9287,5920.3506,50358.2954,44450.0148,55965.364,-23.4246,-981.2415,25577.5452
55987.9839,27653.3961,53688.7497,41685.6855,36427.2147,38861.1406,5918.7859,50341.2187,44444.4716,55961.4301,-31.203,-988.9305,25576.07
55999.2939,27658.2688,53694.1588,41692.1228,36442.548,38869.8131,5924.0609,50354.138,44450.8195,55964.7828,-23.4246,-981.8673,25579.825
56011.8556,27663.9909,53695.0976,41699.7224,36460.9212,38879.2902,5927.5925,50376.6686,44469.4161,55979.4009,-5.1856,-965.1035,25587.8717
56013.3755,27674.8091,53698.6738,41704.6845,36466.4644,38882.0171,5934.5216,50393.5218,44477.4628,55986.017,1.7434,-959.605,25591.5374
56000.6797,27676.1055,53700.3279,41694.5368,36456.9426,38874.7305,5935.9968,50378.9037,44468.2986,55980.2055,-19.1331,-973.6419,25583.9378
55987.3581,27669.5341,53698.4503,41685.2832,36438.7482,38872.7188,5932.5546,50361.9611,44462.8,55975.5117,-31.516,-985.7118,25582.9543
55993.2142,27666.2707,53698.495,41692.3016,36440.894,38869.366,5930.7665,50368.7114,44469.3714,55979.535,-22.2176,-980.3474,25584.4295
56009.7098,27669.3106,53698.6291,41699.3201,36461.9046,38870.9754,5927.2349,50397.0981,44481.2179,55985.4358,-12.3382,-971.4961,25585.9941
56011.6768,27670.8305,53696.3046,41698.4707,36465.4809,38873.7023,5925.0444,50401.7472,44468.9244,55977.9704,-11.2206,-969.3056,25584.6977
56002.9149,27663.1415,53692.9518,41691.184,36444.8279,38867.8014,5919.68,50377.2497,44456.0945,55966.3475,-27.8503,-982.7167,25575.6229
55987.3581,27657.5536,53691.7448,41679.6952,36418.5423,38862.4817,5915.5226,50357.4908,44454.664,55967.5545,-43.5412,-996.083,25573.9689
55993.259,27656.5254,53695.0082,41690.6029,36429.4946,38867.8461,5919.0542,50367.4597,44463.4259,55971.3989,-33.8405,-985.086,25582.0602
56004.703,27656.5254,53692.8177,41699.4989,36454.8415,38868.5167,5918.8753,50383.5976,44478.7592,55977.2104,-19.9825,-971.8984,25581.9708
56003.5855,27657.5536,53691.2531,41701.4658,36460.2953,38867.4885,5916.3272,50385.2963,44478.1333,55981.3231,-18.8202,-971.809,25579.6015
55988.0286,27649.2387,53689.0179,41694.9391,36446.2584,38866.4603,5917.4448,50374.3887,44474.1994,55982.1278,-27.1797,-978.8275,25580.4062
55973.5,27639.8063,53685.1287,41676.4766,36420.8668,38855.955,5915.5226,50354.5851,44467.7621,55977.568,-40.7696,-993.8031,25578.171
55981.8596,27643.7849,53685.531,41682.2433,36432.4898,38856.2232,5922.0046,50364.3751,44471.249,55980.2949,-33.2147,-990.0928,25580.9873
55996.2988,27651.9209,53685.3522,41692.2569,36461.1,38860.8724,5922.1387,50393.5218,44485.6882,55987.0005,-13.1428,-972.5243,25588.3187
56000.6797,27650.5798,53685.4416,41693.4192,36467.0455,38859.8889,5919.3224,50397.858,44487.7446,55985.4358,-12.5617,-969.6186,25589.5257
55987.671,27647.7188,53682.0889,41684.9703,36446.4372,38857.4302,5915.4332,50384.5811,44478.1333,55980.2055,-26.4645,-980.0345,25585.1895
55966.571,27643.6061,53683.9217,41679.2929,36422.1185,38856.4467,5914.1815,50364.3304,44468.7009,55978.1939,-35.2263,-988.3493,25582.0155
55975.3329,27648.3446,53685.4416,41680.2317,36436.9601,38859.8889,5916.819,50372.7347,44471.8748,55976.4057,-27.895,-978.9169,25584.8318
55997.7293,27658.6264,53688.705,41691.6758,36461.9493,38868.9637,5922.2281,50400.3167,44486.3588,55982.9772,-13.6346,-964.7012,25588.9893
56011.7215,27662.0239,53689.1967,41695.6991,36461.8152,38870.0813,5922.541,50406.9775,44490.4268,55984.6759,-9.1195,-962.6448,25588.6316
56001.1268,27653.0385,53685.3522,41685.1491,36443.8891,38861.3194,5915.3438,50388.5597,44477.5075,55974.707,-27.9844,-978.8722,25578.6628
55978.4174,27644.9025,53689.2861,41674.2861,36421.3586,38860.3359,5914.8967,50364.5539,44468.4774,55975.1987,-41.9766,-990.6739,25575.4441
55987.3134,27651.2951,53691.2084,41682.4669,36430.0758,38868.7402,5918.5177,50376.2662,44468.6115,55980.7867,-31.7842,-975.8323,25579.2439
56001.5291,27657.0171,53691.9236,41690.6029,36453.3663,38873.1658,5921.7811,50405.547,44481.799,55983.0219,-17.6579,-959.5156,25583.0884
56002.4232,27660.1017,53694.2035,41693.5533,36460.5188,38872.2271,5925.4467,50411.9396,44484.973,55986.1511,-15.6015,-960.5885,25585.2789
55983.6924,27661.7557,53694.9188,41688.9489,36446.4819,38865.2086,5926.6537,50391.9572,44479.9215,55981.0996,-25.3916,-971.0044,25585.2789
55972.8295,27655.4078,53695.8128,41684.255,36434.7249,38866.6391,5929.9618,50375.5063,44471.3384,55976.0481,-32.0077,-977.4417,25585.86
55982.5301,27657.1512,53695.0082,41695.118,36443.7997,38877.2339,5932.5546,50390.8843,44485.0177,55982.9324,-19.0437,-971.5408,25589.1234
56002.8255,27663.9909,53698.8974,41704.0586,36471.0242,38881.2572,5934.6557,50422.0873,44508.3529,55995.2706,-7.4655,-958.4874,25591.6715
56006.5806,27670.0705,53699.7914,41703.4775,36476.3886,38880.8101,5935.7285,50444.2155,44513.2256,55997.1482,-10.103,-957.8168,25592.4761
55987.4922,27663.5885,53696.394,41699.3201,36456.9426,38876.9656,5931.5264,50426.8259,44492.3937,55989.3698,-20.2954,-968.4116,25589.9727
55972.0695,27653.4855,53694.6505,41694.0451,36435.4402,38872.8529,5926.8326,50403.7589,44478.9827,55984.5865,-38.0874,-981.4203,25581.7026
55973.1424,27652.9491,53694.3823,41687.2948,36440.8493,38871.2883,5923.8821,50410.6879,44492.4384,55985.3464,-34.824,-978.291,25579.8697
55992.4096,27651.608,53693.0859,41691.497,36455.1544,38870.5283,5925.3126,50431.028,44504.866,55990.1744,-19.2225,-968.0092,25582.0602
55996.7458,27642.3544,53687.945,41689.0383,36450.2817,38864.3593,5921.9152,50426.1553,44500.7086,55990.3979,-16.0486,-968.7245,25579.6909
55969.2532,27627.334,53681.5077,41678.4436,36429.2264,38851.6635,5912.1251,50392.8512,44476.4346,55980.0714,-36.6122,-986.9635,25571.4208
55947.9296,27613.4759,53673.6399,41668.9664,36409.1098,38838.7442,5900.5916,50360.7988,44448.4949,55967.3309,-55.7899,-1005.8731,25561.8095
55954.1881,27616.1581,53669.6166,41674.8673,36418.4529,38841.6052,5903.1397,50377.4285,44458.4191,55969.7002,-45.8211,-999.3911,25565.5199
55977.4339,27629.6139,53673.327,41686.3561,36446.3031,38851.2164,5909.1747,50404.7424,44479.4744,55982.396,-28.789,-985.6224,25570.5267
55983.3795,27639.2698,53674.534,41691.3629,36448.7171,38857.7431,5911.991,50411.0903,44482.4696,55983.2007,-24.9892,-980.3027,25572.7619
55970.3708,27641.952,53675.0257,41688.2783,36431.1039,38858.6372,5909.0853,50410.6432,44469.0138,55977.3892,-33.3935,-987.7235,25569.3644
55959.6419,27639.4486,53674.2657,41672.1404,36410.9427,38855.2845,5906.1348,50395.4887,44457.972,55970.9519,-46.5363,-1000.1957,25564.2235
55972.8295,27644.9919,53675.5174,41676.1637,36424.1749,38861.6771,5909.9346,50404.653,44467.4492,55975.3776,-37.8639,-992.2385,25571.3761
56009.3969,27655.7207,53679.8537,41695.7438,36450.8182,38878.0385,5913.3768,50438.6276,44486.9399,55985.57,-17.8367,-969.0374,25581.792
56018.7846,27667.0307,53684.3687,41698.7836,36452.5169,38882.3301,5916.9531,50452.6198,44494.6736,55990.2638,-10.7735,-960.3202,25587.9164
55999.8751,27666.8966,53684.4581,41687.6972,36428.6005,38877.9491,5915.2097,50433.7549,44481.352,55979.0879,-21.1895,-975.5641,25585.86
55986.3746,27659.1182,53686.6039,41678.8012,36412.8202,38870.6625,5915.7461,50412.9678,44465.8399,55974.0812,-34.0194,-985.8459,25584.8765
55990.3085,27662.2027,53689.152,41679.6058,36420.241,38873.9705,5913.958,50412.7443,44464.9011,55979.0879,-29.3255,-980.1239,25583.6248
56012.9732,27674.6303,53697.0645,41696.5038,36441.2963,38886.4428,5921.334,50432.4138,44480.4132,55990.1297,-8.8066,-961.8402,25589.928
56013.4649,27674.8538,53697.5116,41700.2141,36451.5781,38879.6926,5924.8656,50430.9386,44474.6464,55989.3698,-4.9621,-962.1978,25590.1068
55991.3367,27662.0686,53690.359,41681.2152,36429.0476,38865.7898,5916.1931,50408.0057,44454.9769,55981.189,-22.8882,-980.3921,25582.1943
55966.2133,27650.4457,53687.498,41663.8255,36404.0583,38853.1387,5913.1533,50372.377,44439.1519,55969.1638,-40.6802,-995.9489,25573.9242
55961.8771,27644.4107,53686.6039,41661.5009,36413.2673,38853.4963,5912.2145,50368.8008,44430.6135,55964.4699,-36.031,-995.1442,25574.6394
55974.7517,27652.0103,53689.9567,41673.6156,36441.9669,38856.4467,5916.5508,50398.9756,44442.147,55978.775,-14.3945,-978.1122,25583.759
55967.7333,27652.5915,53687.5874,41677.5048,36445.1408,38849.92,5917.2213,50395.6228,44437.8555,55974.9752,-16.0486,-976.637,25580.4956
55945.918,27642.1756,53683.6982,41666.5077,36427.93,38838.6995,5914.6732,50358.8319,44417.3366,55965.9004,-28.9679,-993.1326,25571.4208
55924.4603,27637.5264,53680.4348,41654.6613,36408.3052,38829.4905,5912.751,50325.4384,44395.7001,55956.2892,-43.0048,-1004.4873,25565.6987
55927.7683,27641.6838,53679.3172,41658.8187,36417.827,38835.2126,5914.5391,50326.7795,44392.8838,55956.7362,-38.3109,-996.843,25567.5316
55944.4427,27651.0268,53682.3571,41674.1967,36440.0893,38841.1134,5922.2281,50341.5763,44407.1442,55966.7945,-22.3517,-985.4436,25574.3712
55948.2425,27657.2853,53682.9382,41679.8294,36450.9523,38837.9842,5926.3855,50342.4257,44409.6923,55963.9782,-19.1331,-982.6273,25575.3547
55931.3893,27657.643,53674.8916,41663.0656,36430.5675,38825.0202,5921.0658,50310.9545,44391.5427,55951.4165,-37.8639,-995.189,25565.654
55909.7081,27659.6546,53673.4164,41655.1083,36403.1196,38821.3098,5922.4516,50280.9137,44372.5884,55945.0686,-43.8541,-1001.8498,25562.1672
55912.0774,27669.847,53680.256,41664.8984,36415.413,38829.4905,5930.3194,50295.04,44379.428,55952.087,-31.3818,-988.9305,25566.9504
55939.883,27681.8722,53689.0179,41685.6855,36442.7716,38843.2592,5942.0317,50309.8369,44397.6671,55960.4466,-10.9076,-974.1336,25574.3712
55936.8879,27680.7547,53687.2298,41681.841,36441.7434,38842.0075,5937.8743,50309.0769,44395.8789,55962.0112,-13.411,-973.8207,25571.689
55916.5031,27674.9432,53686.0675,41666.3736,36412.5967,38832.7539,5932.3311,50288.7368,44384.4795,55955.5292,-29.3255,-990.4504,25566.1905
55898.8899,27678.1172,53690.9401,41668.5194,36398.828,38835.0338,5936.1309,50258.1149,44369.5933,55946.6779,-38.2662,-998.7652,25568.068
55911.1834,27676.5078,53691.3872,41676.119,36409.6016,38838.8336,5938.0531,50264.6863,44375.1812,55947.2591,-30.8007,-990.0033,25573.7007
55930.4953,27679.4136,53691.5213,41688.5018,36427.8853,38844.4662,5938.0978,50286.4569,44388.9499,55955.7974,-17.7026,-976.9946,25580.4956
55927.7683,27681.0676,53690.6272,41682.8245,36420.7327,38842.0969,5936.5332,50294.2353,44388.7264,55957.4962,-12.9193,-977.7993,25579.9145
55909.127,27675.9267,53683.3853,41672.051,36396.5034,38830.5634,5930.7218,50267.9944,44373.1248,55947.2591,-30.5325,-991.1209,25572.5831
55890.6645,27668.3271,53679.8537,41664.049,36376.074,38828.7306,5928.4419,50243.4075,44351.846,55935.4126,-45.7317,-999.7487,25567.7551
55896.2077,27666.4943,53676.635,41662.2162,36376.968,38825.8696,5924.7315,50233.3045,44353.3659,55931.8364,-41.7531,-997.9606,25566.2799
55920.0794,27677.983,53677.6185,41675.0014,36397.4869,38828.06,5923.6139,50246.9391,44369.2803,55941.1347,-19.8931,-984.2366,25569.9903
55921.8675,27680.3076,53678.0655,41684.4785,36396.2799,38831.3681,5923.8374,50251.8564,44369.4144,55942.7887,-15.1545,-980.0345,25570.3032
55919.1406,27671.8587,53676.948,41681.4834,36381.1255,38827.7918,5921.2893,50232.1869,44354.0365,55931.4787,-26.8221,-988.2152,25566.9504
55901.8403,27661.6663,53675.2939,41671.1569,36357.4326,38816.8842,5915.7014,50206.1695,44341.743,55924.2368,-41.6189,-1002.565,25563.2401
55917.4865,27665.4661,53676.3221,41681.2599,36365.658,38823.4556,5918.7859,50212.6515,44354.4835,55929.4224,-31.6948,-993.3561,25566.5034
55941.9394,27670.5176,53682.3124,41691.3629,36395.6094,38831.4128,5922.094,50235.7185,44370.3979,55942.4311,-13.5452,-973.776,25574.1924
55943.7275,27674.6303,53682.9829,41687.4737,36398.5598,38824.1261,5920.2611,50240.5465,44369.1462,55943.504,-16.3615,-976.4135,25573.9242
55927.3213,27671.4116,53679.049,41673.8391,36378.3091,38813.3973,5914.6732,50220.4746,44359.8926,55940.7771,-30.3537,-992.2832,25567.8445
55909.7081,27668.7294,53677.9761,41661.5456,36351.7106,38809.374,5913.6003,50195.1277,44350.0578,55934.2057,-44.0776,-1004.9343,25562.2566
55915.6537,27669.9364,53678.4232,41662.1715,36361.4559,38810.1786,5916.3719,50197.1841,44355.4223,55935.815,-39.6073,-999.4358,25566.2799
55937.8266,27670.294,53676.188,41671.0228,36386.7581,38812.7714,5916.6402,50213.2326,44369.8168,55942.7887,-18.5072,-983.7449,25570.7502
55941.3135,27666.7625,53676.3668,41671.1569,36387.6522,38815.6772,5914.5838,50219.0441,44368.878,55951.3718,-16.6297,-983.3425,25572.4937
55935.7256,27659.744,53678.5126,41662.9314,36370.1284,38814.1572,5914.6732,50208.5835,44359.3115,55945.6497,-34.4664,-996.843,25566.0564
55920.5711,27650.7586,53676.0986,41655.153,36344.4686,38806.1553,5909.577,50181.0461,44344.4252,55936.262,-48.3245,-1005.0684,25561.8095
55939.2571,27653.262,53679.0937,41665.4795,36361.5006,38813.2632,5912.7063,50187.2152,44355.4223,55939.1677,-34.7793,-993.8478,25565.4305
55963.71,27665.2426,53678.3785,41673.6603,36389.8873,38815.9901,5917.4448,50213.0985,44368.4757,55944.6663,-17.7473,-979.6321,25569.9903
55968.4485,27668.2824,53681.2842,41675.8955,36401.1526,38817.957,5921.5575,50225.5261,44373.4825,55950.433,-13.2769,-975.2959,25571.6443
55952.8023,27662.7392,53681.016,41665.5689,36381.3043,38813.1738,5921.4234,50214.1714,44372.4543,55945.2027,-25.2128,-985.2648,25568.2021
55930.9423,27655.8548,53675.8751,41657.2988,36356.0021,38812.1903,5917.4895,50194.2337,44356.4057,55936.0385,-38.9814,-996.3065,25565.6093
55938.8548,27660.0122,53673.1482,41657.9694,36366.418,38822.4274,5918.5624,50211.221,44361.4125,55940.5535,-30.4431,-986.6059,25568.7833
55960.983,27664.4826,53675.3386,41676.0743,36396.4587,38830.3846,5921.6022,50233.5727,44374.3765,55949.5836,-16.8532,-975.6982,25572.0913
55967.2415,27657.643,53673.5952,41679.6952,36403.7454,38823.8579,5923.8374,50238.8477,44379.428,55953.8305,-13.1428,-975.2512,25572.2255
55950.2095,27648.2552,53673.5952,41668.0723,36385.1935,38812.5926,5923.8821,50218.8206,44365.4805,55948.1531,-27.4479,-985.1754,25569.0962
55928.1707,27639.8957,53671.36,41656.36,36360.6513,38806.5577,5918.6518,50192.3561,44351.4436,55943.4146,-43.1836,-999.9722,25564.7153
55932.8645,27639.3145,53670.6448,41659.7575,36364.5852,38806.3341,5919.9929,50192.5349,44358.3727,55938.0502,-36.0757,-995.0101,25565.3858
55954.9481,27643.2484,53670.1083,41669.2346,36387.3392,38817.6441,5919.5906,50214.2608,44370.3979,55942.4311,-17.1661,-980.0792,25567.3528
55955.0375,27651.1163,53667.8731,41668.2512,36392.7931,38815.9454,5913.2427,50211.3551,44371.739,55945.605,-18.5072,-982.4038,25565.4752
55946.0521,27654.8266,53671.2706,41672.6768,36384.7464,38817.8676,5914.7179,50212.115,44365.3464,55952.087,-30.2643,-990.0481,25570.0797
55934.1609,27649.641,53672.0306,41669.2346,36363.7805,38820.9969,5918.1601,50208.8517,44361.3231,55948.4661,-40.8143,-1000.7769,25566.8163
55938.8548,27661.2192,53672.2094,41672.5874,36374.9117,38827.3895,5923.3457,50222.6651,44372.5437,55953.294,-30.3984,-993.9373,25572.136
55957.4515,27673.9597,53673.5058,41684.1209,36404.0136,38838.2077,5928.2631,50256.3715,44394.0461,55963.5311,-10.7735,-974.8936,25579.2439
55972.6954,27680.8441,53676.7691,41688.3677,36416.4412,38842.6781,5927.8607,50263.3005,44397.5329,55965.5875,-11.8017,-970.155,25579.0651
55961.1171,27674.7644,53679.6749,41679.3823,36401.7785,38834.5867,5927.5031,50250.2024,44381.3503,55958.3455,-24.3634,-982.3591,25575.2653
55950.1648,27667.9248,53678.5573,41672.6321,36379.2032,38837.2242,5925.715,50225.6155,44373.3484,55952.1317,-33.2594,-990.808,25571.0632
55963.5311,27671.9481,53676.188,41682.2881,36397.5316,38846.5226,5926.922,50244.1674,44378.7128,55952.8023,-25.5704,-984.773,25572.8066
55988.5651,27682.8557,53676.9032,41692.9722,36425.7842,38852.1999,5927.1008,50273.4035,44397.8906,55959.8207,-11.3547,-969.7527,25578.0369
56000.7691,27683.4816,53676.188,41696.4144,36435.7084,38861.23,5928.129,50279.8855,44407.5912,55958.0773,-6.6608,-966.4446,25579.7356
55977.881,27672.1269,53675.8751,41682.4222,36410.6745,38859.3525,5923.6139,50265.7592,44389.3075,55948.6896,-26.1068,-983.4319,25574.5947
55959.6866,27670.7411,53673.9528,41672.0062,36390.4238,38851.0823,5919.9035,50247.7884,44377.014,55943.9063,-41.7978,-997.29,25571.1526
55966.8839,27674.0938,53677.3503,41682.6457,36399.1857,38853.9881,5924.8656,50263.7029,44388.9052,55947.0356,-32.8124,-986.9188,25573.2089
55984.3183,27681.0229,53677.6632,41693.0616,36427.2594,38855.7315,5924.4633,50292.0896,44403.1656,55950.0307,-21.4577,-975.6982,25574.7288
55978.9985,27673.2892,53672.8352,41685.5961,36427.93,38846.612,5915.0755,50289.0497,44400.5728,55949.7178,-24.4528,-978.5146,25572.3149
55966.0345,27664.7061,53676.0539,41674.4202,36410.1827,38836.4196,5914.9414,50275.0129,44392.1685,55951.193,-31.1583,-987.7682,25569.275
55954.9928,27661.5769,53678.8255,41667.3571,36396.3693,38832.5751,5918.6518,50251.0071,44372.0073,55938.8995,-44.7482,-998.0053,25562.1672
55967.5545,27667.2542,53681.3289,41672.8556,36405.8912,38835.6149,5919.9482,50259.0537,44388.0111,55944.7557,-33.617,-985.98,25567.2187
55981.9937,27676.7761,53684.7711,41682.4669,36423.862,38838.163,5921.3787,50283.9983,44408.1724,55955.7527,-15.6909,-973.016,25572.0019
55985.7041,27680.5311,53685.5757,41684.5232,36427.5724,38837.5372,5923.3904,50291.5531,44414.8779,55960.5807,-12.6064,-971.9431,25572.449
55971.9801,27676.0608,53687.1403,41678.8906,36412.0603,38830.6528,5924.6868,50272.5542,44403.4338,55959.4184,-25.7939,-983.7449,25571.5996
55957.0491,27665.332,53686.0228,41672.5427,36397.8893,38825.1543,5925.5809,50252.3482,44387.9217,55958.4349,-36.8357,-992.5961,25571.689
55969.4767,27670.0258,53684.7711,41670.7546,36412.6414,38829.1776,5927.4137,50266.4298,44400.4834,55959.6419,-30.4431,-988.7964,25575.8464
55991.9626,27674.4962,53689.6437,41680.5893,36444.515,38837.0007,5934.5216,50293.5648,44416.3978,55969.0297,-14.171,-972.3455,25580.9426
55992.1861,27674.1832,53691.0743,41679.2482,36451.8017,38834.2738,5933.8957,50300.7621,44422.7457,55974.3494,-11.5782,-967.5622,25584.5636
55971.8907,27663.812,53688.392,41663.7808,36435.0826,38829.0435,5930.0512,50282.3889,44408.6194,55971.1754,-27.895,-980.7497,25579.2439
55954.814,27660.8616,53688.2579,41653.3649,36413.4014,38822.9638,5924.3739,50251.5882,44386.5359,55964.0229,-43.5412,-995.1442,25573.7901
55963.3076,27663.9014,53681.1948,41652.6496,36416.9776,38826.7189,5919.0542,50250.0236,44394.359,55961.3407,-36.791,-992.7303,25570.5267
55981.9937,27673.021,53672.8352,41661.2774,36438.8824,38832.0386,5920.887,50268.7544,44411.2569,55963.2182,-22.7988,-978.9169,25572.0913
55980.2949,27667.2542,53673.327,41665.4795,36441.4304,38832.5304,5921.0658,50279.3938,44415.1014,55963.3523,-18.1049,-978.0675,25574.9524
55962.4583,27657.5536,53673.8187,41659.3105,36422.5656,38826.2719,5919.9929,50270.0955,44405.8031,55961.8771,-27.582,-991.8809,25571.3314
55945.5603,27651.1163,53675.5174,41648.9393,36404.863,38821.8462,5918.8306,50250.6047,44398.9635,55958.3008,-39.8308,-999.3017,25569.7668
55952.5341,27650.0434,53672.0753,41657.1647,36418.0058,38825.8249,5922.6751,50257.8467,44399.9022,55958.3455,-34.5558,-991.1209,25570.0797
55971.4437,27656.0783,53674.3551,41675.9849,36439.24,38832.441,5929.1571,50289.3627,44417.3813,55969.7002,-16.138,-975.2065,25577.8581
55973.2765,27663.3203,53676.3668,41684.3444,36444.2021,38836.7325,5929.0677,50290.7038,44426.9925,55971.1307,-12.6064,-974.4018,25580.2274
55959.0608,27654.6478,53678.0208,41673.9732,36420.6433,38832.5304,5926.922,50269.2461,44404.3726,55962.0112,-29.3702,-987.0082,25574.55
55942.9675,27648.6129,53680.6136,41667.67,36399.3198,38828.373,5928.3525,50262.4065,44400.0363,55956.3339,-33.7958,-992.1938,25570.5267
55951.5059,27649.9093,53681.3736,41672.0957,36412.3732,38835.7937,5927.5031,50274.2976,44405.4455,55957.2279,-24.4528,-987.5,25574.103
55967.9121,27656.0336,53677.9761,41682.3328,36435.5296,38842.4546,5927.8607,50289.0497,44419.7506,55962.5477,-9.0748,-976.2794,25580.0486
55978.6856,27669.0871,53682.8935,41688.6806,36447.7336,38845.7179,5933.6275,50293.9224,44427.0372,55967.2415,-3.1739,-969.395,25586.8882
55966.6157,27670.4282,53685.6204,41677.9965,36432.2215,38846.2991,5934.5216,50282.2101,44416.666,55964.1123,-18.3731,-981.912,25581.5238
55952.5341,27663.6779,53688.1685,41672.498,36410.0486,38840.2194,5935.9074,50272.0624,44407.5912,55959.329,-28.8337,-992.6856,25578.7075
55960.9383,27661.9345,53688.4815,41684.6126,36427.5724,38847.5955,5938.9025,50284.6241,44410.944,55961.8771,-23.067,-984.6389,25579.4227
55979.0879,27670.2493,53688.705,41695.0732,36456.719,38861.4088,5942.3894,50308.764,44428.6913,55973.5,-6.6161,-964.433,25585.413
55984.7653,27674.675,53690.2249,41698.2472,36463.5587,38868.2038,5944.4457,50324.4102,44430.5241,55974.4835,3.621,-960.7673,25590.688
55962.2347,27672.7527,53688.3473,41690.4241,36438.4353,38856.0891,5941.8976,50301.2538,44418.8118,55966.258,-8.3148,-976.5029,25585.3236
55943.6828,27665.779,53683.5641,41681.1258,36417.6929,38846.0755,5938.6343,50274.4764,44405.7584,55959.9996,-24.274,-988.5281,25578.0369
55959.5525,27666.0472,53680.3007,41683.2268,36428.0194,38848.5789,5938.4108,50284.3112,44408.2171,55963.8441,-20.5189,-984.5942,25577.8134
55975.8693,27674.2727,53681.9994,41690.29,36454.8415,38850.9035,5937.4273,50306.7523,44429.8089,55970.192,-7.1973,-970.602,25586.3965
55975.8246,27673.2445,53684.1899,41686.2667,36452.8298,38852.7364,5930.4982,50311.2227,44434.7709,55967.018,-6.2585,-973.0607,25586.8882
55967.1968,27668.9082,53685.9334,41677.7283,36437.0495,38853.4516,5929.9618,50292.6707,44420.9129,55961.8324,-18.1943,-980.5262,25582.5073
55950.1648,27666.3154,53684.5922,41670.0393,36417.38,38847.1484,5928.8889,50268.7544,44410.7205,55959.2396,-30.6666,-991.4786,25577.1428
55955.9762,27667.2095,53685.2628,41670.4863,36422.2527,38846.2991,5926.5643,50273.8506,44415.1014,55960.8042,-27.3138,-989.4669,25576.2488
55988.2969,27682.4534,53691.0295,41689.53,36451.3993,38853.094,5933.9851,50304.0254,44435.9779,55973.1871,-5.1856,-967.9198,25583.4013
55991.1132,27693.7187,53693.1753,41691.944,36453.7686,38855.7762,5938.9472,50315.4695,44444.3822,55976.1375,0.3576,-961.3484,25588.1399
55966.1239,27678.8324,53687.3639,41675.359,36425.2925,38847.059,5931.1688,50298.0351,44431.1053,55966.9286,-18.239,-977.5311,25580.0933
55957.1385,27667.5224,53686.3357,41667.5806,36411.1215,38840.8899,5929.7383,50278.8126,44416.0402,55959.9102,-32.4994,-989.9586,25577.5899
55966.6604,27664.2144,53683.43,41665.8372,36424.8902,38839.0571,5927.6372,50286.6358,44419.5271,55965.0064,-26.5986,-985.3095,25580.7191
55978.775,27666.4495,53678.5573,41671.2463,36437.0942,38837.5372,5924.8209,50308.0934,44431.7311,55969.1638,-11.9805,-975.9218,25580.5403
55985.9276,27668.5059,53676.2774,41681.8857,36444.5597,38840.3535,5926.3855,50314.6648,44433.8769,55970.639,-5.3197,-973.8654,25578.3051
55973.5,27663.2309,53676.8138,41678.8012,36439.9105,38836.2408,5924.4633,50301.1197,44418.8565,55963.6652,-23.514,-983.6555,25570.0797
55957.2726,27655.1396,53675.8751,41669.8605,36424.309,38830.7869,5923.7927,50276.354,44407.3677,55956.1551,-38.0874,-995.8148,25567.621
55971.4437,27662.918,53678.8255,41679.3376,36435.4402,38836.2855,5929.8724,50289.2286,44420.3317,55964.4252,-27.0009,-986.0247,25573.7007
55992.499,27673.1551,53686.1122,41688.8595,36460.8765,38848.5789,5935.7733,50321.9515,44440.1354,55974.0365,-7.1079,-970.7808,25578.7075
55997.774,27676.7761,53686.0675,41688.2783,36465.9727,38847.4613,5933.851,50325.7066,44441.7,55976.7187,-7.9125,-968.9927,25577.5899
55980.6526,27676.7313,53686.4698,41681.0364,36454.9756,38844.1533,5935.1474,50308.9428,44438.7048,55970.8625,-19.446,-975.9218,25577.4111
55963.8888,27673.1551,53690.3143,41674.0626,36433.5626,38843.438,5935.6838,50298.3034,44429.5406,55968.0909,-27.0456,-984.8177,25577.3664
55969.1638,27674.7197,53690.5378,41677.1919,36441.8775,38844.3768,5936.5332,50310.1945,44442.3258,55970.0131,-21.5918,-975.6982,25580.7638
55986.6428,27678.0277,53688.4815,41690.4241,36467.2244,38849.1601,5941.4953,50338.0895,44459.3132,55979.6244,-7.5549,-964.9694,25584.2954
55987.9392,27673.8256,53685.9781,41693.3298,36475.3157,38852.7811,5941.987,50342.2022,44463.7835,55984.2736,-3.1739,-962.2425,25587.8717
55962.7712,27660.8616,53682.4465,41675.0908,36444.5597,38842.991,5932.8675,50320.968,44446.3938,55976.4951,-22.4411,-976.4135,25580.585
55951.4165,27655.6313,53676.2774,41667.0442,36418.8999,38836.4643,5925.5809,50303.0419,44430.5241,55968.0462,-36.7016,-988.4834,25571.9125
55963.0841,27658.85,53672.2094,41672.051,36429.0923,38840.6664,5921.9152,50314.0837,44434.8156,55970.9519,-33.0359,-986.293,25571.4655
55984.81,27665.7343,53673.1035,41683.4503,36461.4576,38844.6897,5926.4749,50343.3645,44452.1606,55975.4223,-14.931,-975.5194,25573.2983
55993.3484,27666.7178,53676.5456,41688.5018,36471.6053,38853.541,5930.3194,50351.9028,44457.3462,55981.0996,-11.1312,-972.6137,25578.171
55978.7303,27671.9481,53674.7575,41679.0694,36447.3313,38852.5575,5930.1853,50330.7134,44439.7777,55973.3212,-25.8833,-985.2201,25574.3712
55960.6254,27671.054,53676.2774,41672.498,36432.2662,38846.2543,5929.5148,50311.7144,44429.8536,55967.6886,-38.892,-994.876,25570.2138
55967.8227,27670.8752,53678.9596,41673.8391,36442.9057,38847.7296,5931.6158,50320.8339,44436.0226,55967.5097,-32.6335,-990.8527,25570.1244
55985.2123,27671.8587,53678.2444,41688.5912,36462.2176,38856.5361,5935.6391,50354.1827,44447.2432,55972.8742,-14.8416,-977.7546,25575.0418
55992.1861,27666.9413,53678.2891,41700.3483,36471.5159,38858.7713,5936.1756,50362.7211,44444.561,55976.9869,-8.3148,-973.016,25574.5053
55977.881,27666.9413,53677.8867,41692.4357,36457.7919,38853.0493,5934.1192,50339.7435,44445.2316,55974.2153,-25.6151,-981.6885,25570.6161
55959.9996,27658.5817,53675.4727,41680.8575,36439.0612,38845.4944,5929.7383,50311.0439,44428.9148,55970.1473,-40.5461,-993.8478,25565.967
55965.1405,27657.0171,53673.4164,41678.3094,36447.5101,38845.852,5926.1173,50319.9846,44427.8866,55970.2814,-36.5227,-992.0597,25566.2352
55984.0053,27659.5205,53670.6001,41684.702,36467.582,38851.3952,5927.9948,50349.2653,44444.4269,55975.6011,-19.1778,-978.0675,25569.9903
55990.2638,27659.5652,53670.2424,41689.083,36469.1913,38851.3952,5926.7431,50359.5024,44447.8691,55979.2221,-12.6511,-974.9383,25573.0301
55969.9237,27649.2834,53668.3649,41675.5378,36443.4421,38841.8734,5920.3953,50343.6327,44435.5309,55976.8528,-33.0806,-987.4552,25569.8562
55949.4942,27636.4982,53665.5039,41659.0869,36416.3071,38831.234,5915.8802,50321.2363,44420.3317,55966.0345,-55.2982,-1008.6447,25557.7862
55955.3057,27630.5974,53665.9062,41671.2016,36430.4781,38834.855,5918.4283,50329.3276,44428.6019,55968.7614,-42.96,-1002.9674,25558.3674
55973.4553,27635.8724,53669.706,41687.5184,36460.34,38845.8073,5920.8423,50352.931,44443.801,55976.0481,-23.2905,-985.4436,25564.2235
55990.1297,27644.4554,53673.6846,41693.0616,36461.6811,38852.7364,5924.1951,50362.6317,44452.6076,55984.0053,-16.4062,-979.9004,25571.0185
55978.9538,27643.2484,53673.8187,41686.8925,36447.1972,38854.3457,5923.2116,50346.3149,44451.8924,55982.7983,-22.1729,-983.9684,25574.5947
55961.2066,27639.4486,53676.6797,41675.4484,36431.1934,38853.094,5923.1222,50321.5045,44446.0809,55977.6574,-35.8075,-990.2269,25573.4324
55974.7517,27647.4506,53682.9829,41677.1919,36438.3906,38856.6256,5927.6372,50329.9534,44449.389,55977.7468,-32.4547,-983.7449,25575.1759
55999.6068,27654.8266,53681.5524,41690.9605,36465.2127,38864.3593,5931.2135,50366.3421,44462.2189,55980.1161,-12.3382,-974.3124,25579.1545
56008.8605,27666.1366,53683.43,41697.9343,36476.925,38869.9472,5933.7616,50390.8396,44473.0818,55980.8314,-10.9971,-971.7643,25585.7706
55993.1695,27662.2027,53683.3405,41691.0499,36463.6481,38869.8578,5933.5381,50374.1205,44465.4822,55982.8877,-22.9776,-978.3804,25582.4178
55970.7284,27650.5351,53674.7575,41678.22,36442.6374,38859.129,5927.2796,50344.035,44449.9701,55973.053,-33.9299,-990.1375,25572.9407
55970.7284,27649.8199,53671.0471,41684.255,36445.7667,38858.6372,5924.5974,50339.2071,44456.4521,55973.8129,-28.4314,-985.3095,25574.1924
55987.671,27656.3913,53669.259,41696.5485,36467.1797,38860.1124,5924.1503,50361.6482,44476.077,55971.1754,-18.9096,-975.7876,25575.757
55991.3814,27659.5205,53667.1579,41696.772,36471.4712,38857.8773,5922.1387,50370.9018,44477.2393,55972.5165,-21.5024,-979.498,25573.9242
55977.6574,27648.1658,53665.0121,41680.4999,36448.0913,38850.5906,5918.2048,50354.8086,44469.8185,55967.6439,-35.7181,-989.9586,25569.6326
55960.6254,27640.9239,53666.2191,41669.0558,36426.6783,38845.852,5914.1815,50337.8212,44457.8826,55964.6487,-52.7054,-1001.0004,25562.9271
55972.9636,27643.6508,53668.4096,41683.048,36445.9902,38850.7247,5916.1931,50352.931,44463.8729,55970.9072,-43.4071,-995.0548,25564.0447
55984.4524,27647.4059,53665.1015,41685.6855,36465.2574,38854.4798,5915.7461,50375.3275,44474.11,55972.293,-30.1301,-986.4718,25563.4189
55987.8498,27650.5798,53663.8945,41687.2501,36462.8881,38854.7033,5912.751,50381.1389,44474.7359,55975.8693,-26.8668,-986.2036,25564.5365
55974.5729,27647.9423,53666.8003,41679.8294,36445.0067,38855.195,5916.4613,50365.0904,44464.4988,55974.9752,-34.6899,-990.2269,25565.7434
55964.2017,27642.7567,53666.3532,41671.1569,36425.7842,38852.4681,5915.7908,50352.2158,44448.2714,55966.571,-49.4421,-1000.0616,25562.793
55979.3115,27646.7353,53665.8615,41680.3211,36443.0845,38855.1056,5917.6683,50362.8552,44460.9225,55968.5379,-40.4119,-991.7468,25566.1458
55993.7507,27656.2124,53663.5816,41692.0781,36463.8269,38863.0182,5925.3573,50389.4538,44478.5804,55976.7187,-19.8931,-974.7595,25570.5267
55994.5107,27660.4146,53666.3532,41693.4192,36472.6335,38870.7072,5923.9715,50388.4703,44477.4181,55975.8693,-16.585,-976.1453,25570.3032
55981.4125,27650.1775,53670.0636,41686.8031,36454.0815,38864.6275,5919.233,50371.8853,44468.388,55979.4456,-26.9562,-988.9305,25570.2138
55961.3854,27639.538,53665.9956,41675.6719,36426.7677,38857.4302,5913.198,50359.3236,44450.6407,55969.6108,-42.8706,-1002.0286,25562.5695
55979.6691,27644.2319,53668.4543,41690.29,36440.2682,38862.1241,5915.7461,50371.2147,44459.9837,55969.5661,-33.5723,-994.9207,25566.1011
55996.7905,27658.6264,53669.4825,41698.7389,36471.0689,38862.0794,5916.6849,50394.5947,44477.7757,55976.2269,-18.8649,-988.7069,25569.7668
55991.5602,27663.9014,53670.5106,41695.9226,36475.3157,38862.9287,5919.0094,50396.6957,44472.7242,55977.5233,-22.4411,-986.3824,25567.0846
55978.8197,27651.0715,53675.2939,41682.601,36449.9241,38857.162,5917.266,50380.7813,44457.7485,55973.0083,-36.6569,-996.2618,25559.8426
55971.1307,27643.1143,53675.6963,41675.1802,36428.69,38850.9482,5913.645,50364.9116,44452.7417,55968.0462,-47.6539,-1005.4708,25557.2945
55981.9937,27650.1775,53680.0772,41685.1044,36444.3809,38859.7548,5922.6304,50375.7745,44463.8282,55970.0578,-35.271,-992.5067,25567.7551
55997.1035,27655.0502,53683.877,41695.4309,36466.822,38867.3991,5930.7665,50399.4226,44483.3636,55982.0384,-16.6744,-969.395,25575.2653
56000.2327,27665.6896,53684.6817,41700.9741,36476.7462,38870.0366,5936.3544,50418.511,44486.0905,55986.5981,-10.9971,-963.5389,25579.0204
55988.431,27664.9296,53684.0111,41698.2472,36462.1282,38867.6226,5936.1309,50409.6597,44479.7873,55987.1346,-14.8416,-972.4349,25579.9145
55968.4932,27652.2785,53680.5689,41691.0946,36440.9387,38861.0959,5928.9783,50389.0514,44470.2655,55981.2337,-27.6715,-983.5213,25577.0534
55984.5418,27652.1444,53677.3056,41692.2122,36441.7434,38860.6489,5928.3078,50389.722,44475.5405,55982.4407,-21.5024,-974.8042,25579.5121
56000.635,27652.1444,53678.602,41702.4046,36466.7773,38864.5381,5930.4982,50414.0854,44488.0128,55984.7206,-5.9903,-962.9577,25578.618
55997.327,27649.954,53678.6467,41702.7175,36469.9066,38861.99,5928.2631,50420.2992,44486.3141,55986.7769,-11.2653,-964.433,25573.6113
55978.1939,27642.7567,53677.2162,41689.1724,36444.0233,38851.7529,5922.4069,50396.0252,44472.5901,55979.1774,-27.0009,-979.2298,25568.7833
55963.7994,27638.1969,53674.7575,41681.9751,36423.3255,38847.819,5920.1717,50371.2595,44465.0352,55975.0199,-41.1272,-989.3775,25564.4917
55973.3659,27637.6605,53676.0092,41686.8031,36436.9601,38851.3952,5920.3058,50386.9057,44471.8301,55984.0053,-36.478,-990.4504,25565.5646
55987.8945,27638.8675,53672.0753,41691.0946,36453.2769,38851.6188,5912.9745,50408.8551,44476.7922,55981.3678,-26.8668,-980.4368,25566.3246
55982.6642,27642.5332,53669.8401,41684.0315,36453.9921,38843.9298,5907.3865,50406.7987,44473.7971,55977.2998,-33.3488,-985.4436,25563.2848
55980.2949,27642.3544,53672.4329,41682.9139,36445.0067,38847.506,5911.8569,50406.8881,44468.4327,55975.8246,-40.7249,-995.7701,25561.139
55969.1638,27647.4059,53674.221,41678.8012,36428.6005,38848.4001,5914.0027,50395.9358,44461.0119,55971.9801,-46.8493,-1004.0402,25560.0661
55975.8246,27654.7819,53676.188,41683.6292,36434.0097,38853.4963,5915.0308,50402.8648,44470.5337,55980.6526,-40.099,-994.3843,25563.3742
55998.0422,27661.0851,53677.7079,41698.6495,36456.3167,38860.6489,5923.1222,50431.7433,44489.8456,55988.0733,-23.2011,-977.9334,25570.2585
56001.1715,27659.5652,53674.534,41698.873,36457.4343,38861.9006,5924.0609,50434.6937,44490.5162,55987.4475,-17.9708,-976.7711,25571.689
55977.881,27652.055,53670.1977,41688.7701,36434.412,38855.3292,5918.473,50413.9513,44481.2179,55981.1443,-33.2594,-992.6409,25565.3411
55954.8587,27633.4584,53663.3134,41673.3921,36409.1098,38838.9677,5912.0357,50382.0777,44469.595,55973.2318,-50.9173,-1009.0023,25557.3839
55957.675,27633.8607,53666.3979,41680.9022,36421.001,38840.5323,5911.8122,50380.066,44474.9147,55979.6691,-40.9484,-1000.4193,25559.8426
55979.4456,27646.4671,53669.9742,41692.8381,36449.03,38852.1999,5916.3272,50408.1845,44488.6386,55992.1861,-26.4645,-985.8906,25565.3858
55986.5981,27646.5118,53669.5719,41692.5251,36450.2817,38850.7247,5916.0143,50417.0805,44483.3189,55989.1462,-29.9066,-987.8129,25563.4189
55967.6886,27640.6556,53668.1861,41681.2599,36428.4217,38843.5274,5914.7626,50402.5966,44466.3763,55977.8363,-44.5694,-999.8828,25555.7746
55951.5506,27634.9336,53670.0189,41675.9849,36402.0914,38842.4993,5917.7577,50388.1127,44459.3579,55978.6856,-53.9124,-1003.3697,25555.3275
55961.296,27640.1192,53670.7789,41685.7749,36418.587,38851.3952,5920.44,50401.3002,44471.3831,55982.4407,-41.7531,-997.5582,25557.8309
55982.4854,27653.8432,53671.6729,41704.1928,36446.2584,38863.4205,5923.8821,50434.1573,44493.6901,55994.1083,-20.1613,-984.9966,25564.4917
55996.3435,27661.5322,53677.395,41710.7195,36452.4275,38867.7567,5926.609,50450.8764,44488.8175,55994.6895,-15.1545,-980.5262,25568.8727
55981.0549,27656.9277,53677.0821,41701.6894,36433.9203,38865.7898,5931.0347,50432.7714,44479.9215,55988.431,-26.9115,-989.4669,25568.1127
55960.4466,27652.3679,53678.6467,41685.462,36414.4295,38859.7995,5929.8724,50404.2059,44462.353,55984.8994,-38.7132,-996.2618,25567.0846
55981.9043,27660.9063,53684.4134,41699.7671,36435.4849,38870.1707,5934.8345,50431.3856,44471.6513,55988.878,-21.7259,-981.2862,25578.5733
56012.392,27668.0589,53687.0062,41710.943,36463.1116,38871.8247,5942.3447,50454.3632,44491.3208,55994.6895,-1.1623,-960.3202,25588.4081
56011.8556,27669.847,53691.7448,41712.0606,36467.6714,38872.6294,5943.954,50448.82,44494.8971,55992.1414,-0.5364,-959.0685,25588.9893
55991.9626,27667.0754,53694.8293,41707.2773,36445.8114,38869.1425,5939.2154,50424.099,44479.385,55988.1628,-15.4674,-971.1832,25585.5024
55973.6341,27659.6546,53688.2579,41696.6826,36417.0223,38859.2184,5933.8063,50396.4275,44465.3481,55978.0598,-28.6996,-982.6273,25582.4625
55976.2716,27659.5652,53682.0441,41695.7438,36423.5044,38857.9667,5927.1008,50400.5402,44465.0352,55976.7187,-22.5306,-978.8722,25577.5899
55993.7507,27662.6498,53679.4066,41702.3152,36446.5266,38859.7548,5923.5692,50421.2379,44472.5454,55978.328,-8.9854,-968.4563,25574.7736
55995.8518,27659.297,53676.0539,41705.9362,36449.7006,38862.6158,5920.3506,50419.3157,44473.4842,55974.4835,-16.9426,-974.0442,25571.689
55984.4971,27652.1444,53672.0753,41694.9391,36432.4898,38859.129,5914.1815,50403.446,44458.0615,55962.7712,-36.0757,-997.2006,25559.7085
55965.6769,27647.9423,53674.4893,41687.4737,36406.6958,38854.5245,5912.1698,50388.5597,44447.7797,55970.8178,-50.0232,-1007.8847,25560.6472
55976.2716,27643.8743,53678.1549,41692.0781,36419.1234,38861.3194,5912.6616,50405.3235,44464.6776,55975.8246,-41.0825,-998.6311,25565.8329
55999.3386,27648.4787,53679.9878,41703.3881,36449.4771,38867.2203,5915.4332,50427.407,44482.7378,55978.6409,-24.9892,-987.0082,25569.4091
56001.8867,27652.5915,53685.4416,41705.355,36457.9707,38873.4341,5921.8705,50437.7782,44485.3753,55982.4407,-21.5471,-983.6107,25574.9077
55995.9412,27647.9423,53687.2298,41696.4591,36437.8989,38873.6576,5920.4847,50425.306,44480.1003,55980.4291,-33.8405,-989.2881,25578.3498
55985.4805,27647.1376,53690.6272,41690.1559,36418.9893,38873.5235,5920.5294,50409.1233,44474.8253,55980.1161,-48.0115,-996.6195,25576.3382
55990.3979,27650.0881,53689.8226,41693.3745,36433.5179,38874.2834,5921.1105,50419.0922,44477.5075,55981.8596,-37.8191,-988.7964,25576.07
56002.0208,27650.2669,53685.531,41707.1432,36454.2603,38872.54,5923.4351,50443.5897,44484.3471,55980.7867,-20.5189,-976.9499,25578.3498
56001.8867,27645.3942,53680.4348,41706.4279,36460.0271,38871.9589,5923.1669,50446.8083,44472.9924,55975.6011,-16.6297,-975.43,25578.618
55977.9257,27640.745,53679.2278,41689.53,36445.8114,38861.4982,5920.9764,50417.8852,44451.803,55970.8178,-29.4596,-989.601,25571.7784
55955.0375,27635.6488,53677.4397,41679.8741,36423.4596,38850.5459,5916.4166,50395.1758,44438.3025,55959.5525,-43.8988,-1004.4426,25564.5812
55944.8004,27636.8111,53672.8352,41676.119,36424.0855,38844.3321,5911.9463,50397.0534,44435.3968,55957.2279,-46.2234,-1004.6214,25561.586
55960.1784,27646.4224,53668.7672,41680.187,36443.6209,38841.2923,5912.9298,50405.5023,44441.5659,55960.089,-32.6782,-990.1375,25563.4189
55967.8227,27650.8927,53672.7011,41683.495,36454.4392,38840.7111,5916.5508,50404.0271,44448.3608,55962.6371,-23.067,-982.4038,25569.4091
55944.8898,27651.2057,53678.2891,41679.2929,36439.4635,38841.4711,5924.5974,50377.7415,44439.0178,55962.9053,-28.5655,-990.7186,25571.9125
55923.3427,27646.6459,53676.7244,41667.0442,36416.7094,38832.0833,5925.4467,50349.2653,44412.5086,55954.6351,-47.2516,-1003.6379,25566.9504
55922.7616,27655.0502,53677.3056,41665.7925,36431.0592,38831.1893,5927.7713,50351.6793,44414.4309,55955.9315,-43.72,-999.5252,25569.0962
55945.8733,27672.5292,53680.7925,41680.8128,36453.0534,38838.9677,5934.7898,50365.3139,44423.8186,55962.4135,-24.5422,-981.6438,25577.4111
55947.572,27682.5875,53686.3804,41691.2287,36464.6763,38846.612,5942.6129,50367.8173,44427.9313,55963.2182,-17.3002,-973.9548,25581.5685
55923.9239,27680.9335,53686.1569,41680.9022,36440.6258,38840.4429,5940.6012,50346.8961,44410.9887,55958.1667,-29.6384,-985.2648,25577.2322
55908.5459,27675.2114,53687.0509,41669.1899,36418.274,38838.5653,5942.0317,50318.7776,44399.634,55954.9481,-43.3177,-997.6476,25575.8911
55924.5497,27682.3193,53691.2084,41683.6739,36435.2614,38847.7743,5948.0667,50326.7795,44411.1228,55961.2513,-29.549,-985.086,25579.6015
55945.4709,27689.9636,53693.7565,41698.6048,36465.5256,38855.955,5950.2572,50346.7619,44413.4027,55966.1239,-12.5617,-973.1501,25583.4907
55951.9976,27691.1259,53694.1141,41696.5485,36462.4858,38856.5361,5949.0502,50347.7901,44408.1724,55964.8722,-10.4159,-979.7662,25579.3333
55932.3728,27684.3309,53687.5874,41679.427,36423.7726,38843.8851,5941.8976,50317.8388,44390.1122,55956.0657,-28.2526,-996.0383,25569.9456
55910.9151,27670.7411,53680.1219,41667.4018,36397.3975,38828.6859,5932.0629,50283.5512,44370.4426,55943.9957,-47.8327,-1009.4941,25560.2896
55909.887,27668.2824,53672.2988,41669.5476,36403.0302,38825.1543,5927.1455,50280.9137,44372.1861,55939.436,-41.306,-1007.84,25560.4684
55924.8179,27671.9481,53668.3649,41678.5777,36422.5209,38831.1893,5928.0396,50299.7786,44384.6583,55943.5487,-24.4081,-993.982,25562.3013
55923.4321,27667.7907,53665.3697,41678.0859,36418.8552,38826.0484,5922.2281,50290.9273,44382.8255,55943.8616,-23.2458,-994.1161,25560.6025
55904.0755,27659.6546,53665.638,41660.6516,36397.7104,38814.2914,5915.7461,50266.1169,44361.949,55942.0735,-45.4187,-1014.8585,25556.311
55881.8579,27649.8646,53662.8664,41652.5602,36379.2032,38811.2515,5910.9181,50238.2666,44343.7546,55928.8859,-58.4722,-1029.3871,25550.7231
55897.817,27651.7868,53663.224,41668.6982,36392.9719,38817.3312,5914.852,50244.5698,44348.0909,55925.8014,-45.9105,-1015.4396,25554.8805
55928.6624,27663.1862,53668.2308,41685.5067,36417.827,38826.8977,5923.4798,50267.1003,44364.363,55937.7372,-22.9776,-989.3328,25566.3693
55932.8198,27670.2493,53673.5952,41692.8828,36417.6035,38826.2719,5927.6372,50274.0741,44375.5388,55944.3086,-14.618,-981.8673,25573.4771
55915.8772,27663.3203,53672.6564,41680.3211,36398.5151,38820.9075,5927.7266,50249.3978,44367.2687,55938.676,-26.3751,-993.6243,25568.068
55910.9598,27663.8567,53673.5952,41674.7332,36384.4335,38818.2253,5928.2631,50226.4202,44357.3445,55939.7489,-34.0194,-1000.1957,25570.3032
55918.6041,27661.8004,53675.9645,41675.0014,36388.0098,38818.2253,5930.6324,50232.9022,44361.4125,55942.4311,-28.5655,-992.0597,25574.9077
55952.1765,27665.9131,53679.4513,41691.7205,36413.5802,38829.1329,5937.2038,50255.1645,44375.9412,55950.2095,-9.343,-973.9548,25583.759
55961.5642,27667.4777,53680.1219,41694.2239,36424.2643,38834.095,5936.3991,50268.7544,44380.635,55949.7178,-8.449,-972.9713,25583.6248
55940.1959,27662.8286,53678.4232,41673.5262,36394.4471,38820.8181,5925.3573,50240.8594,44366.1511,55943.8616,-27.2244,-991.2103,25574.7288
55932.954,27657.33,53679.4066,41663.9149,36367.625,38812.6373,5917.6236,50210.6398,44355.1987,55936.0385,-40.2778,-1005.1578,25567.4422
55939.2124,27655.9442,53679.2278,41665.1219,36379.6502,38810.8045,5915.2544,50214.1714,44357.0763,55933.9374,-32.9018,-1000.1957,25566.7269
55951.9529,27652.9044,53669.0801,41667.0442,36398.1128,38812.3691,5914.2262,50225.8837,44367.9392,55937.3796,-23.514,-992.6409,25569.5432
55960.7148,27653.3067,53667.6943,41666.9101,36399.4986,38811.2515,5915.6567,50235.3609,44376.2094,55946.5885,-24.4081,-988.4387,25571.689
55948.4661,27653.7985,53672.2541,41661.2327,36384.6123,38804.9036,5917.1319,50216.0043,44368.3416,55942.1182,-35.9416,-994.6525,25568.7833
55941.7605,27657.1065,53676.5456,41659.1316,36368.8767,38804.2331,5923.1669,50199.5981,44363.2007,55941.7605,-39.9202,-999.2123,25571.4655
55959.3737,27666.8966,53677.1715,41666.6418,36385.9087,38816.0795,5927.816,50219.2676,44368.7886,55949.9413,-27.8056,-991.8362,25577.0087
55979.1327,27674.4962,53677.5738,41681.2152,36414.1166,38831.1893,5930.9453,50246.9838,44382.3338,55959.6419,-5.8562,-975.0277,25581.1214
55976.7187,27682.5428,53680.3454,41681.7516,36424.8455,38840.9793,5933.3146,50267.6815,44391.4086,55964.1123,0.8047,-968.3669,25584.206
55970.5943,27687.9519,53687.2745,41685.5067,36419.1681,38843.1251,5939.5283,50266.3851,44390.6039,55965.7663,-7.1973,-975.3853,25585.6812
55962.0112,27685.3591,53688.5709,41680.5893,36401.0185,38838.6995,5937.1591,50246.1791,44381.7526,55962.9947,-20.8765,-986.4718,25580.8532
55962.19,27675.4349,53678.5573,41681.4834,36406.1147,38835.1232,5933.4934,50252.7952,44379.3386,55956.6468,-17.3002,-988.7964,25576.1147
55965.1405,27669.4447,53673.1482,41686.3561,36420.7327,38831.8151,5931.7499,50267.6815,44387.3405,55952.9364,-13.9922,-985.7118,25571.2867
55960.983,27658.7605,53671.1812,41684.0315,36417.7376,38820.371,5927.8607,50261.6465,44386.9382,55952.1317,-21.9941,-988.8411,25567.3081
55933.1328,27641.8626,53663.671,41660.2045,36383.4053,38801.0591,5915.2097,50222.7992,44364.1394,55939.7936,-45.4187,-1009.7623,25554.5229
55910.7363,27631.0444,53658.2172,41642.6808,36359.3102,38790.9114,5905.8219,50192.4455,44345.6769,55928.6177,-67.5917,-1032.8293,25546.4315
55916.0113,27629.7033,53654.7303,41643.8878,36364.8534,38794.3536,5899.1611,50203.0849,44353.6788,55928.3048,-62.2272,-1031.3541,25546.208
55942.0288,27637.5264,53654.0598,41661.7692,36396.1905,38809.9998,5902.2456,50230.8905,44375.0918,55946.0074,-38.2662,-1008.2424,25556.1322
55940.4194,27644.3213,53652.8081,41666.9995,36396.727,38811.9668,5905.6878,50239.9206,44382.5573,55950.8353,-34.9134,-1003.6826,25562.6142
55923.5215,27644.9919,53651.1987,41659.7575,36373.3917,38801.2379,5908.1912,50235.4056,44379.3833,55945.5156,-47.0281,-1012.5339,25560.6472
55911.0492,27649.5069,53659.2901,41659.981,36362.3947,38802.0426,5915.2097,50228.8342,44382.5126,55944.3533,-52.3031,-1016.289,25564.2682
55922.3592,27664.3485,53665.9062,41673.3027,36383.0924,38815.6325,5922.2728,50247.252,44401.3774,55951.5953,-34.1535,-1005.1578,25570.7949
55961.3854,27683.1239,53670.7342,41698.8283,36420.5092,38835.5702,5932.4205,50280.3326,44420.8682,55962.3241,-10.8182,-984.4601,25578.3051
55968.4038,27687.1473,53673.9528,41703.2987,36429.4946,38842.4546,5936.1309,50291.3743,44429.8983,55965.1405,-3.7998,-979.1851,25581.032
55962.9053,27684.4651,53679.496,41700.5271,36413.3567,38846.9249,5933.2252,50277.2927,44420.9129,55958.9714,-11.0865,-986.3377,25580.2721
55952.3106,27680.1735,53681.1054,41694.8497,36395.2965,38847.2825,5925.8491,50254.4045,44400.1257,55952.7576,-23.067,-997.7371,25577.0981
55962.8606,27683.6604,53683.4747,41696.772,36409.3781,38852.1552,5927.816,50264.7758,44406.6077,55955.1716,-14.931,-992.5067,25579.1098
55984.8547,27689.2483,53684.9052,41699.4095,36437.4965,38864.8957,5931.5711,50296.9623,44416.8001,55959.7313,-0.7153,-977.9781,25581.2556
55987.5369,27678.296,53671.7176,41692.4357,36433.7862,38852.6022,5923.3904,50298.0351,44407.77,55954.3222,-6.4373,-981.8673,25572.9854
55966.6157,27657.7771,53664.6545,41678.3094,36408.5287,38840.7558,5912.9745,50273.3588,44394.4931,55942.0288,-24.7657,-1000.9557,25563.6424
55947.7955,27649.954,53664.2522,41670.084,36391.7202,38833.8715,5910.2923,50253.1528,44386.7147,55934.4739,-41.6636,-1012.1316,25558.5909
55951.1483,27653.9326,53665.325,41673.3027,36405.1312,38836.2408,5912.0357,50260.9313,44400.394,55943.0122,-40.5461,-1006.3201,25562.9718
55967.778,27656.2124,53662.464,41676.2531,36428.69,38833.2903,5912.8851,50276.9351,44410.3181,55946.1415,-25.6598,-993.8926,25563.2848
55978.1939,27659.9675,53667.9626,41683.2715,36431.8192,38832.7986,5918.5624,50289.4521,44413.5368,55952.0423,-21.86,-989.3328,25568.8727
55964.2464,27652.1891,53671.2706,41667.1783,36405.7124,38825.4225,5916.9084,50270.319,44406.116,55951.4612,-37.6403,-1001.2686,25564.8494
55952.1765,27648.0317,53671.0471,41657.8799,36384.7464,38817.3759,5913.1086,50251.0071,44396.5048,55944.9792,-51.0514,-1011.2822,25561.8542
55962.8606,27653.9326,53671.8965,41664.6749,36401.0185,38817.3312,5917.6683,50259.6349,44405.1325,55950.7012,-39.4285,-1002.4756,25564.0447
55985.3464,27666.986,53675.0704,41677.6389,36434.0991,38822.7403,5924.0609,50292.1343,44419.08,55963.0841,-18.1496,-985.1754,25569.9009
55989.8168,27667.1648,53678.3785,41677.6836,36438.8824,38820.0581,5924.4633,50294.8165,44424.2209,55969.7002,-15.4674,-983.0296,25572.2702
55979.8479,27661.8898,53678.2891,41665.9713,36411.9709,38810.8492,5922.9434,50269.9167,44411.0781,55964.7828,-31.7395,-996.5301,25566.5034
55957.7644,27660.4146,53672.2094,41652.6049,36391.899,38800.2098,5916.6402,50246.9838,44388.1899,55954.054,-51.409,-1013.9197,25561.3625
55961.1619,27663.4544,53671.0918,41654.5719,36398.4257,38801.1038,5915.7461,50256.148,44390.2463,55959.8655,-45.0611,-1007.3483,25564.0894
55976.7187,27667.5224,53667.292,41665.4795,36421.448,38813.1738,5921.3787,50275.2364,44410.8993,55969.879,-23.9611,-990.0033,25570.1244
55973.053,27660.1911,53661.3464,41656.9859,36427.93,38807.7199,5916.0143,50277.0245,44410.7205,55966.9286,-23.514,-993.5796,25566.3693
55957.7644,27652.4574,53658.7983,41645.2736,36405.1759,38801.8191,5911.4099,50253.3317,44399.0976,55961.9665,-42.513,-1006.9907,25562.7483
55939.7489,27644.366,53655.7138,41639.0151,36386.5346,38799.4051,5908.4147,50234.7797,44390.4698,55959.1055,-56.7287,-1014.0538,25561.1837
55951.0142,27650.1328,53656.4291,41644.2007,36391.4967,38798.9581,5911.0969,50246.9391,44395.9683,55956.8703,-50.5596,-1009.4494,25562.7036
55965.5875,27654.3349,53655.535,41656.673,36416.2624,38807.8094,5917.3107,50266.8768,44410.5864,55961.296,-31.0242,-996.4854,25565.4305
55967.3309,27649.954,53654.9985,41660.8751,36422.4762,38813.0397,5917.5789,50266.698,44410.0499,55959.0161,-25.9727,-992.015,25566.9951
55947.4379,27643.7849,53654.0151,41656.4941,36401.0632,38813.3526,5916.0143,50241.4405,44397.22,55947.8849,-36.4333,-1001.2239,25561.6307
55934.4739,27640.7897,53657.7255,41647.2852,36384.7017,38807.8094,5915.2097,50224.2744,44389.1287,55942.0735,-46.8045,-1013.1598,25557.8309
55945.7839,27641.8626,53660.4524,41657.4776,36404.1477,38810.6257,5916.6402,50240.3677,44393.8226,55945.3368,-37.9533,-1006.3648,25560.692
55961.6983,27643.2484,53661.7935,41668.9664,36434.1885,38822.5615,5919.0094,50265.6698,44414.3862,55955.0375,-18.7308,-987.7682,25567.7998
55964.4252,27646.4671,53665.1015,41677.8177,36445.9455,38832.3963,5927.2796,50278.4103,44421.5834,55958.122,-13.6793,-982.4038,25568.5151
55946.1415,27645.2154,53665.2803,41666.5971,36428.6453,38833.3797,5925.6256,50256.5056,44407.7253,55953.7411,-27.4479,-993.8478,25561.2731
55934.5633,27640.7003,53668.946,41656.9859,36405.7124,38828.9541,5924.4186,50243.8992,44395.2084,55951.5953,-41.0825,-1004.3532,25559.8426
55940.643,27642.1756,53667.2026,41662.3503,36410.4062,38833.1562,5926.8326,50253.6893,44401.7798,55957.1832,-31.3818,-995.9489,25567.4869
55953.7411,27649.2834,53667.0685,41671.3357,36431.1486,38842.0075,5931.8841,50281.7631,44428.0654,55959.5525,-14.171,-981.0627,25575.0865
55959.5972,27652.0997,53670.4212,41677.8177,36439.4188,38842.1416,5934.5663,50292.0002,44428.3783,55958.3455,-13.6793,-975.5194,25577.1428
55948.779,27647.7635,53667.292,41669.1899,36419.794,38834.9891,5930.8559,50269.2014,44415.0567,55953.607,-32.7229,-986.9635,25572.1807
55944.8898,27649.1493,53670.913,41661.3221,36407.3664,38832.6645,5928.8442,50256.9079,44404.3279,55955.7974,-41.4401,-998.05,25568.2021
55953.9199,27650.0434,53671.6282,41664.2725,36423.0126,38832.7539,5927.816,50272.5095,44410.6758,55955.6633,-32.9465,-990.4951,25570.2585
55977.0763,27656.3913,53668.946,41682.8692,36450.7288,38842.5887,5930.5429,50296.694,44428.0207,55962.6371,-12.4723,-974.9383,25575.3994
55983.7818,27659.5652,53670.1977,41684.6126,36450.8629,38848.4895,5933.4487,50302.2373,44428.736,55966.4369,-8.7619,-973.2842,25577.9922
55966.0345,27656.9724,53670.4659,41672.5427,36429.9864,38843.438,5927.8607,50283.6406,44412.598,55962.2347,-26.1962,-987.6788,25571.0632
55946.365,27644.9025,53666.1297,41660.1598,36404.5054,38830.0717,5916.9978,50259.0537,44404.5514,55952.7129,-42.96,-1001.0004,25562.3907
55957.675,27646.1989,53664.431,41665.3007,36415.9048,38827.166,5914.4497,50269.7825,44415.4143,55955.261,-34.2429,-998.1394,25564.7153
55982.3513,27654.5137,53661.57,41675.4037,36433.8756,38835.0785,5912.6168,50291.3743,44424.5785,55960.536,-25.1234,-984.9966,25569.8562
55991.8284,27654.9608,53658.843,41676.5213,36442.9504,38836.1961,5913.4215,50297.0964,44420.4658,55957.675,-23.7375,-985.7565,25565.967
55969.8343,27649.5069,53656.742,41661.3221,36414.5637,38822.2486,5908.7723,50276.1751,44410.497,55955.0822,-39.7861,-999.6593,25557.7862
55950.8801,27639.7616,53655.4009,41651.4426,36395.967,38819.8793,5903.4526,50259.9478,44406.4736,55954.6798,-55.2535,-1009.4494,25556.2663
55959.8655,27635.6936,53650.5729,41651.2191,36404.6395,38822.5615,5905.8219,50270.6766,44416.5319,55955.7974,-48.6821,-1004.7108,25560.2896
55983.5583,27647.9423,53654.1492,41661.3221,36434.9484,38828.2388,5911.1863,50293.8777,44430.7029,55962.9053,-29.4596,-986.9188,25568.1127
55980.6079,27646.2436,53651.6905,41653.9907,36431.7745,38822.5615,5906.0007,50292.7154,44430.1665,55963.2182,-26.0174,-988.3046,25566.1905
55962.7712,27649.1493,53654.8197,41645.4524,36411.792,38814.202,5901.2175,50266.2063,44416.9343,55958.9714,-41.6636,-1001.671,25562.5248
55944.3086,27641.9967,53652.5398,41640.2221,36397.2634,38807.9882,5900.1893,50247.5649,44410.1393,55951.6847,-57.3546,-1016.6019,25559.485
55959.8655,27644.679,53656.1161,41643.7984,36406.2041,38813.9784,5905.7325,50270.766,44424.7574,55958.7479,-43.4071,-1005.426,25564.0447
55983.9159,27658.2241,53662.017,41658.4611,36430.2993,38827.9259,5913.6003,50301.2538,44443.801,55973.7235,-23.6034,-984.773,25568.9621
55981.4125,27658.9394,53664.2075,41658.9528,36429.9417,38828.06,5915.1202,50301.2538,44444.6057,55973.4106,-21.5471,-982.0461,25569.9456
55968.225,27655.0949,53663.2687,41648.4922,36408.7969,38818.0912,5915.1649,50288.2004,44428.423,55965.4981,-36.3886,-994.8313,25567.174
55950.7012,27649.1493,53663.3134,41634.7682,36397.3528,38810.9833,5913.7344,50265.5357,44423.2821,55959.329,-57.9804,-1009.6282,25559.0826
55965.5428,27651.6974,53666.3532,41643.4854,36415.8601,38815.4089,5915.9249,50276.9798,44438.2131,55961.6536,-45.687,-999.2123,25563.2848
55990.9791,27665.019,53666.6214,41664.6302,36441.0281,38821.8462,5922.8987,50307.3782,44454.3064,55968.9403,-25.5257,-984.2366,25568.9621
55992.8566,27669.3106,53664.5651,41663.9596,36437.8095,38824.0814,5917.4448,50317.2129,44451.1771,55969.6108,-27.4479,-984.1919,25566.1905
55967.3309,27659.7887,53660.3183,41653.9013,36412.2391,38814.2467,5911.1863,50300.8515,44435.1733,55963.0841,-39.6073,-997.1559,25563.0612
55952.4,27654.4243,53658.6195,41649.2969,36402.4937,38813.6208,5913.2427,50283.6853,44425.0256,55956.1998,-49.3079,-1005.0684,25563.3742
55960.4466,27660.0122,53659.5583,41654.8401,36413.1331,38826.8083,5914.8967,50293.5648,44434.0557,55952.8917,-40.5014,-996.3959,25567.3528
55979.7585,27665.2426,53663.9392,41669.5029,36440.8046,38837.9842,5916.059,50320.3869,44446.3491,55960.4466,-22.8882,-979.8557,25573.7454
55989.9509,27668.3718,53665.8168,41677.773,36449.7453,38843.8851,5917.2213,50329.5511,44449.2996,55968.1803,-15.2439,-979.4086,25575.31
55978.2386,27662.605,53666.8897,41674.152,36435.6637,38840.3535,5913.2874,50316.6318,44438.2578,55958.1667,-27.895,-995.5466,25568.068
55956.8703,27656.1677,53667.2473,41667.1783,36412.0603,38830.027,5911.6334,50299.1974,44430.6135,55954.6351,-39.2944,-1002.0733,25563.1506
55956.1998,27653.6644,53665.325,41671.6486,36422.3868,38830.2058,5913.958,50305.3665,44445.4998,55958.3008,-31.1583,-993.1773,25566.1011
55982.5301,27659.9675,53664.0286,41679.9188,36457.9707,38834.7208,5918.2495,50327.8077,44458.0168,55963.4417,-20.5636,-984.6389,25567.6657
55980.8314,27659.5205,53657.7255,41674.3755,36451.8464,38825.199,5911.3204,50329.5958,44444.4269,55954.7246,-28.5208,-990.5845,25560.6025
55957.9879,27652.5021,53653.3892,41657.4776,36426.0077,38817.8676,5902.6033,50301.2538,44431.8205,55943.4146,-47.4304,-1005.426,25554.2547
55947.125,27642.5332,53653.6574,41643.4854,36401.1973,38809.1952,5894.3778,50276.354,44417.7836,55943.1911,-68.7987,-1023.4863,25548.5326
55956.8256,27639.6275,53649.3659,41645.0053,36410.8086,38809.9998,5894.9143,50290.9273,44417.5601,55945.6944,-60.8414,-1019.3288,25551.4383
55969.2085,27642.6673,53650.8411,41654.3037,36439.1059,38820.684,5901.3516,50321.728,44432.2675,55953.4729,-39.652,-1000.7769,25556.6686
55976.0928,27646.9141,53654.5962,41653.8566,36446.7055,38819.9687,5905.1514,50335.0496,44440.3142,55958.882,-37.0592,-999.8828,25552.7794
55961.4301,27636.5429,53651.8246,41643.396,36418.0505,38815.856,5902.1562,50310.5968,44428.3783,55953.1599,-49.9338,-1011.5057,25549.6502
55946.365,27630.5079,53651.2882,41639.6409,36402.2702,38818.0465,5901.7539,50291.3296,44417.4707,55946.7226,-63.7025,-1017.0937,25549.8737
55950.1201,27636.7217,53653.6574,41645.0053,36423.5491,38823.5897,5906.1348,50309.4792,44427.3949,55951.9976,-56.684,-1005.5602,25556.8027
55975.1987,27643.5614,53655.2668,41656.673,36447.4207,38832.3516,5906.0901,50334.4685,44444.8292,55962.0112,-34.6005,-991.9256,25561.6307
55982.9772,27644.0084,53657.9937,41660.2045,36447.1078,38833.0668,5905.5537,50340.5482,44447.8244,55964.6934,-32.0524,-992.462,25559.5744
55968.4932,27636.0065,53657.0549,41653.9907,36428.9582,38826.8977,5906.0007,50320.968,44436.7826,55961.743,-43.6753,-1004.0849,25557.6968
55953.9199,27632.2961,53658.9772,41645.3183,36409.1545,38819.6558,5905.062,50299.1527,44422.2093,55956.7362,-55.0747,-1014.9032,25556.2216
55969.2979,27634.8442,53663.5816,41648.4028,36420.8668,38821.578,5911.1863,50301.6114,44428.2442,55959.7313,-49.9338,-1007.7953,25559.5744
55993.9742,27644.1425,53668.1414,41665.7478,36445.0961,38833.6033,5916.7743,50332.3227,44444.2928,55965.5875,-31.0689,-992.2385,25562.7036
55999.741,27648.3893,53668.7225,41668.6982,36449.2089,38834.855,5914.3603,50344.2138,44452.7864,55964.3358,-32.0077,-989.3775,25564.3576
55979.7585,27640.1639,53664.0286,41659.4446,36423.5491,38828.6859,5908.2806,50322.175,44437.632,55955.5292,-47.788,-1000.0169,25560.2449
55956.0657,27631.2679,53660.5418,41646.8382,36402.002,38821.3098,5901.8433,50300.8962,44427.529,55949.7178,-59.4556,-1009.2705,25558.3674
55967.465,27632.0726,53661.8829,41651.5768,36413.7143,38826.5848,5905.2408,50313.6814,44437.2743,55957.4068,-48.3692,-999.5699,25563.1059
55987.3134,27643.0249,53662.5981,41663.9149,36439.0612,38833.1562,5914.0027,50338.4471,44452.8759,55967.9568,-29.5937,-979.7215,25567.5316
55992.5437,27642.9355,53661.3464,41664.8984,36445.0961,38830.2952,5912.3486,50349.3547,44456.4521,55968.5379,-31.1136,-978.4251,25565.8776
55975.6458,27633.6372,53663.3581,41659.3999,36433.9203,38826.4507,5909.3535,50340.8611,44444.0693,55964.8722,-39.8308,-990.5845,25563.1953
55961.8324,27629.8374,53664.7886,41652.739,36416.0836,38829.9376,5910.7393,50332.0545,44434.3239,55962.2794,-49.6656,-1000.6875,25562.9271
55968.5379,27630.6868,53665.0121,41656.6283,36430.5228,38838.0736,5915.0755,50345.0185,44446.1256,55963.5758,-37.5956,-997.3794,25566.6375
55989.1462,27634.0842,53666.8897,41666.0607,36456.0932,38848.0425,5916.4166,50371.0806,44467.4939,55972.8295,-19.1778,-979.2745,25572.7172
55991.9626,27638.9122,53667.6496,41668.1617,36457.6131,38846.7014,5909.9346,50374.7016,44464.4094,55975.8246,-18.7308,-978.1569,25569.5879
55970.0131,27632.0726,53666.0403,41652.739,36443.2186,38835.5255,5902.648,50356.1497,44448.2714,55968.4485,-38.5791,-995.9489,25561.139
55947.9296,27617.991,53658.7983,41637.5399,36414.6978,38825.646,5897.1047,50329.7746,44433.4745,55959.0161,-62.3167,-1015.9761,25551.796
55950.7906,27622.4613,53656.7867,41639.8197,36419.0787,38825.5566,5895.406,50341.7104,44437.4979,55961.2066,-57.444,-1014.1432,25550.8125
55966.571,27630.6421,53652.674,41650.6827,36444.4256,38828.4177,5891.2933,50367.1914,44445.321,55962.7712,-46.4916,-1007.4377,25553.8523
55970.3708,27633.816,53649.8576,41653.052,36451.6675,38828.1941,5890.8463,50367.0573,44447.1538,55963.7994,-44.3012,-1003.772,25552.4218
55945.3368,27619.0192,53645.1638,41639.9986,36427.2594,38816.2583,5887.6723,50343.5433,44438.526,55956.5574,-62.9425,-1015.8867,25546.7445
55930.4953,27608.8715,53641.8557,41627.3922,36396.8164,38802.132,5883.649,50317.5259,44431.1947,55951.64,-79.2146,-1031.6223,25542.4082
55943.5487,27613.7441,53647.7119,41637.0928,36412.5073,38815.096,5887.6723,50336.3013,44442.5493,55955.708,-64.4177,-1022.1004,25547.1915
55971.0413,27629.4798,53652.4057,41658.4164,36452.651,38828.9988,5893.5285,50371.1253,44454.5746,55968.8061,-44.6588,-1002.4309,25554.5676
55976.9422,27638.1969,53654.8197,41662.5738,36460.2059,38829.7141,5896.2107,50379.1273,44459.3132,55976.0481,-35.1369,-991.9256,25560.8261
55965.6769,27630.7762,53655.0432,41649.9227,36431.8192,38822.5168,5896.2554,50361.6929,44447.735,55970.3708,-49.7997,-1003.4144,25557.2051
55947.9743,27625.5012,53654.9985,41637.7634,36400.7503,38819.7452,5894.646,50339.6541,44430.0771,55957.0938,-63.166,-1018.5689,25551.3489
55957.0491,27628.8986,53646.3708,41635.8858,36409.9145,38822.2486,5892.8579,50343.6327,44436.0226,55954.2775,-59.9921,-1018.7477,25549.6502
55976.7634,27633.9501,53645.2085,41651.2638,36441.9669,38825.2884,5895.406,50366.208,44446.2597,55963.5758,-46.9387,-1004.1296,25550.8572
55976.7634,27635.8277,53649.0977,41658.1035,36448.1807,38824.6626,5897.1494,50378.5461,44449.8807,55965.6769,-44.9717,-998.2735,25554.7017
55964.6934,27631.4914,53650.3494,41649.8333,36421.4033,38823.7238,5896.8812,50362.3188,44447.1091,55964.6934,-57.7569,-1003.5485,25551.8854
55957.0044,27629.7033,53653.7021,41642.7702,36402.6278,38822.1145,5899.7869,50341.174,44448.4949,55963.71,-65.4459,-1008.7788,25550.4549
55966.1239,27628.0046,53657.3231,41645.3183,36415.0107,38822.8744,5900.6363,50350.1147,44451.9371,55968.9403,-56.0135,-1003.0121,25557.6074
55987.3581,27633.6819,53656.3396,41654.1696,36442.3692,38830.9211,5904.0785,50377.3838,44470.3102,55974.26,-34.0194,-985.8906,25565.8329
55987.5816,27638.8675,53660.8994,41659.8022,36452.9192,38832.9774,5911.9463,50394.0582,44478.4462,55980.9655,-24.721,-976.637,25574.2371
55972.8295,27643.6508,53665.3697,41657.2988,36437.1836,38834.0056,5914.852,50387.7103,44471.2937,55984.1394,-34.824,-982.0908,25576.3382
55962.6818,27644.8131,53665.8615,41650.2804,36416.4859,38831.0999,5915.6567,50363.6599,44466.7339,55980.5185,-41.8425,-989.6904,25576.4276
55973.2765,27648.6129,53667.6943,41657.9694,36430.2546,38837.3584,5918.2495,50383.2847,44480.5473,55984.8547,-29.4596,-982.4485,25578.3498
55997.327,27655.0949,53665.9062,41676.7448,36466.4644,38846.3885,5924.1951,50413.9066,44486.8058,55986.8664,-13.5899,-970.4679,25582.999
56009.3075,27649.5963,53666.2191,41682.3775,36467.135,38849.5177,5923.2563,50410.7326,44492.3043,55988.7886,-11.5335,-970.0656,25583.8931
55991.3814,27637.3029,53659.9606,41667.5806,36436.8707,38834.095,5912.6616,50390.2584,44470.4443,55981.5466,-36.2098,-992.2385,25568.7833
55967.6439,27635.3806,53655.4456,41651.6215,36411.345,38822.338,5904.9726,50360.9776,44452.0712,55970.0131,-57.3993,-1010.3434,25553.9864
55972.0248,27639.7169,53655.3562,41655.1977,36418.8999,38822.8297,5896.9259,50359.0554,44451.4453,55967.5545,-56.9522,-1008.4212,25550.1866
