FC3,FCz,FC4,C5,C3,C1,Cz,C2,C4,C6,CP3,CPz,CP4
56660.1455,28091.8032,53962.8714,42198.7027,36753.729,39298.0278,5940.0648,50340.8611,44206.5597,55957.8985,474.8404,-654.2802,26034.0124
56639.8948,28083.3542,53964.9278,42190.3878,36730.7514,39291.9481,5941.093,50318.9564,44186.6219,55955.7527,461.2952,-667.8253,26031.3302
56638.5984,28083.1307,53964.3019,42188.4656,36727.3986,39292.8869,5943.3728,50324.1867,44191.1817,55954.8587,462.6364,-666.2607,26033.2525
56659.162,28091.1326,53964.0784,42200.8932,36756.59,39306.7449,5947.3068,50350.8747,44209.0631,55961.3854,483.6023,-646.0547,26041.8355
56679.8151,28094.843,53966.7606,42211.3985,36781.8475,39315.0598,5951.6877,50368.9349,44221.2671,55967.778,496.9686,-631.3026,26048.9881
56673.2436,28091.0879,53964.5702,42206.8387,36768.0788,39304.9121,5950.0784,50354.3615,44219.2107,55967.3756,486.9998,-640.5562,26048.4517
56652.7694,28080.225,53960.7257,42197.5404,36742.5978,39300.0394,5945.4739,50327.2712,44209.1972,55958.0773,471.4429,-656.9624,26042.9531
56645.0804,28076.8722,53961.0386,42197.0934,36735.5347,39300.5759,5944.8481,50321.4151,44201.1505,55955.4845,466.0338,-657.9459,26042.0591
56660.7714,28081.7896,53955.093,42208.1351,36761.8203,39308.846,5944.714,50338.0448,44210.9853,55955.9315,480.6072,-648.1558,26046.2165
56675.1659,28082.4155,53953.5731,42213.2313,36778.3606,39309.5165,5946.368,50347.9242,44218.8531,55958.3008,489.9055,-639.6174,26044.8307
56668.1921,28077.811,53956.8812,42201.3402,36763.6979,39301.5593,5946.1445,50346.6725,44209.0183,55957.9879,477.165,-645.563,26040.2262
56651.9648,28072.7148,53956.5682,42189.1809,36737.2781,39290.0705,5940.8695,50324.2314,44198.6918,55956.7362,461.7423,-661.6116,26033.3419
56643.0688,28069.9432,53955.8977,42186.0516,36729.0974,39287.7012,5938.7684,50321.0574,44194.5344,55949.9413,458.4789,-669.1664,26031.822
56652.9036,28071.3737,53956.7024,42193.2042,36749.7057,39298.0725,5939.886,50338.7153,44207.2749,55948.1531,468.8501,-660.4493,26034.9959
56669.5333,28074.6371,53958.714,42201.1167,36770.8951,39305.672,5938.5896,50358.2954,44213.3546,55952.4894,475.3768,-654.6825,26036.0688
56659.7432,28070.7031,53956.3447,42197.004,36762.625,39301.604,5937.2932,50347.6113,44207.6325,55949.226,467.822,-662.0586,26030.4362
56643.3817,28073.9218,53960.7257,42187.9739,36733.8359,39299.6371,5940.5118,50333.3509,44196.5461,55945.1133,455.1709,-674.4862,26030.9279
56640.3419,28074.0112,53966.9842,42193.8747,36734.1489,39307.7284,5945.161,50331.0263,44202.0446,55948.6896,459.0154,-672.8321,26036.1135
56659.5644,28080.4038,53968.7723,42208.3586,36756.8135,39317.5632,5949.7654,50363.8834,44223.9493,55957.675,478.819,-660.4493,26046.2165
56678.161,28092.2949,53969.2193,42225.2119,36783.7697,39322.57,5952.4924,50388.9173,44236.0193,55971.9354,497.6839,-646.01,26052.6538
56675.1212,28093.0549,53972.7062,42224.8542,36783.1886,39324.9393,5953.2523,50376.6239,44232.8453,55976.0034,493.7947,-646.6359,26050.3739
56650.5343,28083.9801,53972.885,42208.0457,36749.7504,39312.6905,5947.8432,50359.3683,44222.9658,55968.672,472.6946,-662.8633,26043.1767
56634.2622,28076.6934,53967.7441,42199.1944,36727.6222,39304.778,5940.5565,50353.691,44212.9076,55958.4349,459.9541,-673.2792,26037.2758
56650.8919,28083.8907,53969.5323,42210.6385,36746.5317,39315.328,5941.8529,50379.172,44230.7889,55962.7265,475.7345,-660.9857,26039.6451
56666.3146,28096.05,53974.7626,42220.2945,36771.0292,39317.295,5942.3894,50400.719,44241.7413,55966.5263,493.4371,-647.5747,26043.9366
56659.7432,28096.1841,53973.8685,42214.5277,36759.7193,39310.9471,5940.8247,50387.1292,44226.6762,55958.9714,483.5576,-659.287,26039.0192
56643.2029,28082.4602,53969.9793,42205.1847,36742.2849,39304.1074,5937.7849,50362.8552,44210.9406,55952.1765,465.9444,-676.0508,26032.4478
56634.8881,28077.8557,53969.3534,42198.211,36734.5959,39300.2182,5935.5497,50348.0583,44211.2535,55951.6847,458.5683,-681.594,26030.7491
56655.3175,28084.0248,53969.6664,42206.6152,36754.176,39309.5165,5939.4836,50372.0194,44220.373,55954.1434,471.89,-667.6912,26029.7656
56676.1047,28086.6623,53966.3136,42213.2313,36772.3703,39312.6458,5938.5896,50393.3877,44234.4993,55956.7362,484.0493,-656.3365,26029.6315
56670.785,28076.604,53965.7772,42208.3139,36757.9311,39307.9072,5935.3262,50382.2118,44230.0737,55953.0705,476.8074,-664.3385,26029.9891
56650.0872,28067.3504,53963.3185,42195.037,36734.5959,39297.4019,5932.7781,50360.8882,44216.2603,55956.8703,457.8084,-683.561,26025.8317
56632.8764,28068.6915,53958.0435,42186.8116,36717.6086,39288.1483,5927.6372,50345.6444,44202.9834,55946.1415,446.409,-689.8642,26023.82
56648.9697,28079.3756,53963.2738,42203.6201,36740.5862,39299.4583,5929.0677,50370.6336,44228.5538,55958.7479,469.1631,-667.7359,26031.4196
56666.9405,28083.3095,53964.7043,42211.0856,36758.0652,39300.3523,5929.6489,50382.7035,44238.7909,55964.8722,480.2942,-658.0353,26035.3535
56651.3389,28074.5476,53965.5536,42202.8154,36748.454,39295.0773,5931.3923,50378.0544,44232.3983,55962.3688,472.5158,-665.9478,26032.0902
56633.9046,28061.1366,53967.2524,42187.8844,36727.0857,39296.0608,5932.0182,50360.4859,44217.512,55954.3669,455.6626,-678.286,26026.7258
56635.0669,28064.4,53969.6664,42186.4986,36728.0245,39297.3572,5931.8841,50359.5024,44215.5004,55957.4068,451.9969,-682.041,26029.0504
56654.5576,28075.7546,53967.1183,42196.1993,36754.7125,39304.5545,5935.4156,50382.2118,44231.0572,55964.157,469.5654,-664.562,26034.8171
56667.7898,28081.8343,53965.2854,42199.7756,36770.0905,39301.4699,5935.1027,50404.9212,44239.6402,55969.1191,476.5838,-653.8332,26037.9463
56662.5148,28082.1025,53967.8782,42206.0341,36768.1682,39300.0841,5937.1591,50402.7754,44236.6004,55970.0131,473.4546,-659.1529,26038.3487
56643.0688,28075.0841,53966.9842,42193.5618,36741.1673,39292.9316,5936.3544,50378.412,44229.1349,55962.9053,455.4838,-672.0722,26033.2525
56632.2505,28074.0112,53964.7937,42185.2469,36731.3325,39290.5176,5932.5546,50359.5471,44222.1165,55955.3951,447.5713,-678.5542,26029.855
56649.372,28083.3095,53969.1746,42199.5521,36753.4608,39301.4699,5938.6343,50383.0165,44239.0144,55969.3873,466.9726,-664.0255,26036.1135
56664.4818,28086.1259,53970.024,42210.8173,36773.6667,39303.2134,5943.4623,50414.1301,44250.7714,55979.0879,484.7199,-651.6427,26040.8074
56655.8093,28072.3572,53964.9278,42204.2459,36760.0322,39300.3076,5939.2601,50405.9047,44236.6898,55975.0646,480.8307,-661.7457,26035.89
56639.5819,28066.8586,53960.2339,42194.4112,36738.5745,39294.3174,5935.9968,50381.0495,44218.3614,55964.3358,458.926,-678.6436,26028.9609
56632.2953,28069.4962,53962.5138,42190.3878,36729.4997,39290.4729,5934.7451,50374.7463,44216.6179,55962.6818,453.7851,-680.0741,26026.9493
56645.7957,28071.7313,53961.2174,42197.1381,36757.7076,39294.9879,5936.9355,50392.2254,44226.855,55964.5593,468.5372,-667.0654,26028.3351
56663.543,28073.0724,53960.1892,42200.9826,36771.7892,39293.8703,5937.1144,50400.5402,44232.5771,55966.3475,475.3321,-660.941,26028.3351
56652.5459,28070.3455,53958.6693,42197.8533,36756.2324,39293.6468,5933.1805,50389.2303,44228.6432,55964.7828,464.8715,-669.7923,26025.8317
56635.5586,28071.0161,53960.0551,42192.6677,36731.1537,39285.5108,5930.9453,50368.3537,44212.3711,55956.1551,450.8793,-681.7728,26024.2671
56634.6645,28072.7148,53962.5585,42193.2489,36725.9234,39286.2707,5933.1805,50357.9825,44212.3711,55955.9762,449.1806,-682.9798,26024.8929
56636.7656,28077.5875,53965.7325,42203.8436,36751.4491,39298.3407,5935.1027,50382.5247,44226.7656,55962.7712,467.4643,-669.837,26031.0173
56652.0989,28083.3095,53969.3087,42210.7726,36766.4248,39302.364,5939.573,50403.6695,44243.44,55968.4485,481.3224,-657.2306,26036.7393
56653.4847,28083.5778,53969.3981,42214.0807,36761.7756,39303.5263,5941.1377,50401.926,44245.0047,55972.9189,480.3836,-658.1247,26036.6052
56631.3118,28072.8936,53964.3914,42194.6794,36731.0643,39293.6468,5935.7285,50380.7813,44231.683,55968.4932,458.3448,-677.6601,26029.3633
56618.6607,28064.3553,53965.4642,42181.7154,36725.5211,39291.1434,5930.4982,50378.859,44226.2292,55966.3922,449.4935,-681.2364,26029.1398
56638.2855,28076.4252,53968.1017,42204.9612,36759.9428,39305.0015,5936.2203,50410.0621,44251.2184,55973.8576,466.2126,-665.2772,26036.9182
56653.3059,28080.5379,53968.0123,42218.6852,36777.3324,39310.5447,5941.6741,50436.6606,44254.2583,55973.5894,481.1436,-655.4425,26040.1368
56642.8453,28070.4796,53963.1397,42211.0856,36760.3004,39300.1288,5937.8296,50426.2,44239.372,55971.846,468.4031,-664.9196,26034.1018
56624.6063,28059.8849,53957.4623,42207.1069,36739.4686,39291.3669,5931.7499,50394.3264,44220.5071,55961.6089,452.6675,-676.6319,26026.5023
56615.7997,28047.2338,53955.5848,42199.9991,36723.5988,39285.8237,5926.1173,50382.1224,44212.8181,55955.261,448.063,-681.5046,26022.926
56631.3118,28042.7635,53951.6509,42203.1283,36742.0614,39285.4661,5924.0162,50397.5004,44218.9872,55956.3786,459.7306,-676.319,26024.4012
56641.4595,28047.3679,53948.4769,42206.5258,36751.8961,39285.1532,5920.6635,50403.0883,44226.2292,55960.1784,467.2855,-675.7826,26023.5965
56633.5917,28046.6974,53948.7451,42201.1614,36740.8097,39278.4029,5914.2262,50394.5053,44224.9775,55952.9364,457.4955,-680.7446,26016.2652
56601.8969,28035.2533,53944.1854,42183.0118,36711.5736,39263.5614,5906.3137,50370.3207,44203.6539,55933.7586,437.0213,-700.2801,26004.5081
56592.3303,28033.4651,53942.4866,42176.5298,36699.4143,39264.7684,5902.4692,50366.6997,44193.4615,55934.3845,428.6617,-705.3763,25999.0096
56622.9522,28046.6527,53944.6324,42192.4442,36729.3656,39279.297,5904.4808,50399.2885,44205.9785,55948.7343,445.2914,-692.5464,26005.6257
56642.6218,28061.1813,53945.5265,42206.4811,36751.5385,39286.0472,5905.1961,50411.6714,44216.2603,55953.0258,456.199,-681.3258,26010.3196
56641.0571,28061.1813,53945.6159,42204.2459,36737.4569,39290.2941,5903.2291,50402.0154,44215.3662,55948.6449,452.9804,-685.6173,26008.8891
56623.8463,28056.8451,53945.6606,42191.9525,36711.663,39286.986,5898.0882,50378.0097,44205.0397,55934.7868,439.8823,-697.8214,26007.1009
56622.1476,28053.0453,53944.99,42184.2188,36711.1266,39284.125,5899.4293,50363.9728,44198.1554,55928.3495,432.3274,-703.8116,26005.7151
56644.7228,28059.572,53950.0862,42199.5521,36727.8457,39295.1667,5906.9842,50385.341,44201.1505,55937.3796,445.2467,-688.9254,26011.5266
56663.7665,28068.468,53955.1824,42205.4976,36748.2305,39307.8178,5911.3204,50412.2078,44217.7802,55942.297,461.8764,-672.4298,26018.4556
56662.2913,28074.1453,53959.0716,42206.9728,36752.4326,39306.8343,5914.4497,50419.3157,44215.2768,55940.9559,458.2107,-672.3851,26021.6296
56633.234,28062.7906,53960.5021,42192.623,36729.4997,39299.8606,5913.4215,50405.3682,44198.1554,55937.2455,442.6986,-688.2995,26015.684
56619.7336,28061.986,53968.2806,42189.7173,36722.0342,39298.3854,5918.5177,50394.8629,44200.1671,55939.6148,442.788,-688.0313,26018.2768
56633.7705,28070.4796,53972.4827,42204.38,36745.9953,39302.5875,5927.1902,50406.3517,44216.4391,55951.0142,460.4012,-667.2889,26028.3798
56636.9891,28070.2561,53973.9132,42209.655,36763.4296,39307.7284,5932.3758,50419.1816,44215.8133,55955.5292,473.7228,-656.6495,26033.0737
56620.5829,28069.2726,53974.8967,42202.2343,36755.0254,39305.4485,5937.025,50406.7093,44210.0018,55958.7032,472.0241,-666.7972,26035.13
56605.3838,28066.4116,53971.7227,42192.3101,36732.4054,39296.4631,5940.5565,50378.8143,44189.9747,55952.6682,458.8813,-676.9896,26033.1184
56597.203,28063.4165,53971.3651,42184.3082,36722.526,39295.8373,5941.4953,50363.0787,44176.9212,55946.7673,451.3264,-673.3239,26033.6548
56616.5596,28074.1453,53971.9462,42195.3499,36746.8446,39301.7381,5947.0832,50380.3343,44184.2973,55954.7693,473.4546,-658.8399,26036.6946
56633.994,28090.0151,53965.1513,42205.8105,36768.4364,39297.2231,5948.8714,50393.7006,44183.3138,55955.8421,486.955,-655.4425,26037.1864
56613.9221,28087.914,53963.3632,42190.0302,36759.8087,39286.226,5948.1561,50369.3819,44174.2837,55946.2309,477.7014,-669.7923,26031.9114
56593.5373,28081.5214,53967.8782,42183.4588,36743.7154,39281.2192,5950.3019,50332.9486,44153.139,55931.434,459.4624,-683.8292,26026.4128
56584.9096,28077.7663,53968.1911,42178.7649,36735.4453,39276.3019,5947.3515,50308.8981,44138.6998,55924.3262,452.8016,-690.49,26020.1544
56601.0028,28081.3426,53962.9608,42179.7931,36752.2538,39277.2853,5945.7421,50324.4102,44140.9796,55921.0181,461.027,-683.8292,26012.9571
56610.927,28088.361,53959.3399,42190.0302,36766.7377,39279.6546,5946.0104,50335.9437,44143.6172,55924.5497,468.4478,-678.5542,26014.8793
56597.2477,28090.4174,53957.7305,42186.588,36758.244,39277.4194,5944.3116,50320.968,44134.4082,55921.8228,467.7325,-681.9516,26013.3147
56573.2867,28085.0083,53952.5002,42175.0098,36730.7961,39266.6459,5941.3165,50283.73,44114.0234,55911.2281,447.0348,-697.2402,26007.4586
56564.1671,28082.5496,53951.2485,42173.4005,36719.0391,39263.472,5941.5847,50262.5853,44102.6241,55903.405,437.7812,-704.0352,26008.8891
56572.7949,28085.0083,53952.7237,42183.0565,36736.3393,39269.7304,5944.1328,50275.5046,44112.3247,55909.7081,454.7685,-688.1654,26014.2088
56586.4742,28093.2337,53956.6129,42194.3218,36755.3383,39274.6478,5946.368,50294.4589,44116.4374,55916.9948,471.9794,-676.9896,26017.5169
56577.2206,28092.2055,53963.2738,42195.5734,36744.8777,39271.5633,5944.9375,50289.3627,44113.4423,55915.9219,469.2078,-682.1305,26018.5897
56561.7085,28091.6691,53970.5157,42185.694,36720.0226,39267.4506,5945.6527,50262.9876,44112.4588,55915.2961,457.0484,-690.4453,26019.6179
56555.9417,28090.4621,53972.8403,42182.7883,36713.4511,39269.954,5944.0434,50244.391,44107.2732,55917.3077,453.2039,-692.5911,26019.3944
56579.5898,28102.9791,53975.3884,42201.9213,36739.1557,39280.4593,5945.2504,50259.9925,44121.8019,55926.0249,470.0124,-673.458,26025.8317
56600.1534,28110.3551,53979.367,42210.0574,36759.2722,39291.2775,5948.5584,50270.4084,44128.105,55926.4719,482.5294,-660.9857,26029.8997
56588.8435,28107.1365,53976.059,42196.1993,36743.5366,39280.3252,5944.4904,50254.5834,44118.4491,55919.1853,470.4148,-668.63,26025.6082
56573.5996,28093.8596,53969.577,42178.9885,36713.2723,39267.3612,5936.3097,50232.8128,44097.2149,55904.6566,450.3876,-687.3608,26018.0533
56566.0,28087.2881,53964.6596,42180.106,36699.3695,39262.0862,5932.8228,50220.7428,44086.1732,55899.2475,446.1855,-695.6309,26014.477
56581.7356,28083.3095,53964.6149,42188.8679,36708.8914,39265.573,5929.6936,50234.3774,44091.8058,55899.2028,456.0202,-683.8292,26015.5946
56593.0009,28080.9402,53962.2903,42190.522,36723.5541,39271.6974,5929.2912,50246.6708,44106.3792,55902.645,468.8054,-676.1849,26021.1825
56587.4577,28077.9898,53960.0551,42180.7766,36714.837,39264.4107,5927.5031,50229.3259,44095.2927,55901.5721,463.6198,-681.3258,26019.8414
56570.3362,28070.2561,53959.2057,42168.5725,36690.4289,39252.5196,5926.9667,50204.1131,44083.5804,55894.509,442.9668,-692.0099,26016.7122
56560.9932,28068.3339,53960.4574,42163.3422,36681.1752,39248.6751,5928.3525,50188.4222,44075.2208,55892.9443,434.6073,-702.9623,26013.3147
56575.5218,28075.0841,53966.0007,42171.7018,36703.7058,39257.5264,5931.2135,50205.9907,44093.1022,55903.0026,456.2438,-688.1207,26020.4673
56593.0456,28079.8227,53964.2572,42178.3626,36714.9264,39262.2203,5929.3807,50228.1189,44105.7086,55909.9317,470.4148,-674.665,26024.2224
56591.4363,28068.1103,53959.2057,42176.2168,36707.7738,39259.8957,5928.7995,50208.4494,44101.9982,55904.5672,460.3118,-681.4599,26023.2389
56579.3663,28059.8402,53956.9259,42165.7115,36684.7068,39250.6868,5926.0726,50180.5544,44084.8321,55892.8549,445.4702,-694.4239,26015.3711
56575.8795,28056.8451,53960.5916,42164.9069,36686.0032,39244.7859,5928.2631,50178.7663,44083.6698,55896.7441,440.3293,-692.1887,26013.8512
56596.0407,28064.4447,53965.5983,42174.1158,36706.5221,39250.5527,5931.8841,50193.9207,44105.351,55913.1503,460.6247,-676.8107,26022.613
56623.7122,28075.844,53963.3632,42191.7737,36725.2082,39259.6275,5934.3874,50205.3201,44114.8728,55915.3408,477.1203,-668.1383,26026.1446
56623.5781,28071.9548,53959.921,42188.8232,36722.8389,39259.7616,5931.2135,50199.7322,44106.5133,55912.0774,474.1251,-675.6932,26021.719
56601.8075,28060.6449,53955.7189,42167.4997,36688.4172,39248.4516,5926.2961,50173.3124,44083.7145,55905.059,452.891,-694.7815,26013.5829
56589.7375,28061.0025,53953.5284,42161.7776,36675.2744,39244.92,5926.4302,50167.7245,44085.7261,55903.3155,447.9736,-699.0284,26014.4323
56603.9532,28066.0093,53952.232,42168.3043,36693.871,39252.2067,5923.301,50195.4406,44105.3063,55909.0376,463.0834,-688.076,26016.444
56610.7482,28072.8042,53949.5051,42174.5628,36710.6795,39259.8063,5919.1883,50212.3386,44118.4044,55915.2961,470.5489,-680.2082,26017.1145
56600.5111,28081.3426,53953.3943,42173.2664,36711.5289,39256.8558,5925.6256,50211.0869,44121.5783,55920.0794,463.9775,-678.9118,26017.4274
56571.4091,28068.3339,53954.8248,42155.2956,36684.3045,39243.9812,5921.6022,50189.9868,44102.4005,55911.8986,438.72,-695.3627,26012.5548
56568.9504,28059.4379,53958.1329,42154.5357,36674.7826,39240.2261,5919.9929,50182.9237,44094.8904,55905.7742,432.8191,-702.2023,26011.6607
56598.5441,28067.9315,53961.128,42167.455,36701.3365,39246.3505,5926.2514,50202.5038,44104.591,55910.781,450.3429,-688.2995,26015.1476
56611.7316,28077.8557,53965.6878,42174.0711,36721.4531,39259.9404,5933.8957,50223.8721,44110.3131,55918.4253,464.7821,-670.3734,26019.9308
56605.0708,28076.2017,53965.956,42174.1158,36711.5289,39258.5546,5936.2203,50219.7593,44110.8048,55913.0162,460.3565,-676.5425,26018.0533
56587.413,28067.7974,53962.8267,42164.1022,36683.6786,39246.3058,5929.9618,50184.5777,44093.4598,55901.438,439.3458,-693.8875,26009.962
56590.0505,28066.6798,53965.4195,42159.8554,36678.3589,39246.3505,5929.8724,50177.0675,44088.4531,55904.9696,435.8143,-699.4754,26011.4372
56613.1175,28081.879,53970.9628,42172.3723,36708.3102,39260.2086,5935.3709,50210.8634,44108.212,55917.2183,455.752,-679.5377,26022.7025
56622.8628,28096.0053,53975.3884,42186.9457,36733.076,39276.436,5940.9589,50240.8147,44126.9428,55926.2931,469.9677,-661.2539,26031.9561
56619.7783,28094.6195,53975.8354,42184.9787,36723.5988,39276.436,5944.9375,50250.6942,44129.625,55926.5614,467.8667,-663.3997,26031.2408
56609.5412,28093.189,53975.1649,42182.5647,36704.2869,39274.9608,5947.575,50237.909,44117.555,55913.642,456.8696,-677.079,26025.7423
56608.8259,28099.224,53973.9132,42192.5336,36704.6893,39284.0356,5949.8549,50232.4551,44120.2372,55915.9219,459.1495,-682.9798,26026.7258
56626.8414,28108.7011,53977.8024,42205.4529,36733.8806,39295.122,5953.7441,50255.2092,44138.521,55927.1425,480.7413,-669.2559,26033.923
56646.6898,28113.9314,53976.9977,42213.9913,36747.694,39298.1172,5952.2241,50267.6815,44143.1254,55929.5565,494.6887,-659.6893,26032.8948
56638.509,28109.8187,53971.678,42204.6483,36735.1323,39297.536,5944.9822,50262.2724,44139.1915,55920.437,483.7811,-665.769,26028.0669
56611.2399,28103.5602,53966.5818,42187.348,36713.8088,39293.6021,5941.5847,50236.5232,44117.108,55910.0211,459.7306,-682.2199,26018.1427
56606.6802,28108.567,53969.9793,42188.3762,36705.4939,39295.8373,5942.5682,50224.0956,44115.4093,55905.3272,455.0368,-685.3938,26022.166
56636.6762,28116.7477,53971.5439,42200.4908,36732.7631,39303.1687,5944.6692,50247.5202,44136.1517,55911.1387,475.1086,-671.9828,26028.5586
56658.0445,28121.7992,53968.4594,42211.622,36758.4676,39313.4952,5944.2669,50268.352,44155.9106,55919.6323,489.9055,-665.2325,26032.1349
56646.3321,28113.7079,53967.2077,42206.8387,36749.5716,39307.7284,5942.0317,50271.1684,44151.7979,55920.6605,480.1601,-668.4959,26030.615
56620.7618,28096.05,53964.6596,42189.1361,36724.8505,39296.329,5937.9637,50249.1742,44138.968,55913.4185,459.0601,-679.5377,26024.8482
56622.1476,28093.2337,53969.0405,42191.8184,36722.2577,39300.5759,5940.0201,50239.6077,44140.8902,55911.3622,458.7919,-682.6222,26024.1777
56640.9677,28101.6827,53974.539,42201.3402,36738.4851,39305.1803,5944.401,50266.8768,44145.5841,55918.3806,477.4332,-667.8253,26027.3963
56653.6635,28104.6778,53974.1367,42203.9777,36752.7455,39302.9004,5944.9822,50285.4288,44152.5578,55926.2931,490.5313,-660.2257,26027.6198
56637.9279,28097.5699,53972.3486,42194.4112,36742.9554,39291.501,5942.0317,50266.8768,44151.5744,55924.1921,483.2,-668.0489,26027.1728
56619.1524,28092.3396,53972.7956,42178.3626,36722.526,39277.9559,5941.4506,50240.1441,44137.001,55918.3359,467.2855,-680.5658,26027.0834
56617.6325,28094.396,53972.3486,42179.6143,36721.8554,39277.5983,5943.1493,50229.9964,44132.1284,55918.3359,463.5304,-683.9186,26027.9775
56643.5158,28100.0286,53974.4049,42188.6444,36747.7387,39282.8733,5945.1163,50259.7243,44150.5909,55929.78,479.266,-667.0207,26034.7724
56656.7034,28100.2522,53975.4778,42196.0205,36757.6182,39287.746,5947.3068,50281.9866,44162.0797,55936.5302,490.2184,-651.3745,26035.89
56654.4235,28100.2969,53974.9861,42196.6463,36747.9622,39285.2426,5946.5915,50274.9234,44155.4189,55927.1872,480.7413,-658.08,26030.615
56638.062,28091.9373,53971.7674,42178.4073,36722.3024,39274.3796,5940.1095,50242.5134,44139.2362,55920.1688,455.2603,-678.3754,26022.0319
56628.4955,28088.6739,53973.5109,42170.9865,36711.0819,39271.3398,5939.3495,50235.3609,44137.7163,55927.366,448.5101,-685.662,26023.1942
56643.9182,28092.1608,53977.5789,42180.3296,36738.4404,39276.883,5944.6692,50266.6533,44161.7668,55936.7537,468.6266,-667.9595,26029.2292
56651.3389,28095.5136,53975.6119,42186.3645,36757.5735,39280.6828,5946.4127,50280.1538,44176.0272,55944.2192,484.094,-658.8399,26030.4809
56635.1116,28083.9801,53968.7276,42182.4753,36746.9788,39273.262,5943.8199,50266.9662,44166.2818,55942.1182,474.3934,-666.6183,26025.8764
56609.1835,28073.8324,53965.7772,42168.0361,36724.4482,39267.4953,5938.0084,50246.6708,44151.7532,55931.6128,454.0533,-677.1237,26022.6578
56606.8143,28067.708,53965.5983,42158.0225,36713.0935,39266.333,5935.8627,50239.7418,44150.5909,55928.2601,444.8444,-677.4813,26019.7073
56622.9075,28072.8489,53964.6596,42163.074,36734.9088,39276.4807,5940.0201,50260.9313,44162.9291,55931.9258,460.7141,-665.9031,26022.3895
56632.2058,28082.2366,53960.8598,42174.5628,36759.5851,39280.1464,5941.8976,50283.73,44159.7998,55932.2834,473.991,-662.0586,26023.5965
56629.6577,28081.5661,53962.8714,42176.6639,36750.7786,39276.7936,5942.7023,50285.4735,44163.7784,55932.954,471.577,-664.3832,26024.9823
56606.2778,28075.0841,53965.4642,42171.6124,36726.4152,39274.2902,5944.714,50270.4531,44147.9534,55931.2552,460.2671,-675.2908,26024.6247
56597.5606,28071.6866,53967.163,42170.5395,36715.8204,39275.8548,5947.7091,50256.6844,44147.104,55935.9938,457.2272,-676.9449,26028.0222
56614.7715,28075.0841,53965.7325,42178.5861,36739.8262,39283.5885,5950.5254,50277.3821,44166.6842,55943.8616,475.7792,-661.8798,26031.7773
56635.9609,28091.0432,53967.3418,42195.5734,36765.0837,39293.468,5958.5273,50296.694,44179.4693,55951.9082,490.0843,-648.5134,26037.9463
56636.4527,28102.1744,53977.4001,42202.9048,36767.9,39298.7877,5965.2328,50299.421,44185.3702,55955.4398,493.3476,-647.7088,26042.9978
56613.1175,28093.8148,53977.8024,42188.9126,36746.3976,39293.5574,5963.7129,50277.1586,44172.8532,55945.7392,478.2379,-661.2539,26035.8006
56604.6238,28092.742,53981.3787,42189.9408,36741.4802,39292.8421,5965.1881,50271.2578,44166.9971,55942.4311,479.1766,-659.6446,26034.3254
56634.2175,28100.7886,53986.1172,42203.3519,36764.9943,39303.7945,5970.0161,50300.0915,44177.2789,55955.2163,494.5993,-641.7632,26042.9978
56644.1864,28106.7342,53986.8772,42211.5773,36783.5462,39313.5399,5970.9549,50323.2032,44192.4334,55960.0443,504.5235,-629.6039,26042.819
56627.6461,28105.3483,53984.2397,42200.1332,36761.9544,39305.8062,5967.1551,50316.5871,44178.8435,55954.6351,492.2748,-642.7914,26037.7675
56611.7316,28093.4572,53983.6138,42186.0963,36729.6338,39299.2795,5966.0375,50280.869,44164.6725,55946.5438,471.3088,-662.8186,26033.6548
56603.1039,28083.8907,53981.021,42182.3412,36719.9332,39292.0375,5964.3835,50267.5474,44167.5335,55946.0968,469.5654,-668.8982,26032.6713
56624.2486,28090.9985,53978.1153,42195.797,36748.1858,39302.9898,5962.4612,50286.4569,44177.0554,55947.2144,480.5624,-653.0732,26034.683
56637.2126,28095.8265,53977.9365,42202.0555,36769.2411,39308.6225,5960.8966,50312.4297,44188.8124,55957.0044,491.3807,-642.2102,26040.2709
56627.6014,28094.396,53974.0026,42198.0768,36756.7241,39302.7663,5959.8237,50309.4345,44188.7677,55957.4515,485.8822,-649.5863,26038.5722
56617.3643,28085.4553,53966.8947,42186.0516,36731.4219,39290.9199,5955.4428,50283.7747,44161.6327,55945.7839,466.0338,-665.9478,26028.4245
56611.5975,28078.9286,53965.5089,42176.351,36729.1868,39281.9792,5950.7489,50265.4016,44157.4752,55938.5866,460.1777,-671.9828,26025.7423
56626.7073,28084.0695,53961.3068,42182.073,36756.7241,39289.5341,5950.5254,50290.1226,44175.9825,55944.2639,471.9794,-662.7738,26026.9493
56640.5207,28087.5564,53960.5021,42186.4986,36769.554,39292.1716,5950.1231,50305.6347,44182.4645,55949.0472,478.2379,-655.4425,26028.9609
56629.4342,28084.6506,53962.1115,42179.7037,36761.0157,39282.8286,5948.8267,50304.9642,44179.067,55946.4544,468.4478,-665.5008,26028.4245
56610.7929,28084.0695,53962.782,42172.8641,36740.4073,39274.4243,5946.4127,50289.6756,44168.7852,55939.5254,451.6393,-677.9283,26022.166
56600.5111,28082.639,53965.643,42170.8971,36730.215,39269.3728,5946.368,50282.076,44167.8464,55940.2853,451.1923,-681.1917,26019.1262
56618.7501,28081.6555,53967.2524,42182.833,36751.5832,39278.09,5948.6032,50303.8466,44187.0242,55951.1483,465.9891,-671.491,26023.6412
56636.2739,28086.2153,53969.8005,42195.6629,36772.2362,39284.9296,5954.1911,50324.8125,44199.8541,55959.1949,479.4896,-660.3599,26031.4196
56630.4177,28086.3047,53969.8899,42195.3052,36762.5356,39287.9248,5957.9015,50325.2149,44193.2827,55957.3174,477.0309,-664.6067,26031.4196
56617.3196,28087.4223,53969.7111,42188.1527,36738.9321,39285.9578,5958.9297,50307.557,44183.8056,55949.7178,467.7773,-671.4016,26027.5304
56614.1903,28087.7799,53973.5556,42179.659,36731.6455,39283.1415,5953.8782,50300.4938,44185.9066,55952.2659,460.4012,-677.526,26025.6082
56635.9609,28096.0947,53974.5837,42191.1031,36754.936,39293.1104,5954.951,50313.1002,44198.9154,55961.296,470.2359,-661.5222,26029.8997
56652.0095,28105.8848,53979.5458,42201.2508,36781.4004,39299.6371,5962.953,50331.3392,44213.444,55970.1473,486.2398,-644.4007,26037.0523
56653.0377,28107.0024,53982.6751,42196.8699,36771.9233,39306.5214,5965.9481,50339.52,44211.2982,55969.3426,487.1786,-644.1325,26039.7792
56643.0688,28107.8517,53982.541,42191.7289,36755.3383,39304.778,5967.2892,50328.4335,44203.1175,55963.8888,477.2991,-649.8992,26037.1417
56636.3633,28105.9295,53982.541,42189.3597,36748.7669,39305.0462,5966.3057,50321.4151,44198.6918,55960.4913,464.8715,-656.2024,26035.89
56660.1455,28109.2376,53991.3028,42197.3616,36779.7464,39316.2668,5975.2464,50343.5433,44220.1048,55974.6623,484.854,-638.7681,26045.993
56673.0201,28113.0821,53990.5876,42208.0904,36799.5054,39319.5301,5978.1075,50359.1448,44233.8735,55979.1774,504.747,-630.185,26051.2233
56661.7101,28113.395,53989.023,42210.5491,36791.0564,39317.742,5974.8888,50349.1312,44224.2175,55975.2882,498.7568,-637.6952,26046.887
56641.0571,28112.188,53990.1406,42198.7921,36763.1614,39310.2318,5970.5526,50329.9534,44209.4654,55970.9072,484.094,-650.7039,26044.2048
56629.0766,28103.4708,53982.3174,42188.108,36746.1741,39310.0083,5965.9481,50325.0808,44200.5247,55962.6371,470.8171,-657.5435,26039.511
56651.1154,28108.12,53980.1717,42206.3023,36766.2907,39314.2104,5972.6536,50348.0136,44218.8084,55965.811,485.7928,-644.1772,26040.9862
56666.1358,28107.1365,53979.4117,42214.2148,36785.2002,39316.9373,5973.4136,50370.6783,44226.855,55970.9966,492.7218,-635.1024,26043.6237
56657.061,28103.7837,53979.0094,42212.7843,36786.4072,39315.5068,5968.675,50367.6832,44221.4906,55971.3542,489.0561,-644.7583,26040.9862
56637.2573,28098.6428,53977.1318,42206.9728,36767.6765,39308.5778,5966.261,50344.6162,44212.7734,55959.776,478.819,-662.7738,26033.2078
56628.1825,28094.7089,53982.3622,42199.0156,36753.2372,39310.2765,5965.4117,50336.0778,44205.5315,55956.0657,472.5605,-665.9478,26033.7442
56644.0523,28098.3746,53985.9384,42203.486,36773.2644,39316.6244,5965.367,50354.5403,44220.1048,55965.9898,482.9764,-650.7933,26036.8735
56660.9949,28102.7108,53986.1172,42217.1205,36789.76,39319.9772,5967.3786,50372.8688,44224.3069,55970.9966,495.2699,-636.9799,26039.958
56648.5226,28100.6545,53983.4797,42214.7959,36787.7036,39315.9986,5967.021,50368.4878,44226.1398,55963.5311,488.8773,-642.2997,26036.1582
56618.2584,28085.7235,53977.1318,42197.1828,36755.9195,39303.8839,5957.0074,50331.4286,44209.5101,55958.3902,469.8336,-658.9293,26030.6597
56618.4372,28084.2036,53976.7295,42194.0088,36749.8845,39303.7051,5957.9462,50329.9534,44205.8444,55962.19,465.5421,-661.0304,26029.408
56642.0406,28094.3066,53980.1717,42209.8786,36776.9301,39311.7964,5965.1434,50364.6433,44220.7307,55972.7848,481.0542,-649.0499,26038.7063
56652.7694,28098.4193,53978.1153,42220.7862,36799.7289,39317.8314,5966.9316,50387.6656,44231.236,55977.4339,494.7782,-642.0314,26042.7296
56641.7277,28088.4504,53978.6518,42210.9514,36786.9884,39313.7187,5965.1434,50376.8474,44226.3633,55974.0812,485.9716,-648.3793,26039.511
56625.4556,28083.2201,53984.0162,42198.0768,36762.1779,39306.0297,5962.1036,50362.6317,44215.8133,55970.4155,470.2359,-662.2821,26037.4099
56618.3478,28077.4087,53985.6255,42191.2372,36751.9408,39307.8178,5961.1648,50349.0418,44207.0067,55964.1123,466.9279,-669.9264,26034.3254
56631.9823,28082.0578,53984.5079,42197.4063,36764.3237,39313.4952,5957.4991,50364.7774,44219.6131,55965.1405,480.3836,-657.6777,26033.3866
56654.7811,28094.3066,53988.8889,42211.175,36782.2051,39323.5534,5961.2989,50402.1943,44235.304,55975.0199,493.9288,-645.2948,26038.751
56641.1465,28086.5729,53986.1619,42201.7872,36773.2197,39319.9325,5954.504,50393.6112,44227.3468,55975.9587,479.4896,-653.5202,26035.7559
56617.9454,28071.9548,53981.6916,42185.7387,36743.3131,39305.4038,5945.4739,50355.1215,44211.9241,55960.3125,459.1048,-672.2957,26029.0504
56611.7316,28072.1337,53982.9433,42187.9739,36732.8972,39302.9898,5946.368,50340.8611,44206.3361,55959.1949,459.6412,-676.766,26027.3963
56630.4177,28074.7712,53982.9433,42194.9923,36754.8913,39311.0365,5950.0337,50363.7046,44226.855,55969.3426,476.8521,-660.7175,26032.6713
56647.0474,28077.9898,53980.6634,42203.3519,36773.8903,39313.3163,5954.4146,50389.722,44238.0309,55972.9636,489.0561,-648.8264,26035.2641
56650.1319,28082.1472,53987.4136,42207.5093,36779.5229,39317.6973,5957.7227,50392.583,44235.1699,55970.6837,489.7714,-648.5134,26038.3487
56634.6645,28075.1735,53989.7829,42200.4908,36763.519,39318.8149,5956.5604,50370.0972,44225.7375,55962.95,473.7675,-659.8234,26035.7559
56632.1611,28076.2464,53992.6887,42199.6862,36756.9029,39312.6011,5957.9015,50362.2741,44223.7705,55961.3854,467.4643,-667.5571,26035.8006
56653.6635,28083.9801,53993.1804,42212.9631,36775.2761,39326.2804,5964.5176,50389.722,44240.4002,55968.4038,487.4915,-654.3249,26044.9201
56662.3807,28087.7799,53988.2183,42224.0943,36786.2731,39331.6448,5966.7528,50407.961,44256.1358,55978.5515,503.7189,-640.3774,26049.7481
56648.9697,28075.1288,53981.8704,42214.8854,36775.4996,39316.4009,5959.1979,50401.1214,44242.9483,55967.3309,490.6654,-650.1675,26043.6237
56632.7423,28066.9928,53975.9696,42194.277,36750.555,39308.086,5952.9841,50376.9368,44224.6646,55956.2445,471.3535,-670.597,26034.1465
56627.959,28063.0141,53975.5672,42187.8397,36740.0497,39307.1473,5952.85,50365.8503,44218.272,55955.4398,459.6859,-678.0177,26032.3137
56642.5323,28065.9199,53977.713,42200.6696,36766.7377,39317.4738,5954.4593,50386.4586,44236.7792,55962.8606,473.8122,-663.3997,26038.7063
56658.4915,28071.3737,53980.2611,42208.5375,36784.932,39319.8878,5956.6498,50398.9756,44251.3525,55968.0462,486.3739,-651.5086,26041.612
56642.4876,28065.3387,53976.7742,42207.7328,36777.8689,39313.361,5953.9229,50394.1923,44243.8871,55962.503,477.165,-657.0071,26037.7675
56617.6772,28056.9792,53975.4778,42197.3616,36748.454,39300.4417,5947.9773,50368.1302,44219.9707,55947.6167,460.9376,-675.4249,26027.0834
56599.0359,28045.848,53970.471,42182.4306,36734.1042,39299.5924,5943.3728,50363.5705,44213.0417,55941.2241,453.2039,-682.2646,26022.4789
56625.6791,28055.5934,53971.678,42199.9097,36760.7474,39313.7634,5947.0832,50390.6161,44238.0309,55957.4962,477.3438,-659.9128,26030.8385
56645.9745,28067.1269,53969.4428,42209.0739,36778.3606,39317.6526,5948.2902,50409.1233,44243.3059,55959.0608,491.6936,-651.3745,26033.923
56632.787,28063.193,53968.2359,42205.0059,36771.4316,39312.6905,5946.1892,50400.2273,44234.2758,55955.3057,483.647,-659.0188,26032.6713
56615.2632,28055.8169,53967.8782,42193.5171,36753.9525,39306.1191,5943.0152,50377.0262,44220.7307,55949.8519,463.2175,-670.1499,26028.8715
56609.1388,28052.7323,53967.4312,42194.8135,36748.3199,39309.3824,5945.161,50379.6637,44219.1213,55951.8188,456.6461,-673.4133,26027.6198
56633.234,28066.5904,53973.5556,42210.6385,36768.5258,39320.0219,5952.9394,50408.2739,44243.44,55961.6536,475.3321,-656.7836,26037.0076
56652.6353,28076.157,53979.0541,42221.8144,36792.4422,39325.6098,5954.7722,50427.8988,44255.6441,55969.2532,487.8938,-648.8264,26040.4497
56642.5771,28076.0676,53977.3554,42217.4335,36789.9835,39320.0666,5952.1794,50421.5509,44252.5148,55967.2415,478.0143,-653.0285,26039.1533
56620.8065,28067.708,53976.3719,42204.9612,36759.8087,39307.5943,5951.1065,50397.9921,44237.5392,55959.1055,462.7258,-667.423,26031.5537
56617.8113,28059.0802,53976.953,42198.4792,36749.1245,39306.5661,5950.1231,50394.8629,44228.5091,55954.3669,463.3516,-671.2675,26030.7491
56637.1232,28067.4398,53977.4001,42211.7561,36773.3538,39317.0714,5958.9297,50415.9182,44245.8987,55960.6701,483.8258,-651.2851,26037.3205
56654.8705,28073.9665,53977.266,42221.6803,36790.207,39325.3416,5958.5273,50434.2467,44264.0036,55971.1307,489.9502,-639.3492,26039.9133
56646.2427,28076.3358,53975.8801,42212.3373,36776.8407,39325.2522,5955.0405,50424.1437,44257.924,55968.672,474.0804,-649.0052,26036.337
56624.8298,28071.7313,53976.953,42199.4627,36747.9622,39313.4058,5955.0405,50401.3449,44249.7432,55963.6652,459.6412,-663.0421,26033.476
56616.0679,28062.2989,53974.3155,42189.7173,36731.4219,39305.5379,5950.1678,50390.6161,44243.8871,55958.569,453.0251,-672.3851,26028.648
56630.5518,28073.0277,53977.8918,42202.0555,36760.0769,39314.9257,5954.5487,50413.7278,44259.3992,55966.5263,468.1796,-654.906,26036.2029
56642.1747,28088.7187,53983.7033,42216.6735,36780.6405,39327.9344,5959.0191,50441.4886,44265.7918,55973.7682,483.8705,-643.5961,26042.0144
56646.3768,28085.7682,53986.609,42216.9417,36769.7775,39327.2638,5959.7343,50436.7501,44270.3962,55975.9587,487.4021,-643.9537,26044.5178
56632.5188,28077.0063,53987.9948,42203.0389,36747.9175,39315.9091,5955.7557,50422.5343,44257.611,55970.0131,469.1184,-656.3812,26039.4216
56624.8298,28079.1968,53990.5876,42198.1663,36741.3908,39311.6176,5955.6216,50412.3867,44247.7763,55969.4767,461.2505,-661.2539,26039.511
56647.8521,28091.7138,53990.9452,42208.0904,36760.5239,39319.6195,5958.2144,50431.1621,44261.0979,55977.9704,479.5343,-649.4969,26044.6519
56665.3758,28093.3678,53987.1007,42219.0875,36778.5394,39326.2804,5957.8121,50445.8696,44268.8316,55980.9655,494.5546,-637.4717,26044.026
56660.0114,28090.7303,53984.2844,42217.5676,36778.5841,39326.4592,5955.8451,50439.2087,44259.3098,55977.9704,486.0163,-643.5513,26040.0921
56639.2243,28084.6506,53982.3174,42204.2459,36756.8135,39318.2784,5955.1299,50427.9882,44246.3011,55974.2153,467.7773,-661.3433,26036.2923
56628.6296,28080.672,53981.9151,42197.3169,36747.1576,39310.1871,5953.3417,50414.6665,44244.5129,55970.2814,463.4857,-670.1499,26035.7112
56642.13,28083.9354,53978.9647,42208.6716,36762.9826,39317.1608,5956.5604,50427.3623,44251.5314,55971.3989,480.3389,-655.2637,26041.9697
56658.0445,28089.9256,53983.0774,42222.3955,36786.4519,39328.292,5961.9248,50455.7937,44263.7801,55977.881,499.6955,-642.4785,26049.3457
56648.3438,28093.5019,53988.2183,42218.0146,36784.0827,39327.1744,5962.8189,50461.6946,44265.1212,55981.9937,496.4769,-644.1325,26050.061
56629.4342,28092.9208,53983.5244,42206.5258,36758.5123,39319.3513,5962.7295,50451.0105,44251.3525,55972.8295,477.8802,-659.5105,26041.2097
56614.548,28085.9023,53980.0376,42198.8815,36748.3199,39317.1161,5958.2591,50442.4274,44244.647,55968.985,465.5868,-667.7359,26040.4944
56629.8813,28093.0549,53980.9763,42209.0739,36777.5112,39327.8897,5957.1415,50459.9959,44258.6392,55973.5,482.3953,-655.8448,26045.5012
56645.5275,28101.1015,53979.6799,42218.4169,36792.9786,39332.1812,5957.8568,50474.7033,44267.7587,55977.6127,490.576,-646.323,26047.3341
56639.8501,28093.7254,53977.8471,42211.3538,36778.7629,39322.4359,5954.7722,50460.4876,44262.6625,55972.6506,480.4283,-652.3579,26041.4332
56622.684,28084.8742,53978.16,42203.7095,36758.0205,39318.2337,5953.2076,50436.5712,44249.028,55962.6371,464.8268,-668.0936,26037.0076
56615.1291,28076.3358,53976.1484,42197.451,36744.1624,39310.0083,5947.575,50419.4051,44245.4517,55961.5642,456.3779,-677.079,26032.6713
56628.1825,28081.8343,53977.9812,42209.7445,36762.5356,39314.3892,5950.6595,50440.7734,44259.6227,55975.9587,468.6266,-660.494,26034.8618
56643.5158,28080.672,53978.92,42215.69,36776.5278,39315.2386,5948.8267,50451.9045,44264.853,55974.6176,476.2709,-656.9177,26037.8122
56638.2408,28082.3261,53981.2893,42210.6832,36778.3159,39310.3212,5949.2737,50448.8647,44270.2621,55974.8411,478.6849,-659.0635,26041.2991
56614.548,28075.9782,53983.2562,42200.0438,36749.5269,39308.8013,5949.2737,50431.4303,44258.6392,55968.4932,461.4741,-673.5921,26035.3535
56602.478,28073.8771,53981.0658,42197.2722,36739.7815,39306.2979,5951.2854,50422.9367,44248.2233,55962.7265,454.3215,-680.2976,26030.0785
56630.5071,28083.8907,53986.1172,42214.7512,36768.5258,39320.6924,5956.6945,50458.0289,44265.2553,55968.1356,475.4215,-659.6893,26037.1417
56652.233,28092.9208,53987.6372,42228.1176,36789.76,39337.1433,5960.3155,50485.3427,44277.7276,55978.4174,489.4584,-645.3395,26042.1485
56642.3982,28094.7089,53986.1172,42228.4752,36785.2002,39336.5622,5955.8898,50490.8413,44271.4691,55980.0714,484.4964,-647.1276,26039.511
56617.4537,28082.2366,53984.8655,42207.7328,36755.83,39328.0238,5948.5137,50468.6236,44263.1543,55973.4106,466.2573,-664.9196,26033.923
56600.7793,28073.3407,53982.4069,42197.3169,36742.2849,39315.9539,5947.0832,50459.0571,44257.7451,55966.9286,457.9872,-672.1616,26029.3633
56621.2535,28078.5263,53982.8986,42212.1137,36772.9068,39320.4242,5950.6148,50481.8559,44268.1611,55974.7517,472.8734,-659.5999,26034.7724
56643.9629,28074.4135,53978.6071,42218.7746,36783.9038,39320.2007,5951.7324,50488.4273,44276.2524,55982.7089,486.2845,-648.9158,26040.0921
56641.5489,28079.4203,53980.1717,42219.0875,36772.3256,39316.9373,5952.7606,50477.9667,44271.9162,55983.2901,486.6421,-649.4075,26042.9531
56622.1476,28070.7031,53981.7363,42204.9165,36749.3033,39303.4816,5949.7654,50449.6247,44257.3875,55975.7352,468.6713,-667.2442,26037.1417
56617.4537,28069.9432,53982.2727,42199.6862,36742.419,39301.7828,5946.815,50439.6558,44260.4274,55969.1191,463.9328,-672.9215,26032.4478
56644.097,28086.3047,53985.9831,42215.5112,36768.7941,39319.8431,5951.6877,50467.7296,44277.3253,55976.4057,483.5576,-657.0071,26039.0639
56663.4983,28098.5534,53985.849,42226.8212,36789.2236,39330.706,5955.8004,50491.4224,44286.3554,55983.7371,496.7004,-647.0382,26043.1767
56652.1883,28098.017,53981.9598,42222.7085,36778.2712,39328.3367,5954.2805,50488.6955,44279.6052,55982.7536,492.0512,-654.3249,26040.718
56630.6412,28089.1657,53981.0658,42208.4928,36753.8631,39320.3348,5949.676,50471.7082,44258.9074,55975.8246,471.3982,-669.39,26038.1699
56626.7967,28085.053,53978.2494,42199.5968,36739.5133,39317.0267,5943.6411,50450.6081,44248.9833,55967.5097,463.4857,-677.3472,26034.8171
56643.9629,28089.7468,53973.3768,42208.3139,36756.2771,39322.7935,5940.6012,50466.3885,44256.0464,55967.3309,476.1368,-667.9147,26035.3088
56654.4235,28095.0665,53971.9909,42220.5627,36774.0244,39330.4378,5939.9754,50486.4156,44267.4458,55973.0083,492.8559,-657.32,26044.2048
56648.165,28085.5447,53969.4875,42216.9864,36764.0555,39327.3979,5938.2319,50482.6605,44263.8695,55972.5165,485.6139,-662.5503,26044.3836
56627.2885,28081.5661,53971.231,42202.6366,36741.0332,39320.4689,5937.7849,50451.8598,44256.0464,55965.2299,470.8618,-675.8273,26039.6004
56619.823,28076.5146,53972.5274,42193.2042,36725.7893,39321.2289,5939.9307,50455.2126,44245.8987,55964.2017,459.4177,-676.0955,26036.4711
56643.7393,28082.8625,53978.6071,42207.1517,36753.0137,39331.2424,5948.4243,50490.886,44261.6343,55971.3542,478.2826,-655.219,26044.6519
56654.4682,28089.8362,53979.9482,42217.8805,36775.3208,39330.3484,5950.2125,50497.9044,44268.7869,55974.0365,494.3758,-642.9255,26047.3341
56637.7491,28092.2949,53978.2494,42211.9796,36765.1731,39323.017,5952.0453,50485.3427,44253.9454,55971.7119,488.7432,-646.7253,26044.9201
56618.616,28079.9121,53973.5556,42192.176,36737.0993,39307.7731,5949.5419,50463.7957,44231.9959,55960.6254,469.7889,-666.7972,26036.4711
56610.167,28075.844,53977.713,42193.7853,36737.6804,39306.0744,5952.5371,50452.0386,44222.2059,55958.2114,467.1961,-671.2675,26031.7773
56618.9289,28087.914,53981.5575,42200.5355,36763.4743,39317.3397,5957.7674,50465.4497,44233.9629,55966.7945,480.1601,-659.0188,26034.7724
56628.719,28094.0384,53982.8539,42206.0788,36782.6521,39318.0996,5964.4729,50472.6022,44243.0377,55971.1307,490.4866,-650.8827,26039.8686
56625.4556,28095.4242,53983.3009,42206.2576,36775.9019,39311.5729,5969.0326,50451.5916,44232.4877,55969.2532,483.7364,-654.1461,26041.165
56598.0077,28089.0763,53981.9598,42189.0467,36751.7173,39303.0345,5967.7362,50426.0659,44208.1243,55966.258,468.4031,-666.6631,26037.6781
56582.0038,28087.0199,53982.6304,42187.1692,36739.4686,39301.6487,5968.3174,50399.2438,44191.584,55955.6186,460.0435,-671.3122,26038.0358
56591.7045,28103.3367,53986.8772,42200.8038,36766.9165,39310.3212,5973.8606,50412.5208,44201.0164,55963.6652,482.7976,-655.8001,26048.5858
56600.6452,28114.1549,53989.023,42205.8105,36786.0049,39309.5165,5979.2697,50425.2613,44203.8774,55961.6983,501.0366,-647.7535,26050.8657
56596.6666,28116.7477,53987.6372,42203.6201,36782.831,39308.8013,5984.0977,50404.1612,44198.4683,55963.1288,496.5663,-651.5533,26051.8938
56573.9125,28117.5077,53985.4467,42186.7222,36757.797,39302.4534,5983.0695,50376.7133,44182.4198,55958.882,476.405,-665.9478,26045.4118
56563.2284,28114.1996,53985.3573,42185.9175,36740.9438,39298.8324,5982.0414,50362.4082,44167.5335,55953.3834,464.7374,-673.1898,26042.819
56573.8678,28115.5854,53983.3903,42192.9806,36756.3665,39302.2299,5980.8791,50367.3702,44177.3236,55955.4845,476.0474,-660.8963,26044.7413
56587.9494,28116.9713,53982.8539,42199.1497,36771.1633,39307.0132,5977.7945,50379.6637,44181.5704,55955.261,490.2184,-651.0168,26048.0493
56574.8513,28108.0753,53978.7859,42191.6395,36756.7241,39302.7216,5969.9714,50358.6531,44169.0981,55941.6264,483.5576,-663.6232,26042.9531
56551.1584,28104.3202,53971.0075,42178.0497,36725.387,39291.6799,5965.0987,50318.5987,44150.6803,55929.4671,465.095,-678.9118,26036.0241
56547.0457,28101.325,53969.1746,42177.245,36720.8272,39288.5506,5965.8587,50299.5104,44142.8572,55926.1143,464.3798,-681.6387,26032.6713
56566.2682,28103.7837,53970.9628,42189.8961,36745.9953,39297.536,5967.0657,50317.7047,44154.8824,55930.8976,481.8141,-666.4842,26035.3982
56582.585,28108.6564,53968.5488,42199.5968,36768.5258,39297.8936,5966.0822,50342.9174,44159.7551,55935.3232,486.061,-662.6397,26037.0076
56568.5481,28103.2473,53964.3019,42189.4938,36752.2538,39290.607,5958.0356,50331.0263,44149.7415,55928.8859,476.2709,-671.9828,26029.855
56550.2644,28092.2949,53965.3748,42179.4802,36725.5211,39282.1133,5958.6614,50305.1877,44137.6269,55923.0745,468.4925,-682.4881,26025.9658
56548.1633,28082.1919,53968.2806,42175.4122,36716.938,39279.0735,5958.6614,50284.7582,44126.5851,55917.7548,464.201,-687.4949,26024.9823
56569.3974,28089.1657,53970.9628,42187.0351,36732.3607,39288.2377,5963.847,50310.3733,44145.6735,55928.9753,481.1436,-669.5688,26032.4478
56582.9426,28092.8314,53969.0405,42199.5968,36742.5978,39292.5739,5964.16,50324.9019,44156.4918,55934.0268,493.5712,-659.287,26035.4429
56571.3197,28091.4009,53968.5488,42192.7571,36736.5628,39284.7955,5959.779,50310.8203,44147.9087,55927.9025,478.819,-668.7641,26032.4478
56549.7279,28082.639,53966.85,42177.0215,36705.0916,39273.3961,5951.1513,50276.041,44130.072,55919.5876,457.1825,-685.1703,26021.8531
56546.241,28075.1288,53969.0852,42173.0876,36694.3181,39269.954,5952.7159,50257.5338,44119.7902,55921.3758,453.7404,-691.3841,26021.6296
56571.722,28085.0977,53971.7227,42185.7834,36720.0226,39273.1279,5958.2591,50271.3919,44138.521,55932.9987,474.9745,-673.8603,26031.4196
56588.5305,28090.9538,53971.231,42196.691,36736.4287,39277.4194,5958.2144,50282.2101,44149.4286,55932.2834,490.2184,-664.3385,26034.8171
56589.8269,28088.8975,53973.332,42193.8747,36728.7844,39276.2125,5957.3203,50286.8593,44146.657,55928.2601,481.233,-671.8487,26029.0056
56590.5422,28093.0102,53976.4613,42187.5268,36712.4677,39275.9889,5963.1318,50272.8224,44137.3587,55925.1755,467.6431,-680.2082,26027.0834
56582.3615,28086.1259,53974.852,42177.3791,36700.8895,39271.9209,5961.6566,50258.6961,44131.5472,55922.851,461.027,-678.0177,26025.6082
56602.3886,28088.4504,53975.3884,42185.9175,36720.7378,39281.0404,5962.64,50283.6853,44135.8835,55931.1211,475.6004,-663.6232,26032.6713
56610.8823,28092.742,53973.1085,42189.8514,36739.4686,39278.9841,5958.2144,50301.8796,44146.21,55939.2571,485.8375,-658.3929,26035.5324
56601.8075,28088.2716,53971.4992,42179.7931,36728.2033,39276.123,5954.5487,50283.9983,44144.5559,55934.9656,481.7247,-662.4162,26033.7442
56595.9513,28084.5612,53974.0473,42174.6969,36696.4638,39273.3067,5954.1911,50249.3978,44131.8601,55928.2601,466.3914,-673.905,26029.5868
56596.0854,28086.4835,53977.1765,42167.8126,36684.528,39276.7042,5951.7324,50244.6592,44128.7756,55923.3427,462.5022,-675.2014,26027.7539
56615.2632,28097.3017,53977.0871,42180.7766,36713.2276,39284.6167,5954.3699,50270.9895,44145.7182,55935.1891,479.1319,-661.0304,26031.509
56631.2224,28107.36,53976.0143,42194.4559,36739.3345,39291.501,5959.332,50297.8563,44157.7882,55940.643,490.7548,-652.2685,26036.3817
56629.166,28108.4776,53974.3602,42187.6162,36729.1868,39291.5905,5961.1648,50306.3053,44157.4752,55938.4078,484.4517,-657.9459,26035.5771
56600.7793,28102.9791,53972.0356,42173.8923,36704.8681,39288.1036,5958.3485,50288.9156,44147.5511,55933.6692,467.5984,-669.39,26029.6315
56596.4431,28094.5301,53971.1416,42174.384,36693.5134,39290.2941,5959.779,50277.6057,44145.0477,55931.2999,464.4692,-674.9779,26033.1184
56612.8492,28101.1015,53974.5837,42181.2236,36717.1168,39287.1648,5961.0307,50303.176,44161.588,55937.8266,478.4614,-662.908,26036.7841
56615.3526,28095.603,53971.4545,42190.8349,36733.8806,39277.8665,5960.3602,50311.6697,44165.5219,55937.5584,488.7432,-652.0003,26033.923
56601.0028,28082.9072,53966.4477,42185.8281,36720.5143,39266.6012,5954.1017,50294.9506,44151.7085,55930.6741,479.8472,-660.2705,26028.3351
56570.6044,28066.3222,53964.3019,42164.4598,36692.2617,39254.8442,5945.5633,50271.1236,44138.0292,55933.2669,456.3779,-677.6601,26023.373
56561.0379,28061.8519,53961.2621,42162.9846,36680.5941,39256.3641,5945.4739,50250.5153,44131.2343,55928.6624,450.6558,-683.0245,26022.2107
56590.9445,28070.6137,53960.5021,42175.7698,36699.8166,39272.6362,5949.6313,50269.9167,44147.864,55933.401,466.5703,-669.837,26026.3681
56609.1835,28081.7002,53963.4973,42189.2703,36730.9749,39285.5108,5954.6381,50301.6114,44170.6181,55943.0569,481.8141,-654.459,26033.476
56597.8736,28080.2697,53960.6363,42183.3694,36729.5444,39278.0006,5951.8665,50302.729,44165.3877,55940.8665,473.6781,-662.148,26029.9891
56579.6793,28083.533,53961.0386,42177.2897,36707.9526,39272.368,5952.8947,50286.8146,44150.9038,55934.3398,456.4226,-677.7942,26023.5965
56575.9689,28097.4805,53967.61,42179.7037,36705.628,39278.2688,5960.7178,50284.4453,44148.9816,55937.3796,458.3448,-675.9614,26026.2787
56608.066,28110.8916,53976.1037,42199.3285,36736.8311,39296.1949,5970.2843,50313.1002,44177.9494,55950.9248,481.7247,-655.0848,26036.0688
56614.548,28116.703,53976.506,42207.0622,36747.7387,39298.296,5970.1055,50333.1274,44194.2215,55949.8966,496.1193,-651.6874,26039.1533
56598.0077,28114.7808,53970.2475,42202.4578,36741.212,39296.1055,5964.7858,50327.9865,44188.723,55944.4875,486.4186,-658.5717,26035.2641
56582.1379,28108.3882,53969.0852,42197.004,36722.9283,39294.1386,5960.8966,50306.7523,44171.3333,55936.8879,466.2573,-670.284,26031.8667
56583.479,28098.7769,53970.1134,42188.4209,36716.8933,39292.708,5956.158,50303.3996,44166.6394,55936.4408,463.2622,-672.7427,26027.1728
56600.1087,28102.9344,53968.0123,42196.1099,36731.7349,39307.7731,5957.0968,50327.7183,44181.7492,55944.398,477.7014,-658.6164,26029.9891
56620.0912,28114.8702,53970.8734,42207.8222,36755.4724,39320.1113,5961.1201,50349.5783,44189.0806,55951.0589,487.4915,-652.7156,26033.923
56612.1787,28104.2308,53963.8996,42197.4957,36741.6143,39308.9354,5951.2854,50342.5151,44181.2575,55940.5088,477.3438,-661.6563,26026.7258
56594.5655,28094.7536,53962.5585,42187.8397,36716.4016,39302.3193,5950.1678,50321.8621,44169.0534,55932.0152,459.5965,-673.5027,26024.1777
56593.3585,28094.8877,53964.5255,42189.1809,36715.3734,39303.3475,5954.6828,50312.8767,44176.3848,55930.7188,455.3944,-671.7592,26025.8317
56606.546,28098.8216,53964.749,42200.8038,36742.1508,39308.4884,5956.6945,50336.9719,44188.0077,55942.6993,472.3817,-657.9459,26027.6645
56624.2933,28106.3765,53965.8666,42208.8504,36768.1682,39313.8528,5958.125,50361.6929,44202.1787,55947.2591,486.9103,-650.8827,26031.1514
56618.0795,28108.12,53962.1115,42205.0506,36758.1099,39306.1191,5953.7441,50358.0272,44185.9514,55944.8898,481.993,-662.3715,26025.027
56597.0689,28099.6263,53959.161,42193.1148,36730.3938,39292.8869,5947.9326,50332.9486,44175.8037,55941.2241,464.7374,-675.9614,26020.4226
56588.9776,28095.6477,53962.5138,42182.5647,36711.7971,39285.5555,5948.2902,50318.5987,44178.3965,55943.7275,457.3166,-679.7612,26022.8366
56616.1573,28107.2706,53965.643,42191.0584,36738.2616,39291.6352,5958.8403,50334.8708,44195.9202,55954.2775,471.0853,-664.562,26033.923
56641.3254,28119.117,53969.0852,42206.794,36767.7659,39295.882,5966.4398,50350.9194,44210.7171,55962.0559,487.6256,-650.6145,26038.6616
56635.8715,28115.9431,53971.678,42207.2858,36759.2722,39296.7314,5967.2445,50341.7104,44204.6374,55959.9549,480.9648,-652.045,26034.8171
56612.2234,28105.706,53974.852,42187.348,36731.6455,39285.8237,5966.3504,50311.1333,44187.203,55951.8635,461.9658,-664.5173,26029.0951
56599.17,28096.9888,53976.5954,42176.9768,36724.7164,39278.4923,5962.1483,50299.8233,44188.7677,55949.7178,455.7073,-667.1995,26026.994
56613.0728,28102.7108,53975.8354,42186.6775,36747.2917,39285.4214,5965.6352,50326.8689,44209.4207,55960.9383,470.2359,-651.5533,26033.3419
56622.7287,28113.1268,53972.2592,42192.6677,36762.7591,39285.8684,5968.9432,50343.7668,44214.1593,55968.0015,480.786,-646.6806,26036.3817
56613.8327,28106.1083,53965.1066,42193.5618,36756.0536,39282.6498,5968.9432,50335.899,44201.8658,55963.5758,475.0192,-655.8001,26034.5489
56598.0971,28092.3843,53963.7208,42184.7105,36737.5016,39275.4972,5962.64,50319.0458,44194.2215,55955.1716,463.7092,-666.976,26030.0785
56589.9611,28087.8693,53964.2125,42173.0876,36723.9565,39275.8101,5961.7013,50316.9,44188.1418,55954.9034,462.6364,-669.7476,26028.5586
56608.6918,28091.0432,53963.3185,42183.1906,36748.0069,39280.0122,5963.9364,50336.346,44198.7365,55962.4135,474.8851,-660.0022,26031.4196
56615.8891,28087.7352,53966.8947,42192.8912,36767.6318,39286.7178,5968.1386,50364.7774,44207.5878,55967.018,487.268,-652.9391,26036.8735
56604.1321,28086.8858,53966.3136,42189.4491,36752.2538,39282.2027,5965.9034,50353.8698,44204.8609,55961.7877,480.0707,-656.3812,26035.3088
56591.168,28083.4436,53964.6149,42182.2071,36732.6736,39279.5205,5962.2377,50331.9204,44189.5723,55945.1133,465.1397,-669.7029,26026.2787
56584.1496,28077.3193,53966.3583,42178.7649,36721.766,39286.539,5962.5506,50323.9185,44189.7511,55948.9131,461.787,-674.1732,26029.0056
56598.41,28083.6225,53970.9628,42183.8611,36739.8262,39289.4,5961.6119,50340.4588,44200.927,55960.536,470.3254,-661.6563,26031.9114
56615.0844,28088.7634,53971.7227,42195.037,36764.4578,39291.501,5963.4447,50355.6579,44213.2652,55964.6934,483.647,-649.1393,26035.2641
56602.478,28081.7449,53968.7723,42189.2703,36755.3383,39286.8519,5961.5672,50348.0136,44212.3711,55966.7051,480.0707,-655.3978,26035.0406
56587.5918,28075.4864,53971.9909,42186.7222,36730.5726,39284.8849,5963.4,50329.4617,44200.3459,55959.8655,470.9065,-668.8535,26034.236
56580.2604,28075.0841,53973.6003,42185.5152,36719.5755,39282.6945,5964.7411,50315.7377,44201.8211,55959.329,465.3186,-671.9381,26034.7724
56595.2808,28081.4767,53974.1367,42191.8631,36743.0449,39290.2941,5967.1104,50338.0448,44216.3944,55969.0297,477.4779,-658.3035,26038.5275
56619.3312,28085.9023,53977.3554,42203.486,36766.4248,39302.6322,5969.6585,50366.7444,44225.5139,55970.0578,488.9667,-646.4571,26039.9133
56614.5927,28076.8722,53977.0424,42197.9427,36758.1546,39299.19,5964.6517,50360.8882,44221.1777,55962.6818,484.094,-657.1859,26035.4429
56584.4625,28063.3271,53969.7111,42179.212,36724.7611,39285.019,5960.3602,50334.692,44200.3906,55951.8635,461.5188,-675.9614,26026.0552
56571.722,28060.6002,53969.2193,42172.5512,36715.9098,39283.0074,5958.3038,50322.175,44194.5791,55952.5788,455.4391,-676.9896,26025.2059
56583.9261,28066.5904,53968.9958,42181.5813,36735.4453,39292.6186,5960.8072,50332.4121,44202.2234,55953.3834,469.3419,-670.8652,26029.9891
56600.1981,28071.6866,53965.7325,42191.1925,36749.7504,39294.8538,5961.0307,50347.9242,44210.6724,55956.6021,480.026,-665.4114,26028.5586
56597.4712,28072.8042,53962.2456,42189.5832,36744.7883,39290.9199,5962.8189,50358.4743,44212.7734,55956.9597,473.5887,-668.8982,26028.1563
56580.1263,28063.64,53961.6197,42180.0166,36721.3637,39286.1813,5960.4496,50338.3577,44198.7813,55949.1813,460.1777,-679.4482,26025.1611
56571.8114,28061.226,53963.6314,42174.4287,36716.8039,39284.6167,5959.5555,50329.2829,44194.0874,55948.332,455.1262,-681.3258,26024.6694
56598.0077,28064.9811,53964.2125,42183.6376,36735.8476,39287.4777,5958.7508,50350.5617,44206.962,55957.4068,468.4031,-667.5124,26029.0056
56621.7452,28077.6322,53961.6197,42192.3101,36754.4889,39287.7012,5958.7061,50365.5374,44214.8298,55958.5243,482.5741,-659.9128,26030.615
56614.5927,28080.0015,53965.196,42192.6677,36753.1478,39290.2941,5962.6848,50363.8387,44208.8842,55964.604,475.511,-664.0255,26033.5654
56589.8269,28073.0277,53965.7772,42177.1109,36731.5561,39286.4943,5963.2659,50340.7717,44196.5014,55960.089,455.4838,-676.4084,26028.4692
56584.999,28073.3854,53965.5089,42172.6406,36720.2014,39281.9792,5964.9646,50330.5346,44195.2497,55958.6138,450.8793,-680.6999,26027.7987
56606.7249,28082.8625,53970.2922,42192.5336,36744.386,39293.4233,5965.9034,50351.9028,44215.9027,55970.3708,469.923,-665.1431,26033.3419
56627.959,28084.2036,53972.3486,42199.9097,36762.625,39298.296,5964.8305,50373.7628,44229.4478,55972.0695,481.0989,-654.3696,26036.7841
56628.406,28088.2716,53972.1698,42195.0817,36757.35,39298.296,5967.8704,50376.7133,44225.2904,55968.0462,472.4711,-659.9128,26034.5936
56603.3274,28077.811,53969.3534,42184.5317,36731.3325,39290.0705,5966.574,50353.8698,44220.0154,55964.0229,459.5071,-670.597,26031.2408
56588.6199,28072.7148,53964.5702,42176.7086,36720.1567,39283.1415,5961.9248,50343.8562,44212.997,55963.3076,455.4838,-677.4366,26025.5635
56607.3954,28077.9898,53961.9327,42184.6211,36742.1061,39284.7061,5959.4661,50361.1118,44223.5023,55967.5992,469.2078,-669.077,26025.1164
56626.2603,28079.8227,53962.335,42192.9359,36764.0555,39293.5127,5960.1814,50376.6686,44234.7229,55968.7167,480.5177,-658.2588,26026.5917
56614.548,28078.1686,53961.3515,42189.4938,36759.5851,39291.501,5958.885,50372.0194,44224.3069,55965.8557,471.89,-668.8088,26024.9823
56603.7744,28078.9733,53958.3564,42177.5579,36732.0925,39287.1201,5955.3087,50346.0467,44211.03,55959.776,450.7005,-688.1654,26018.9027
56599.7064,28079.1968,53964.3466,42180.7766,36727.6222,39293.2445,5960.2261,50352.7075,44204.995,55960.2231,449.8959,-690.043,26022.9707
56612.8939,28080.4485,53970.8734,42191.3713,36744.2966,39300.9782,5966.5293,50373.9417,44223.3682,55970.2814,469.6548,-670.1946,26029.855
56629.166,28090.2386,53970.1134,42207.5093,36765.486,39302.9898,5971.2678,50392.4936,44237.6733,55974.7517,484.7646,-654.2355,26033.4313
56620.4041,28095.4242,53966.8947,42201.4296,36760.6133,39300.1288,5967.9598,50391.5995,44235.1699,55968.8061,482.4847,-659.8681,26034.7277
56598.9017,28085.3659,53959.2952,42183.28,36734.3277,39288.4165,5962.8636,50372.4664,44219.3002,55958.2114,463.2622,-676.9896,26028.7374
56580.3945,28073.3407,53957.8199,42174.4287,36719.1732,39283.1415,5958.3485,50365.895,44219.2554,55961.1619,454.1427,-680.5211,26025.6976
56593.4479,28075.9335,53959.474,42186.4986,36744.833,39291.814,5959.1085,50390.4372,44230.6995,55967.1968,468.0902,-668.4065,26029.9891
56620.3594,28089.3445,53962.0668,42195.5734,36770.8057,39298.743,5961.1201,50412.2972,44243.6635,55970.8625,482.3059,-656.426,26031.4643
56615.8891,28083.6225,53960.5021,42190.0302,36758.8252,39293.8703,5960.0472,50405.7705,44240.2661,55968.7167,476.2709,-661.5669,26028.8715
56595.0125,28075.1735,53958.5799,42178.1391,36729.9914,39286.0025,5958.125,50380.2896,44227.9726,55964.2911,453.6957,-677.3472,26021.1825
56589.8269,28071.5972,53961.7985,42173.4005,36719.799,39289.847,5959.9131,50363.8834,44220.4624,55963.5758,444.0844,-685.8855,26019.3497
56611.2846,28084.5612,53964.4361,42192.3995,36750.555,39300.9782,5964.8752,50389.5879,44240.0873,55973.2318,467.1067,-666.1713,26028.9609
56625.7685,28090.8197,53960.9939,42201.0273,36770.6716,39306.1191,5964.2494,50419.4945,44252.336,55976.7187,484.4069,-658.7058,26030.4362
56611.374,28088.4057,53958.714,42198.5686,36762.0885,39298.6089,5960.6731,50413.5042,44240.1767,55973.2765,474.9745,-668.63,26024.4459
56592.9115,28077.7216,53955.406,42186.8116,36737.1887,39288.7294,5954.8616,50390.5714,44224.1728,55964.9169,454.8579,-682.9798,26017.2933
56584.239,28068.7809,53952.2767,42180.6425,36727.9798,39287.6118,5949.3184,50381.8095,44220.5966,55961.6536,451.1923,-685.3044,26016.8016
56600.6899,28065.5175,53949.7733,42186.141,36745.1906,39291.5905,5952.4477,50395.4887,44231.0125,55963.9782,464.6927,-678.5095,26019.3944
56617.6772,28075.3076,53952.7684,42192.9806,36762.1779,39295.9714,5958.0356,50420.8803,44239.1485,55972.293,472.5158,-664.562,26023.7306
56618.5713,28072.2231,53956.2106,42190.0749,36753.5949,39298.6089,5958.6167,50422.0426,44239.2826,55969.2085,469.0737,-667.2889,26020.6461
56604.9367,28065.2493,53954.4672,42183.0118,36735.177,39292.4845,5954.5934,50400.9426,44222.5188,55956.9597,456.6014,-681.3705,26014.2088
56594.9231,28058.4991,53953.1708,42173.2217,36724.0012,39289.0424,5952.7606,50393.9241,44222.8764,55960.4019,450.0747,-688.0313,26014.3876
56611.9999,28067.261,53958.3564,42192.0419,36745.5035,39299.95,5958.0356,50419.6733,44243.7977,55976.4951,468.8501,-675.3355,26024.4012
56625.7238,28072.9383,53959.474,42202.5025,36767.8106,39302.1852,5963.4894,50432.5032,44250.8161,55979.535,478.9531,-659.9575,26026.0999
56620.4935,28070.9267,53955.8977,42195.5287,36760.6133,39298.296,5959.4661,50418.4663,44242.6354,55973.8576,470.9512,-667.7359,26023.0154
56606.2778,28068.6468,53957.8199,42187.5268,36738.9321,39292.4398,5954.4593,50407.4693,44235.9746,55968.4485,458.3895,-679.4035,26018.5897
56592.5092,28058.4544,53957.8199,42180.419,36726.0575,39290.2941,5952.3582,50395.8464,44234.5887,55962.4135,449.8065,-684.2762,26014.2535
56606.6802,28064.9364,53960.8598,42185.8728,36743.4919,39294.7644,5952.3135,50411.8055,44250.4585,55969.7002,462.1446,-670.597,26022.4342
56628.3166,28072.2231,53964.9278,42196.244,36765.1284,39301.3358,5955.8898,50431.2962,44261.5002,55979.982,477.2544,-658.3929,26030.0785
56633.0999,28072.0443,53968.6829,42197.5851,36760.5686,39300.9782,5954.0123,50433.8443,44251.5314,55975.7352,472.8734,-662.9527,26028.8715
56617.7666,28066.9034,53969.3534,42189.2703,36735.0429,39297.536,5951.9112,50412.7443,44240.7578,55969.432,459.1495,-680.1635,26022.3895
56603.9979,28061.3154,53966.3136,42181.2683,36731.6008,39295.7479,5954.4146,50405.0106,44232.1748,55965.5875,450.477,-680.4764,26024.7141
56613.1622,28064.3106,53964.6149,42187.7056,36749.5716,39300.9782,5954.5934,50427.4517,44244.647,55969.3873,465.7209,-667.6912,26027.8434
56630.5518,28074.4582,53963.542,42199.5521,36769.4199,39308.8013,5956.918,50447.2554,44262.0814,55976.3163,475.7345,-655.666,26029.6762
56620.0912,28068.6021,53960.5021,42192.3995,36760.211,39307.0579,5950.6595,50433.3079,44251.3525,55971.5778,466.5256,-663.2209,26023.1942
56601.5393,28059.5273,53958.4458,42178.9885,36731.3325,39301.0676,5943.0599,50415.6053,44235.2593,55960.4019,442.2516,-682.4881,26012.1971
56587.413,28050.0501,53956.3447,42174.3393,36713.2276,39294.8538,5939.0366,50405.1894,44231.1466,55955.5292,438.4518,-687.8078,26012.1077
56605.2496,28051.2571,53957.2835,42185.1575,36733.2548,39299.4136,5938.7684,50427.0047,44239.1038,55964.2464,457.8084,-676.0955,26016.8016
56614.5033,28057.5156,53954.6907,42195.3499,36761.2392,39306.3873,5941.2271,50450.027,44248.3127,55969.0297,474.6616,-667.5571,26018.098
56611.7316,28056.6216,53951.2485,42191.2819,36761.1945,39297.6254,5939.4389,50447.7024,44241.5625,55962.9947,465.408,-675.2908,26012.823
56593.4926,28052.7323,53954.2437,42180.9107,36737.6804,39292.3057,5938.3214,50425.9318,44227.3468,55963.71,450.1194,-690.2665,26009.1573
56583.9261,28050.0054,53952.7684,42175.5463,36719.5755,39290.6517,5933.404,50414.0407,44228.1067,55955.0822,438.1835,-700.0118,26005.8492
56602.9251,28056.2639,53954.5119,42181.0448,36741.1673,39295.2561,5937.6955,50435.4089,44243.3953,55953.8305,447.5266,-688.4784,26007.6374
56623.7122,28064.4894,53956.7471,42194.5453,36766.3354,39297.4466,5941.987,50456.2855,44253.8112,55959.1949,465.0503,-673.2792,26013.5829
56617.4984,28064.087,53955.8083,42189.8514,36760.1663,39294.1833,5941.8082,50450.0717,44254.5265,55961.4301,465.9891,-674.665,26016.444
56597.3371,28062.0307,53955.7189,42174.8757,36733.3889,39287.6118,5938.1872,50425.9765,44241.6072,55957.6303,445.649,-688.9701,26012.4654
56586.1613,28060.8237,53957.4176,42166.7844,36723.1518,39289.2212,5936.3097,50420.4333,44235.751,55957.4515,437.2895,-694.3792,26013.6724
56608.6918,28067.0375,53962.9608,42183.727,36747.7834,39298.5195,5941.1377,50438.4041,44254.3924,55967.2415,455.8861,-672.8768,26020.1097
56626.2156,28074.5029,53962.7373,42191.9525,36770.0905,39300.3076,5946.815,50458.2971,44266.507,55968.3144,466.1232,-661.8798,26024.8035
56614.6374,28070.3455,53965.5983,42186.0963,36763.6532,39299.2347,5946.8597,50453.6927,44256.1805,55962.6818,460.2671,-662.7738,26026.0552
56590.274,28061.0025,53963.6761,42178.8096,36738.9321,39295.3902,5944.8481,50431.2962,44236.064,55953.0258,443.6374,-679.0906,26017.338
56581.6909,28058.4097,53964.3019,42179.8825,36729.9467,39295.122,5949.1843,50412.789,44235.5722,55954.6351,440.9105,-687.629,26018.5897
56604.7132,28070.569,53966.3583,42189.9855,36752.0303,39301.4252,5953.3417,50438.4488,44251.2631,55965.0064,461.6082,-672.6533,26022.2554
56621.7005,28078.4369,53965.196,42200.2673,36769.0176,39306.7002,5950.4807,50457.5372,44257.5216,55969.3426,475.1086,-662.3268,26023.2836
56621.6111,28070.122,53964.0784,42200.2673,36757.6182,39305.8062,5949.9443,50453.2456,44250.9949,55966.9286,470.9959,-669.9264,26023.1048
56598.5441,28061.5389,53957.06,42182.2071,36726.1916,39298.9665,5944.1328,50427.4964,44236.6451,55951.1483,449.9853,-684.0527,26012.8677
56585.0437,28061.986,53956.5235,42175.2781,36716.8039,39294.2727,5941.3165,50419.6733,44240.4002,55952.087,440.0164,-688.7466,26011.8842
56600.824,28061.4048,53954.0201,42181.626,36736.0711,39298.4301,5939.7519,50447.4789,44255.7335,55959.4184,452.3546,-679.4035,26016.1757
56617.1408,28064.5788,53953.0367,42191.0584,36755.2489,39303.4816,5942.3894,50466.7014,44261.4108,55964.0229,466.9279,-667.9595,26020.7355
56603.7744,28061.673,53951.0697,42183.727,36748.2305,39295.1667,5940.9142,50458.2971,44255.8229,55962.9053,458.5683,-674.1285,26018.2768
56583.5685,28050.5866,53951.1591,42174.9651,36732.1372,39290.2941,5938.1425,50435.096,44241.4284,55959.1055,447.5713,-687.629,26015.0135
56583.8367,28050.229,53955.6295,42173.0429,36722.7048,39289.9364,5939.3495,50431.9221,44242.9483,55955.3057,442.2069,-688.9701,26013.0018
56602.9251,28053.2688,53956.3894,42178.3626,36733.8359,39294.9432,5939.3495,50458.5207,44253.9901,55962.503,454.0533,-678.5542,26012.1077
56615.9338,28060.1978,53955.0483,42188.4656,36747.1129,39300.1288,5941.4506,50482.0347,44260.4274,55970.5049,466.3914,-667.0207,26015.8181
56611.1058,28056.0404,53955.2718,42188.9573,36746.4423,39294.7197,5941.987,50473.2281,44260.2485,55969.7002,465.9444,-669.9711,26015.9969
56596.756,28047.5467,53954.6013,42181.7154,36726.5493,39292.0375,5938.2766,50451.9939,44250.2797,55963.3523,450.6558,-684.5891,26011.6607
56586.0271,28046.3398,53949.8627,42175.9039,36711.0819,39288.9529,5936.3097,50435.8113,44244.1106,55959.2843,440.7763,-691.3841,26009.6937
56604.3556,28053.9393,53945.5265,42181.8942,36724.9399,39293.1551,5939.573,50465.2709,44258.4604,55966.0792,455.5732,-681.147,26016.3099
56620.9406,28056.9792,53946.8229,42189.2256,36741.3908,39299.5477,5940.4671,50483.2417,44269.681,55968.8956,468.8054,-669.9711,26016.7122
56611.5081,28050.8995,53950.1309,42184.2635,36738.4851,39296.2396,5934.611,50473.9881,44262.6625,55965.5428,460.0435,-673.7709,26014.4323
56593.4032,28045.8927,53951.9638,42171.1653,36715.9098,39293.6468,5931.1688,50452.7539,44248.3574,55961.0724,443.995,-687.0031,26011.5713
56584.1496,28043.7022,53949.5945,42163.834,36709.3384,39284.8849,5930.4088,50448.2836,44246.7034,55956.2892,434.1155,-693.8875,26008.2632
56598.2759,28042.2717,53948.0746,42171.0759,36734.0595,39291.5905,5932.8228,50457.3137,44259.8462,55957.9879,452.3098,-681.9069,26008.9338
56604.0874,28042.227,53946.5547,42178.2285,36751.0915,39295.5691,5933.7616,50467.5508,44264.2272,55956.6021,469.0289,-672.2063,26010.7666
56600.4664,28038.5166,53955.2271,42182.6988,36742.8213,39287.4777,5936.4885,50461.1582,44267.1329,55960.8489,463.3069,-669.6135,26013.8512
56584.5966,28034.3592,53955.7189,42181.0001,36726.6387,39286.4943,5935.6391,50449.4905,44253.2301,55963.2629,447.3925,-679.1353,26012.4654
56567.9669,28034.1357,53948.3875,42180.8213,36715.9098,39289.0424,5935.9074,50441.9804,44242.3671,55955.6633,442.7433,-686.7349,26010.4984
56580.3498,28038.2931,53946.957,42191.1031,36736.1158,39300.4417,5935.0133,50467.5955,44263.2437,55961.743,457.5849,-675.5143,26015.9969
56601.1369,28048.3961,53947.5381,42204.6483,36760.1216,39309.2483,5942.9705,50500.3184,44277.5041,55970.5943,472.6946,-659.3317,26024.7588
56597.3371,28047.3232,53949.0134,42203.2624,36759.2722,39309.7401,5949.3184,50501.7936,44271.0221,55965.3193,473.0076,-659.1529,26025.2953
56575.7453,28031.5876,53942.5313,42190.1196,36727.801,39299.0559,5942.8364,50471.8423,44252.1572,55957.4068,457.2719,-676.9001,26016.0416
56567.2964,28023.1833,53934.9318,42184.6211,36711.4395,39294.8538,5935.0133,50447.3895,44247.8657,55954.6351,446.5431,-682.1752,26012.1524
56583.7473,28024.3009,53932.8754,42187.2139,36726.7728,39291.814,5930.3194,50462.1863,44251.5314,55953.8305,457.7637,-673.5921,26013.0465
56590.274,28021.127,53932.1154,42190.522,36742.2402,39287.7012,5925.3126,50471.1717,44253.3642,55952.3553,465.7209,-667.6912,26013.8959
56585.8483,28013.6168,53929.9697,42182.073,36731.1984,39281.9792,5921.8258,50463.0357,44246.3011,55952.7129,454.9026,-676.5425,26012.6442
56559.965,27996.1377,53928.1368,42164.5939,36702.0965,39267.0035,5914.4944,50420.7909,44221.7588,55943.0569,433.7132,-694.111,26004.6422
56545.1682,27982.9502,53917.9891,42147.2043,36676.7943,39256.99,5904.0785,50389.5432,44214.2934,55930.8529,420.6151,-706.8515,25995.7016
56564.6142,27988.8064,53916.5586,42165.8456,36694.7651,39260.5215,5907.2524,50405.5023,44227.8832,55936.1726,434.652,-696.0779,25997.892
56582.5403,27991.9356,53914.4576,42177.4238,36721.4531,39270.3116,5907.0736,50424.3672,44234.2758,55940.9559,452.6675,-685.3044,25999.0543
56573.1078,27981.8326,53904.7569,42171.9253,36710.1431,39268.9258,5904.749,50417.9746,44223.4129,55929.6012,448.1077,-691.6523,25993.7793
56544.4082,27973.1154,53902.4323,42156.6367,36687.6125,39263.472,5899.3846,50390.169,44203.7433,55928.3048,427.7676,-706.4044,25989.9795
56533.0982,27972.3108,53901.8512,42149.2159,36671.8322,39260.5662,5894.2437,50370.276,44196.2332,55926.2037,422.6267,-713.7358,25984.8833
56545.6152,27975.1271,53900.4654,42160.5259,36690.6524,39265.9307,5895.4507,50401.1661,44206.7832,55923.9686,435.2331,-700.3248,25988.1914
56561.4849,27985.8559,53903.0582,42170.9418,36710.7689,39280.3699,5901.4857,50436.6159,44226.1398,55933.1328,447.5713,-686.6902,25996.3721
56557.0146,27987.1523,53907.6626,42167.455,36702.0071,39283.7673,5902.7374,50431.8327,44224.3069,55936.262,451.684,-688.836,25998.6073
56542.8436,27978.0775,53905.4722,42153.3287,36676.7049,39277.3747,5899.5187,50413.8172,44205.2633,55924.7732,433.6685,-703.4093,25993.1535
56533.4111,27970.1203,53904.8016,42146.6678,36666.5125,39271.5633,5896.1213,50409.9727,44206.515,55918.3806,427.0077,-710.1595,25991.4547
56556.2099,27970.0309,53903.5946,42156.0109,36686.7185,39275.7207,5895.9872,50427.6752,44221.4906,55920.5264,439.1223,-696.1673,25995.2992
56569.621,27974.4565,53903.5946,42164.0575,36713.0488,39278.3135,5897.9541,50446.6742,44224.0387,55924.5944,450.477,-688.0313,25996.8191
56548.8786,27974.5907,53901.0465,42157.7543,36704.734,39268.5682,5897.4624,50441.4439,44216.6179,55923.7003,439.8376,-697.6426,25993.1535
56528.8961,27968.6898,53896.1291,42143.2704,36672.4581,39261.7732,5895.406,50408.5422,44192.2992,55913.7315,418.2458,-713.5123,25984.8386
56528.0914,27976.9599,53898.5878,42141.5716,36661.7739,39260.298,5899.8317,50408.2739,44186.6219,55912.4798,411.1826,-718.1615,25982.1117
56541.6366,27992.2932,53901.0912,42153.1051,36690.2947,39261.9967,5902.6927,50438.0912,44191.8969,55915.6984,427.7229,-706.2703,25986.6714
56560.412,28008.7888,53906.7686,42167.3656,36718.2791,39266.1542,5915.0755,50443.6791,44199.6306,55922.9404,447.1242,-693.3957,25995.3439
56549.1021,28009.5041,53905.2933,42158.2907,36710.3219,39260.6556,5916.3719,50427.8988,44187.6054,55915.0726,440.5081,-699.0284,25991.8123
56527.5103,28006.8666,53904.1758,42139.6494,36683.2763,39248.8092,5914.8967,50397.3663,44160.4704,55907.3836,421.1515,-714.4064,25985.7327
56511.2829,28005.0784,53910.3448,42131.4687,36678.5824,39243.8471,5917.4448,50374.791,44154.5695,55910.7363,414.1331,-716.4627,25986.8056
56527.9126,28019.2047,53911.7754,42146.9361,36706.9691,39254.1736,5920.6635,50397.1875,44166.0583,55916.1007,433.9814,-702.6047,25994.1369
56539.1332,28030.5594,53911.7306,42153.4181,36728.8738,39255.2018,5927.4137,50407.5587,44167.757,55917.576,448.1077,-692.1887,25998.6073
56522.3694,28035.2533,53913.4741,42148.6348,36719.0391,39248.2281,5928.8442,50392.9406,44162.7055,55911.2728,442.2516,-697.9108,25994.0028
56508.2878,28035.5215,53915.6646,42138.4424,36693.9157,39238.9297,5925.3126,50359.1895,44142.9466,55907.4283,428.4829,-712.2159,25990.5607
56501.627,28036.8626,53915.0387,42133.2568,36685.5115,39241.2096,5924.7315,50343.0963,44133.4695,55905.3272,421.7327,-717.1333,25987.6102
56511.7747,28045.7139,53915.2175,42148.6348,36708.7126,39251.2232,5927.3243,50353.3781,44146.9699,55911.9433,434.339,-704.8845,25993.6452
56526.3927,28049.7819,53917.8997,42156.9943,36723.9118,39250.7315,5925.5809,50364.0175,44145.4947,55912.3456,443.0562,-700.1013,25990.7395
56518.7484,28047.815,53915.0834,42151.1829,36709.5172,39243.6683,5921.5575,50346.1361,44134.7659,55905.1037,435.4566,-707.7903,25984.8833
56502.4763,28046.0715,53920.269,42145.4608,36683.9468,39240.4497,5921.1105,50314.7542,44121.0419,55898.9793,418.0223,-722.3636,25980.7259
56484.8632,28044.1493,53919.7326,42135.3132,36662.6233,39231.196,5917.3107,50286.4569,44110.5366,55894.3301,403.1807,-731.6619,25977.9096
56504.3986,28051.3912,53924.3817,42148.8136,36688.0596,39241.3437,5924.8209,50300.7174,44132.039,55900.991,420.6151,-716.1498,25986.4032
56529.1196,28060.6896,53929.0309,42163.3422,36713.0488,39250.508,5931.0794,50320.3869,44140.3538,55912.3456,438.8094,-695.0051,25996.5509
56528.1361,28059.6614,53930.5061,42161.3753,36700.5765,39248.3175,5934.3427,50310.6862,44140.1303,55910.7363,437.7365,-697.419,25999.3225
56511.73,28054.744,53934.0377,42157.5755,36677.0625,39243.4448,5935.2368,50280.3773,44125.6464,55905.6401,425.3089,-708.9078,25997.3556
56501.8505,28041.78,53933.1436,42155.1168,36663.3832,39242.0143,5935.2815,50258.6514,44116.3033,55900.9463,421.7774,-713.7358,25995.7016
56521.2071,28048.8431,53937.5693,42168.2596,36683.321,39249.2115,5938.0084,50272.2412,44134.9894,55904.5225,436.6636,-700.7718,26001.6918
56535.0205,28054.744,53938.4633,42176.9768,36705.6727,39249.7033,5936.9355,50283.9535,44142.589,55909.4846,452.5334,-695.8544,26005.7151
56525.4539,28047.5914,53934.9318,42169.109,36699.0566,39244.0259,5936.0862,50273.4035,44128.6415,55906.7577,445.6043,-703.6328,26003.0329
56514.0545,28037.9802,53934.5741,42160.7047,36678.4483,39233.8336,5933.8063,50246.1344,44108.7484,55896.5206,431.2992,-710.6066,25995.791
56507.349,28030.1124,53930.4614,42152.0323,36663.0256,39227.3068,5927.9054,50222.5757,44098.1537,55889.7257,423.1185,-720.486,25989.5325
56519.3295,28033.1522,53928.3156,42156.2791,36682.9634,39234.5935,5927.8607,50232.7681,44112.5035,55893.2126,437.2895,-709.9807,25991.6782
56539.8932,28041.2883,53931.0873,42167.1867,36703.1693,39240.852,5931.8393,50254.8069,44119.6114,55896.0736,452.5334,-697.0167,25995.5227
56535.7804,28033.4651,53930.819,42162.0011,36691.2782,39233.0289,5926.6984,50243.0946,44121.2654,55895.6712,443.8609,-702.6494,25992.4382
56514.6357,28024.8821,53927.1086,42147.5619,36664.4561,39219.9755,5920.4847,50211.2657,44103.6969,55885.3447,422.9397,-719.6814,25988.8619
56506.8126,28023.7645,53928.0474,42145.9973,36654.219,39220.3778,5921.4234,50191.2385,44100.3889,55886.1494,418.0223,-719.6367,25988.102
56528.3597,28024.3009,53933.3224,42154.0886,36669.8205,39226.0104,5921.5575,50208.4494,44119.969,55896.6547,431.6568,-702.6047,25994.8075
56549.5044,28036.2815,53938.9551,42160.1683,36684.1257,39232.1348,5926.6984,50240.77,44134.5423,55901.3039,440.5975,-689.5065,26000.8425
56555.6735,28044.641,53942.1737,42156.9943,36681.1752,39230.0338,5929.9618,50240.5465,44133.2906,55900.4098,438.0941,-696.525,26000.5742
56546.1516,28042.987,53946.3758,42148.2772,36660.3881,39227.0833,5927.8607,50217.3454,44123.143,55895.8948,425.3089,-710.7407,25995.8357
56534.8864,28041.9141,53949.2369,42147.5172,36644.0266,39227.7092,5928.1737,50212.2939,44121.936,55899.8734,423.6996,-710.2042,25993.6452
56560.9932,28051.0783,53956.4341,42160.3918,36667.1383,39237.7228,5935.1027,50243.4969,44131.6813,55908.9482,443.1456,-695.8991,26000.4848
56581.5568,28061.8966,53959.7422,42171.6571,36694.7651,39248.9433,5941.8082,50280.869,44157.8329,55918.4253,456.2885,-687.1819,26005.4022
56570.2468,28069.0044,53955.7636,42166.7397,36694.4522,39255.5594,5942.3447,50280.7796,44150.3227,55913.1503,452.3098,-690.3112,26005.4022
56553.5277,28065.4281,53947.9852,42154.4462,36669.8653,39250.5527,5935.8627,50254.3598,44130.9661,55904.3884,433.7579,-706.2256,25995.2098
56549.2362,28057.2027,53943.8725,42151.4958,36667.8089,39248.1387,5935.058,50243.4969,44130.3849,55905.6401,431.9698,-710.4278,25991.6335
56557.8192,28054.0287,53946.6441,42160.9282,36686.2714,39252.2067,5935.9968,50261.1995,44149.1157,55915.9666,449.1806,-695.2733,25999.2331
56572.2585,28054.9228,53939.268,42166.5162,36703.0799,39244.4283,5934.0745,50275.5046,44151.7085,55916.4584,453.9192,-690.937,26000.5295
56565.7765,28045.3116,53937.2116,42165.488,36690.8312,39235.0852,5932.644,50270.766,44142.1866,55913.9103,448.6442,-696.6144,25998.2049
56543.2012,28044.1046,53937.5693,42154.0886,36665.7525,39229.0503,5931.2135,50245.3297,44132.3072,55912.9268,434.7861,-707.2091,25995.2098
56535.9592,28040.0813,53938.6868,42144.388,36654.219,39234.1912,5930.0512,50233.4833,44130.519,55910.0211,427.1418,-711.3665,25997.3556
56559.2945,28051.7936,53941.2349,42154.4909,36676.1237,39247.6022,5931.1688,50254.8069,44154.5695,55914.2679,441.9386,-697.2402,26001.2895
56583.032,28062.2989,53945.0794,42169.7795,36700.0401,39253.8607,5934.298,50280.6455,44164.1361,55919.4088,459.8647,-684.7233,26005.9386
56578.7852,28068.1103,53948.0746,42171.6124,36702.0965,39254.263,5942.1211,50286.6805,44162.6161,55920.4817,454.1427,-689.283,26007.0562
56562.3343,28066.8139,53954.6907,42164.7727,36679.1189,39251.0444,5947.262,50270.1402,44157.8329,55922.9404,442.2069,-698.8943,26006.5198
56558.8921,28070.3008,53956.0318,42163.7893,36677.7331,39253.5031,5944.5798,50268.5755,44151.7979,55918.5594,436.2166,-706.4939,26003.3906
56574.6725,28082.2366,53957.954,42178.7649,36707.6397,39259.3592,5950.6148,50304.3383,44171.1992,55930.8082,455.6626,-688.076,26011.7948
56595.549,28094.0831,53957.8199,42191.3266,36726.6387,39270.6692,5954.1017,50339.0729,44185.2808,55937.2008,473.9016,-669.837,26019.5732
56597.2477,28096.4971,53958.8481,42193.2042,36718.3238,39279.0735,5953.0288,50339.1176,44180.9893,55929.6012,468.9842,-674.5309,26019.3497
56582.4956,28092.8761,53958.3117,42183.5482,36694.7204,39276.3466,5946.6809,50306.5735,44166.0583,55918.3806,448.1077,-695.6309,26008.3973
56574.896,28092.4737,53957.4623,42177.6921,36688.9536,39279.3417,5943.1046,50292.179,44157.1176,55914.4467,436.7977,-696.6591,26005.4916
56600.2429,28099.6263,53955.4954,42192.9359,36709.9643,39289.0424,5947.3962,50317.9729,44175.9825,55923.0298,455.1262,-679.18,26009.202
56615.8891,28095.4242,53955.3612,42197.451,36724.18,39292.6633,5944.1328,50340.2352,44188.41,55929.6012,466.5256,-673.458,26010.2749
56604.2662,28085.5447,53953.1261,42185.7387,36709.3384,39284.3485,5935.6391,50337.6424,44182.1516,55928.6177,456.5567,-684.4997,26005.4022
56579.0534,28078.9286,53950.0415,42169.556,36681.5776,39278.85,5931.7499,50315.4695,44162.8844,55920.2582,436.0825,-705.3316,25998.3838
56565.9553,28071.3737,53948.7898,42166.4715,36676.3473,39274.022,5929.7383,50305.3665,44158.3693,55912.9715,429.6899,-711.7689,25998.2944
56583.5685,28071.0161,53950.6227,42176.3957,36704.5999,39275.8101,5929.2912,50321.0127,44173.7026,55915.2961,447.2136,-697.3296,25999.0096
56598.5888,28071.6866,53946.7335,42179.7484,36725.6552,39280.1911,5925.2679,50325.349,44188.7677,55921.9122,457.8084,-687.0031,26002.8541
56590.4081,28065.2493,53941.6373,42173.2664,36721.8107,39270.4457,5923.1222,50317.7941,44179.5141,55917.0842,446.0067,-695.8544,25998.1602
56567.8328,28055.0569,53939.3127,42158.3802,36693.6028,39258.9122,5923.7033,50298.7504,44164.6725,55906.0872,426.0689,-715.5687,25989.5325
56556.2099,28057.5156,53944.0513,42147.7407,36685.3774,39252.3855,5925.0444,50285.8311,44162.2585,55917.263,423.2973,-715.7922,25992.3488
56582.0485,28071.1949,53952.0085,42167.8126,36720.9166,39261.6391,5933.9404,50315.6036,44177.1448,55929.6906,447.7054,-692.457,26001.1554
56598.1418,28078.4369,53952.3214,42177.4238,36741.7485,39267.3165,5938.9025,50344.3927,44188.3206,55938.4972,464.5139,-681.3258,26004.9552
56592.6433,28080.0462,53952.9026,42172.1041,36734.9982,39267.5847,5942.2106,50346.2255,44180.0952,55936.8879,456.6014,-684.5891,26005.8492
56575.1195,28079.6885,53957.507,42164.9516,36709.8302,39261.7732,5947.0832,50318.3752,44177.5024,55935.5021,447.0795,-691.7417,26007.2798
56570.2021,28073.8324,53953.3496,42158.6931,36695.8827,39256.7664,5947.9773,50314.9331,44175.0884,55937.2008,442.2516,-693.1275,26007.0115
56592.9562,28074.5924,53950.8015,42159.8107,36714.1664,39256.8111,5948.469,50338.2236,44185.4149,55939.7936,455.6179,-682.801,26011.8395
56609.4518,28084.3377,53954.5566,42170.9865,36738.351,39264.8131,5952.0453,50347.8348,44197.4849,55944.711,465.095,-671.9381,26013.3147
56601.8075,28081.2979,53953.7966,42162.7164,36730.8855,39260.5662,5947.8432,50337.8659,44190.1982,55941.8052,451.3264,-678.5542,26007.7715
56583.1214,28073.8324,53955.0483,42152.7475,36707.1033,39252.7878,5945.0269,50317.8388,44177.1448,55934.4739,431.7462,-697.5532,26005.0893
56582.8979,28077.7216,53959.8763,42156.2791,36696.4191,39256.3194,5951.2407,50312.1614,44174.6861,55932.8198,429.377,-697.6873,26005.3128
56588.8882,28085.1424,53957.1047,42165.8456,36716.491,39268.2552,5952.9841,50319.4034,44183.9844,55938.0949,447.3031,-683.9186,26007.4139
56597.4265,28083.4436,53952.679,42170.5842,36732.3607,39269.0152,5952.09,50337.7318,44193.9086,55946.2756,460.2224,-674.352,26008.6209
56597.3371,28079.6885,53952.7237,42167.4997,36723.8671,39262.0862,5950.883,50335.3179,44193.5509,55943.7722,454.5897,-677.526,26006.6539
56579.1428,28072.1784,53947.0464,42151.2723,36706.4774,39257.3029,5944.4457,50307.6911,44177.0554,55930.1376,434.4732,-692.6358,26001.7812
56568.2799,28073.6089,53952.3661,42155.9662,36702.32,39261.4603,5951.1065,50309.0322,44168.07,55923.4768,427.8123,-699.2519,26000.0378
56585.0437,28083.6672,53961.7538,42172.8641,36727.6222,39272.4574,5958.7508,50339.6094,44198.1554,55942.7887,451.3264,-678.2413,26013.3594
56594.2079,28082.2814,53959.0716,42181.2683,36744.7436,39278.0006,5955.7557,50352.1264,44204.7268,55949.3154,460.4459,-668.4512,26017.8745
56592.6433,28074.5924,53958.4905,42184.0847,36732.6736,39277.7771,5954.3252,50345.0185,44203.9222,55947.4379,453.9639,-671.4016,26018.5003
56576.4606,28063.4612,53960.9045,42174.1158,36706.2986,39274.4243,5954.1017,50320.4763,44189.4382,55937.7819,442.9221,-683.8292,26013.2253
56558.4004,28053.8499,53960.368,42165.6221,36694.8098,39273.0832,5953.7441,50298.3034,44180.0058,55932.6857,435.1437,-684.8574,26010.1855
56572.3926,28053.6711,53959.2952,42168.6172,36708.0867,39276.6148,5951.4195,50311.5803,44187.6948,55936.2173,445.649,-674.7544,26012.376
56588.9776,28059.8402,53960.8151,42179.7484,36728.5609,39280.1911,5952.3135,50332.0098,44197.8425,55939.0783,462.5022,-669.2559,26017.2486
56576.1477,28053.4923,53955.6742,42182.0283,36720.9613,39275.5866,5948.3796,50326.1089,44191.1817,55932.5963,459.9988,-677.526,26013.6276
56552.276,28044.4175,53954.1543,42175.4122,36704.3316,39270.6245,5945.4739,50307.3782,44180.9446,55929.0648,447.1242,-695.2733,26010.0961
56550.4432,28040.6624,53955.2718,42174.384,36700.9342,39269.1046,5948.5584,50300.9409,44173.792,55928.573,443.3692,-697.419,26008.7997
56573.3314,28051.3912,53959.6975,42184.3529,36721.0507,39279.2523,5954.2358,50324.7231,44187.3819,55935.0103,454.098,-680.5211,26012.4654
56585.6248,28061.0025,53960.0551,42188.7338,36741.5696,39283.4544,5956.5157,50347.209,44195.7861,55937.1114,464.7374,-671.9381,26017.9639
56582.3615,28062.5224,53959.921,42180.419,36726.8622,39277.9559,5955.3534,50347.1196,44192.7016,55935.1891,455.9308,-677.079,26014.3429
56561.8426,28055.0122,53953.439,42161.5988,36694.8098,39264.4554,5949.5866,50323.382,44184.1185,55932.3728,437.9153,-695.6309,26006.5198
56548.4315,28041.1988,53949.2816,42152.971,36689.7583,39258.644,5945.8315,50302.3267,44179.9164,55926.919,430.5393,-704.4822,26003.9717
56568.0563,28044.3728,53957.06,42167.9914,36716.0887,39261.5497,5950.7489,50319.4034,44196.9484,55940.0171,444.6208,-687.9419,26012.2418
56592.0621,28054.0287,53957.954,42180.106,36739.8262,39269.7304,5951.2854,50349.5783,44210.3595,55949.0025,459.5071,-673.6815,26018.2768
56581.9591,28055.7722,53950.8909,42172.9982,36725.0741,39266.9141,5942.6129,50339.2518,44198.3789,55936.7537,450.2088,-682.3093,26009.7384
56558.5345,28050.3184,53944.99,42157.8884,36692.5299,39260.6556,5935.3262,50303.1313,44183.4927,55927.5001,427.6782,-701.0847,25999.2331
56548.1633,28036.1921,53942.6208,42152.2558,36674.4697,39253.369,5932.6887,50289.1392,44174.9096,55926.1143,419.5422,-707.7903,25997.5791
56566.5364,28041.9141,53947.8511,42165.6668,36701.8282,39259.851,5935.4156,50320.8339,44185.3255,55936.0832,436.9318,-690.3559,26002.8094
56582.1379,28056.711,53950.3545,42177.245,36723.9565,39267.4059,5936.2203,50343.7668,44196.3673,55936.1726,448.8677,-684.6786,26003.927
56583.6132,28056.2192,53949.4157,42171.8359,36716.7592,39261.4156,5937.2038,50341.2634,44196.2332,55935.5915,444.8444,-685.2597,25999.9484
56571.3197,28046.6527,53945.6159,42159.8107,36690.6971,39256.99,5937.2485,50323.4267,44186.8454,55928.3495,431.5674,-698.179,25995.7463
56562.7366,28041.6012,53943.4254,42157.799,36686.8526,39258.2864,5939.886,50319.0458,44187.5607,55927.3213,427.7229,-702.0235,25999.6355
56582.2721,28049.1561,53942.7996,42170.6289,36720.0226,39266.78,5944.1775,50340.0564,44207.0514,55940.1959,446.3196,-688.5231,26006.341
56593.9844,28053.9393,53942.9784,42177.3791,36736.5181,39270.5798,5941.6741,50354.2274,44219.3449,55942.297,459.1495,-676.0955,26009.1573
56585.9377,28046.0268,53942.4419,42167.4997,36727.4433,39262.8014,5939.7072,50343.6774,44215.858,55939.436,451.8181,-680.0294,26008.442
56570.8727,28042.4058,53946.5547,42156.2791,36705.181,39255.8277,5939.4389,50329.417,44207.409,55941.8499,440.8658,-690.3112,26005.0446
56564.5695,28044.6857,53946.1076,42153.0604,36696.6426,39260.2533,5941.8976,50332.8145,44212.1029,55939.5701,433.6685,-697.1061,26006.0728
56581.2439,28058.5438,53948.164,42165.1751,36721.1401,39269.3281,5945.8315,50348.416,44227.5256,55941.0006,447.0348,-681.7728,26014.924
56595.6384,28065.6517,53953.6625,42171.1653,36742.0614,39272.5021,5946.4574,50368.5325,44241.2049,55948.3767,459.8647,-669.9264,26021.2719
56585.7142,28056.8004,53953.9754,42158.1119,36724.9399,39266.5118,5939.126,50366.2527,44225.5139,55952.0423,444.1291,-682.5328,26014.7899
56561.172,28048.1279,53950.3992,42146.2655,36691.457,39252.9666,5934.4321,50343.1857,44209.4654,55942.7887,427.2759,-699.2072,26006.5198
56556.7464,28049.2455,53947.0911,42144.835,36686.0479,39252.6984,5935.1474,50336.5248,44203.2069,55935.8597,426.0242,-700.5483,26005.6257
56582.0485,28058.4991,53950.3545,42161.3753,36714.9711,39264.8131,5944.8481,50361.7376,44217.2438,55946.4097,443.7715,-682.8457,26011.616
56600.3323,28070.6584,53958.1329,42172.2382,36737.2781,39274.8266,5953.6546,50389.9008,44235.9746,55956.8703,458.613,-669.2559,26016.3099
56588.9776,28065.2046,53957.507,42170.0478,36722.973,39272.0103,5947.7091,50392.9406,44229.4478,55944.5769,448.1077,-677.7495,26009.3361
56569.4869,28056.4427,53953.4837,42158.246,36700.0848,39260.8345,5942.1659,50372.9135,44221.2671,55934.4739,427.9912,-693.9322,26003.7035
56566.0447,28058.0968,53952.1426,42161.5541,36693.7816,39261.9967,5943.3728,50358.519,44217.3779,55937.2902,424.8172,-697.6873,26003.8376
56585.0437,28062.6118,53957.3729,42178.4073,36718.2791,39277.643,5946.1892,50381.3177,44232.8006,55946.3203,446.9454,-679.6718,26011.3031
56604.892,28067.7527,53957.0153,42184.7105,36742.419,39284.7955,5946.7703,50396.0699,44240.7131,55950.3436,458.6577,-670.1946,26015.1923
56598.4994,28073.0277,53955.9424,42182.9224,36739.5133,39283.6779,5947.6644,50397.411,44241.9648,55952.7129,457.8978,-671.3569,26016.0416
56576.103,28071.1502,53955.8083,42170.4054,36719.352,39276.2572,5943.6858,50381.6754,44232.5771,55949.0919,434.4285,-688.2548,26010.2302
56569.308,28064.4894,53956.0318,42175.9933,36705.2257,39274.0667,5943.9093,50372.9135,44229.0902,55947.6167,431.6568,-691.7417,26012.5548
56584.999,28065.5175,53957.4623,42186.1857,36727.5327,39280.0122,5948.782,50392.8959,44244.8705,55952.7129,446.0961,-676.3637,26018.3662
56593.0903,28075.3076,53961.2621,42189.5385,36745.0565,39283.3203,5947.7538,50400.3614,44251.8443,55951.5059,453.2039,-666.2607,26019.0368
56593.9844,28080.6273,53962.1562,42186.9457,36734.0147,39282.7839,5945.3845,50393.7453,44249.922,55952.3553,448.7783,-671.491,26016.9357
56577.757,28068.9597,53959.161,42174.2052,36712.7806,39276.8383,5942.0764,50384.1341,44235.5722,55942.3417,433.3556,-685.0362,26008.8891
56566.8941,28054.8334,53953.2602,42167.3208,36700.1742,39270.0434,5939.2154,50368.4431,44228.3303,55937.3349,429.6005,-691.7864,26003.6588
56582.585,28059.5273,53954.8248,42172.9088,36723.2859,39284.8849,5940.9142,50385.5646,44243.0824,55942.297,444.0844,-679.1353,26005.7598
56600.1087,28067.708,53952.679,42179.0332,36745.6824,39287.3436,5940.3777,50404.0271,44251.2631,55946.9014,451.237,-668.5406,26005.6257
56588.7541,28066.4563,53953.2155,42178.005,36739.9156,39282.158,5939.2154,50400.8979,44247.2845,55945.4262,446.1408,-673.1004,26007.5033
56572.7502,28055.3699,53952.7684,42166.6056,36714.6581,39267.1376,5938.3661,50373.4499,44232.443,55938.8995,429.7346,-689.73,26004.5081
56569.2186,28056.0851,53957.1494,42165.5327,36702.8564,39267.1824,5939.6178,50360.62,44232.7112,55940.7771,423.2526,-695.0051,26003.3906
56588.7094,28060.7343,53956.1659,42173.4452,36716.7145,39276.2125,5942.3447,50386.5927,44246.7928,55949.0472,435.0543,-681.6834,26007.8609
56599.7958,28060.5555,53955.1377,42181.4024,36732.7631,39279.8334,5941.8529,50411.135,44255.6888,55958.7479,446.6772,-674.1732,26012.7783
56595.6831,28056.6216,53955.3165,42178.452,36733.7465,39277.4194,5942.7917,50400.4508,44249.9667,55961.9218,446.0961,-680.0294,26013.5829
56579.0981,28056.7557,53955.8977,42171.3889,36716.8039,39273.3961,5942.3,50381.3177,44244.8258,55956.1998,433.5791,-691.1606,26007.8609
56567.5199,28052.8218,53955.8083,42160.3471,36701.0236,39269.9987,5938.8131,50371.5277,44240.0873,55950.8801,421.8221,-694.2451,26005.3575
56595.8619,28054.8334,53955.2718,42167.3208,36719.8437,39277.643,5939.9307,50392.2701,44255.197,55957.1385,435.5013,-681.2364,26009.3808
56619.4206,28063.3271,53953.7519,42181.9389,36741.6143,39281.8451,5941.8529,50411.4926,44266.2835,55961.1171,452.5781,-669.6582,26015.5499
56609.7647,28059.5273,53949.8627,42178.5861,36734.0147,39275.7654,5939.3942,50410.1962,44263.1096,55965.0064,450.9687,-673.6368,26013.2253
56586.1166,28049.8266,53948.2981,42168.9302,36710.1878,39271.7421,5938.0084,50390.6608,44249.2068,55956.468,431.8804,-687.629,26007.4139
56572.9737,28045.7139,53946.51,42160.6153,36698.4308,39270.4457,5935.2815,50377.9203,44241.8307,55950.0307,424.0125,-694.2004,26003.0329
56595.1914,28057.2474,53946.197,42177.6474,36720.2908,39283.6779,5939.7966,50396.9193,44254.5712,55950.6565,444.9785,-676.9449,26009.2467
56613.1175,28064.6682,53943.5595,42186.7669,36733.3442,39282.918,5939.126,50422.5343,44254.4818,55949.8072,459.5071,-666.5289,26011.0348
56604.445,28058.7226,53943.6489,42183.8611,36731.6455,39282.8733,5934.4321,50422.2661,44255.197,55949.5836,449.0912,-672.698,26006.1175
56579.5898,28056.5321,53945.3924,42173.2217,36711.8865,39278.8053,5933.6722,50398.6627,44246.3011,55942.8334,429.7346,-687.629,26003.3011
56574.6278,28057.3368,53950.6227,42169.6454,36703.7058,39276.5254,5937.919,50393.9241,44244.8258,55941.8947,424.7278,-691.2053,26005.4916
56595.9066,28072.089,53956.6576,42190.9243,36736.1605,39286.6731,5943.8199,50420.6121,44259.2651,55951.0589,445.6043,-670.9546,26013.7618
56612.8939,28078.9286,53958.1329,42195.9758,36748.3199,39290.2941,5946.6809,50445.4672,44273.9278,55962.0559,462.5469,-659.9575,26020.1991
56609.8541,28073.9665,53962.9608,42188.9126,36739.6027,39286.4943,5942.8811,50440.2369,44270.575,55966.4816,457.0931,-667.9147,26019.7967
56598.0971,28068.915,53960.9939,42176.3062,36728.8291,39283.4991,5942.1211,50419.5839,44258.0581,55956.6021,441.8045,-683.8739,26014.477
56577.8911,28062.8353,53956.3,42163.5658,36708.802,39274.9161,5936.4438,50400.4508,44250.5032,55950.7459,428.4829,-690.6241,26006.1622
56591.7045,28063.64,53953.1708,42173.624,36720.6484,39279.9675,5933.5381,50424.5013,44261.5449,55953.4729,437.066,-682.354,26005.9386
56598.3653,28068.3339,53946.7335,42172.6853,36735.3559,39280.2805,5930.7218,50443.545,44269.4128,55953.294,443.7268,-679.7612,26007.1903
56591.7939,28070.3008,53947.3146,42169.1984,36732.5842,39279.3417,5932.4205,50435.856,44266.0153,55955.708,439.6141,-681.4599,26007.548
56571.9008,28058.365,53946.4206,42161.1518,36707.1033,39274.7819,5926.5196,50411.2691,44245.1835,55942.8781,425.6219,-695.0051,26000.8872
56561.619,28049.3349,53940.7432,42154.6698,36688.5066,39266.1542,5919.9929,50401.3002,44229.9843,55935.7256,415.7871,-702.7388,25993.9134
56578.2934,28051.123,53937.4799,42163.2528,36708.9361,39270.1775,5921.3787,50419.4051,44244.7811,55946.5438,434.5179,-691.3394,26000.1272
56596.756,28053.4923,53934.3953,42170.9418,36729.9914,39275.7207,5922.5857,50433.8443,44256.5829,55947.9743,450.2535,-680.5658,26002.6306
56594.1185,28056.4874,53934.4847,42173.9817,36729.2315,39276.0336,5924.9103,50436.8842,44258.0134,55946.9461,448.2418,-679.4482,26002.4965
56570.5597,28050.229,53936.4517,42163.9234,36705.4492,39267.0482,5925.1338,50423.1155,44254.5712,55945.2474,432.238,-691.6523,26003.2564
56562.1108,28045.1775,53936.4964,42161.5094,36697.7155,39266.0201,5926.0726,50412.3867,44252.5595,55943.5934,423.7443,-694.9604,26003.48
56570.6491,28046.295,53935.4235,42165.7562,36715.4628,39272.055,5929.2018,50426.4235,44254.6159,55948.1978,439.6141,-685.1703,26008.3526
56591.6598,28052.4194,53939.9385,42179.5696,36737.3675,39278.85,5931.7052,50446.6295,44271.5138,55956.2445,457.6743,-675.5143,26013.3147
56584.1496,28055.7722,53941.1455,42177.5579,36732.0925,39283.0074,5929.2018,50457.5372,44267.1329,55956.0657,449.5382,-680.6105,26010.6325
56561.8873,28045.0433,53937.9716,42159.3636,36708.6679,39268.3446,5926.1173,50437.1971,44244.7811,55947.3485,428.4382,-696.6144,26003.2564
56564.9271,28043.3446,53940.6985,42156.6814,36701.2471,39264.5448,5927.9501,50417.2146,44235.3487,55946.5885,422.8055,-700.3695,26003.8376
56582.4509,28052.0171,53943.6042,42163.7893,36718.592,39268.1658,5928.6654,50424.0543,44257.2534,55954.3222,438.0047,-687.3161,26008.6209
56600.064,28058.7673,53945.0794,42170.1372,36737.1887,39275.1843,5928.0396,50441.3992,44268.7869,55962.4135,447.9736,-678.9565,26009.1126
56591.3022,28057.2474,53946.4653,42170.8971,36731.0196,39273.262,5928.6207,50443.0979,44262.2602,55960.1784,447.3031,-680.6999,26011.3031
56574.9854,28051.123,53948.9686,42164.8175,36712.11,39270.5798,5932.5546,50426.1106,44250.3691,55953.6964,438.0047,-692.904,26010.6772
56574.3595,28052.1065,53951.785,42161.1071,36707.0585,39276.0783,5935.6391,50417.5276,44247.9998,55948.9578,431.7909,-697.6873,26008.2632
56599.9299,28062.9694,53964.1231,42173.3558,36731.6008,39292.3504,5941.3612,50444.0367,44270.575,55964.9169,446.8113,-682.801,26017.338
56611.1058,28066.501,53963.0502,42184.3082,36745.9506,39293.3786,5942.0317,50461.1135,44281.5274,55966.4816,460.8035,-668.2724,26021.2719
56598.0971,28068.5127,53956.3447,42184.3529,36738.5745,39287.7907,5941.6741,50450.1164,44276.9676,55960.6701,459.5965,-672.7874,26021.6743
56581.6462,28055.1463,53957.954,42172.1935,36713.0935,39279.0735,5941.5847,50431.2068,44267.9822,55957.5409,445.649,-686.9137,26016.5781
56572.035,28046.0268,53959.6975,42160.4812,36698.4308,39279.3417,5938.9472,50417.304,44259.9356,55953.1599,434.4732,-692.9487,26012.7783
56585.6695,28050.2737,53959.5634,42171.97,36718.2344,39285.5108,5936.712,50432.8609,44261.4108,55951.6847,442.9668,-683.561,26013.0018
56597.8736,28055.7275,53957.3729,42182.1624,36741.8379,39286.7178,5935.6838,50449.7141,44269.9045,55955.0375,455.4838,-672.7427,26014.3429
56591.481,28060.5555,53952.8131,42179.8378,36735.8923,39284.0356,5934.6557,50451.8151,44272.6314,55952.8023,452.3098,-673.8603,26011.8395
56565.3741,28057.2027,53948.4769,42169.1984,36713.1382,39280.1911,5932.6887,50444.5732,44256.6276,55944.5322,432.1039,-692.0993,26005.134
56555.5394,28057.605,53948.5663,42169.2878,36703.3929,39285.3767,5936.5779,50432.4138,44258.8627,55943.4593,428.2594,-696.1226,26006.6539
56580.0369,28059.5273,53947.1805,42179.0332,36719.2626,39288.2824,5937.9637,50455.302,44273.1231,55951.0142,443.1009,-687.5396,26012.4654
56595.549,28059.4826,53946.8676,42189.8961,36738.4851,39295.435,5935.9968,50470.3671,44287.92,55953.607,449.5382,-680.8788,26013.3594
56584.0155,28053.0453,53946.5994,42183.3694,36725.834,39281.8004,5935.2368,50462.6781,44279.8287,55951.3718,444.4867,-684.008,26010.856
56563.2284,28044.641,53945.8394,42170.763,36694.5863,39268.0317,5934.0298,50432.8161,44256.0464,55943.2805,427.0971,-697.7767,26006.3857
56560.0991,28039.8577,53942.889,42165.4433,36686.5396,39262.8908,5930.4535,50422.2214,44255.2418,55943.1463,420.168,-702.3811,26006.0728
56580.8862,28045.2669,53947.2252,42173.8923,36717.1168,39276.2572,5933.851,50444.9308,44270.4856,55952.4894,443.5033,-689.73,26014.1194
56589.9163,28046.5186,53946.0182,42178.0944,36736.6523,39282.6051,5930.4982,50454.6314,44274.0619,55952.087,458.0319,-682.4434,26012.4654
56591.168,28041.6459,53946.6888,42177.6921,36732.7631,39280.9063,5925.6703,50446.6742,44266.9094,55948.5555,451.5946,-689.6406,26011.3031
56580.3498,28037.0414,53950.6674,42178.005,36712.7359,39281.5769,5924.1503,50426.5577,44258.1475,55939.436,431.4333,-699.4754,26006.2963
56575.5218,28039.0531,53948.8792,42171.6571,36699.5037,39282.5156,5925.8938,50414.7112,44248.6256,55935.5468,427.0971,-700.593,26002.4071
56598.3653,28046.7868,53947.9852,42180.1507,36722.973,39290.2941,5927.1902,50433.9784,44258.5498,55941.1347,442.2516,-687.3161,26005.4916
56611.2846,28062.7459,53952.2767,42195.5734,36754.5336,39302.6769,5931.8393,50469.92,44272.0056,55950.3883,456.7355,-674.3968,26009.5149
56613.5645,28072.6254,53955.1824,42192.1313,36748.901,39310.053,5934.5216,50469.2495,44279.1134,55952.9811,455.7967,-673.1451,26013.0912
56600.2429,28062.9694,53956.3894,42174.8757,36720.9613,39307.4155,5935.5497,50445.8249,44265.7918,55947.7061,442.3857,-687.629,26012.5548
56591.2127,28059.1697,53953.2602,42164.728,36710.1878,39302.364,5931.0794,50431.7433,44248.5362,55941.8052,430.0028,-695.7203,26011.8842
56606.7249,28067.4398,53954.3331,42172.1041,36723.9565,39306.9237,5930.1853,50448.06,44254.6159,55947.2144,442.9668,-685.3491,26015.9075
56627.1544,28073.6089,53956.9259,42185.7387,36743.9836,39315.8197,5936.3544,50473.094,44265.5683,55955.3951,465.408,-668.0489,26023.6412
56615.2632,28071.0161,53956.6129,42183.5929,36734.3277,39311.3941,5938.2319,50470.0541,44264.2719,55951.2377,460.3565,-672.4745,26022.613
56593.895,28061.5389,53959.9657,42169.8242,36713.4959,39300.9782,5937.7402,50449.1776,44254.3924,55941.7605,439.7035,-685.6173,26019.6626
56578.0699,28061.7625,53963.1844,42162.7164,36700.8001,39296.5078,5939.0813,50440.5051,44250.3691,55940.3747,433.1321,-687.9866,26017.338
56591.3916,28069.7197,53968.1017,42170.9865,36727.7563,39296.9996,5943.5517,50464.5556,44259.0863,55947.6167,443.235,-679.2247,26021.0484
56606.3672,28073.9665,53966.9842,42180.9107,36750.9574,39296.9996,5946.2339,50483.2864,44269.7704,55952.9364,459.4177,-669.39,26021.4061
56603.4168,28067.4398,53961.5303,42176.9321,36744.5648,39296.6866,5945.8762,50468.8472,44257.4769,55947.3932,459.2836,-673.7709,26019.6626
56578.2487,28068.8256,53956.7024,42164.1469,36722.1683,39283.7673,5947.9326,50438.1806,44232.3536,55938.9442,437.2448,-691.9652,26017.4274
56555.897,28058.7673,53950.1756,42148.4113,36699.8613,39276.1678,5945.3398,50413.7278,44212.9523,55928.7965,425.756,-703.454,26011.9736
56572.929,28060.7343,53952.8579,42158.6931,36727.041,39280.8616,5948.2902,50417.304,44218.0485,55933.7139,444.3973,-689.6406,26014.7452
56586.0718,28071.2843,53954.0201,42166.5162,36743.0449,39281.3087,5949.4078,50421.8638,44221.2671,55938.0054,455.7967,-678.286,26016.891
56576.1477,28069.2279,53953.2602,42157.7543,36736.1158,39276.6595,5947.1726,50408.9445,44206.962,55934.0268,447.2136,-683.7398,26014.6111
56545.8387,28065.7411,53948.5216,42149.5289,36715.8204,39269.8199,5946.9491,50382.3459,44188.1418,55926.3378,435.8143,-694.2004,26014.477
56529.1643,28063.8635,53947.1805,42143.7621,36701.1577,39259.9851,5947.7538,50363.5257,44177.9047,55922.3145,425.8901,-698.7602,26012.5995
56539.4014,28078.5263,53948.5663,42156.6367,36719.5755,39262.7567,5955.6663,50370.3654,44182.7774,55928.0366,442.8774,-685.8855,26015.5946
56552.9913,28085.7682,53949.0134,42167.6785,36740.9438,39268.0764,5957.8121,50373.0029,44185.5043,55930.4953,458.5683,-675.3355,26019.4391
56545.6152,28086.0811,53949.1028,42162.9846,36739.2898,39263.4273,5957.365,50362.7658,44175.3119,55931.7023,455.2156,-677.9283,26021.1825
56523.9787,28078.1686,53948.2981,42150.1994,36701.2471,39253.6372,5952.3135,50324.3655,44162.482,55919.3641,432.238,-697.3296,26018.0086
56519.5531,28076.9169,53945.1241,42145.6844,36679.8341,39253.5478,5951.8665,50298.4822,44152.5578,55911.6304,423.0738,-705.2869,26015.7734
56534.037,28082.1025,53942.6208,42157.4861,36706.3433,39260.2533,5954.4146,50311.3568,44158.5928,55911.1387,441.134,-688.7019,26017.4274
56552.9913,28089.2998,53948.1193,42169.5113,36735.8029,39271.6974,5958.7508,50329.2829,44172.2274,55924.1474,458.5683,-670.7758,26020.8696
56544.587,28084.0695,53950.1756,42172.9982,36733.5677,39273.7985,5959.8684,50313.1896,44166.7289,55921.5546,456.4673,-681.1917,26018.4109
56520.4471,28075.9335,53948.1193,42158.8719,36699.8613,39260.4321,5954.4146,50283.1936,44143.7513,55906.6683,438.8094,-701.8447,26007.8609
56514.2781,28066.7692,53950.2203,42155.0721,36684.5727,39253.816,5949.8549,50262.7641,44135.9282,55899.2922,428.5723,-709.6231,26005.6257
56528.4938,28066.4116,53944.4983,42159.5871,36701.9176,39253.4137,5943.5517,50266.3404,44137.5375,55903.7626,438.3177,-697.5979,26007.2798
56541.2343,28078.8839,53944.0513,42172.2382,36720.7378,39258.2417,5951.7771,50282.9701,44143.0807,55912.9715,458.4789,-684.7233,26014.477
56534.3946,28076.8275,53941.7267,42162.7611,36710.2772,39252.3408,5950.883,50282.3442,44139.5044,55908.4564,453.7851,-689.9536,26012.0183
56524.9175,28071.5525,53943.6042,42156.4132,36682.3822,39251.9385,5951.7324,50257.8914,44132.7095,55897.6382,438.72,-700.5483,26008.442
56517.1838,28072.2231,53946.4206,42153.1051,36674.2015,39250.6421,5954.8169,50241.0829,44129.1779,55896.1183,431.0757,-705.6892,26010.1408
56528.1361,28075.6205,53949.2369,42156.4132,36689.5348,39251.402,5952.5371,50259.1878,44136.107,55904.8802,443.1456,-688.836,26015.8181
56542.4412,28084.2036,53951.8297,42164.9069,36708.1761,39251.3573,5954.9958,50280.3773,44148.4898,55909.6634,456.3779,-674.2179,26019.1709
56544.8999,28081.432,53953.9754,42163.6105,36700.5765,39243.9812,5958.3038,50275.3258,44149.1157,55907.3836,458.7471,-673.7262,26018.5003
56530.5054,28075.1735,53954.1543,42159.8107,36675.185,39239.3768,5957.7227,50240.8594,44131.5025,55897.9064,441.7151,-689.9536,26013.8959
56525.1857,28068.915,53949.9074,42146.8019,36659.494,39237.5439,5948.3349,50218.0159,44116.9292,55887.8481,424.9066,-702.2917,26009.5596
56548.208,28080.0015,53956.5682,42161.3753,36692.7534,39250.8209,5955.1299,50244.7486,44133.9165,55898.8452,445.0679,-682.6669,26014.924
56568.3693,28086.0364,53960.4574,42177.5579,36716.9827,39258.644,5962.0142,50269.6484,44151.2167,55911.8539,462.5022,-670.284,26020.0202
56559.8756,28078.3921,53960.681,42175.9933,36704.1975,39257.3029,5962.1483,50262.9876,44141.7396,55907.16,454.2768,-677.6601,26016.891
56545.1235,28067.8421,53953.9307,42160.9282,36678.0013,39249.7927,5956.2027,50232.321,44127.0322,55900.0522,439.8376,-692.7699,26013.0912
56529.8796,28065.0705,53952.0979,42152.1664,36660.4775,39241.6567,5950.0784,50218.4182,44121.7124,55893.3914,430.7181,-699.6989,26008.6656
56545.794,28069.0044,53949.6392,42155.2062,36673.5756,39242.0143,5946.5915,50235.0479,44127.658,55893.6149,443.1456,-691.0264,26010.7666
56570.7833,28069.4515,53949.4157,42162.8952,36693.2899,39251.8044,5948.8267,50251.0518,44141.7396,55902.3321,459.0601,-678.0177,26015.5946
56566.0894,28067.0375,53951.6062,42160.3471,36689.3113,39251.8491,5950.436,50252.1694,44143.2595,55907.6518,457.4507,-678.5095,26016.5781
56554.2877,28066.9928,53952.679,42143.9409,36662.3998,39249.1221,5945.6527,50229.2812,44127.1663,55905.5954,433.6238,-693.3957,26011.169
56545.8387,28063.7741,53954.6907,42132.8992,36650.7769,39251.2679,5945.4292,50217.0324,44132.5307,55910.0211,429.3323,-693.9769,26011.2584
56560.0991,28068.1551,53951.5615,42135.939,36669.1053,39251.8491,5943.2834,50243.2287,44149.7415,55913.955,444.0844,-683.6057,26013.5382
56577.2206,28078.9286,53953.9307,42154.3121,36691.2335,39262.3097,5950.1678,50273.5823,44165.4772,55925.4438,458.0319,-673.1004,26019.5732
56574.8513,28080.225,53954.7354,42156.9049,36687.3443,39267.8082,5955.1746,50280.6902,44165.4772,55930.7188,455.9308,-673.9497,26021.719
56552.6336,28067.5292,53953.5284,42141.9293,36657.4377,39254.8442,5952.6712,50259.5007,44152.379,55923.4321,444.8444,-689.1042,26018.4556
56541.1448,28056.3533,53949.371,42135.5814,36645.1442,39244.1601,5950.9724,50239.4736,44144.1983,55916.5478,437.8706,-697.3296,26014.1194
56552.4995,28055.0569,53942.7549,42139.9176,36663.2044,39247.4234,5946.6362,50255.6562,44149.6521,55914.2679,446.5431,-690.6241,26015.7734
56568.4587,28061.7625,53944.9006,42149.8418,36692.4405,39251.6255,5950.3913,50276.0857,44165.0748,55925.9802,462.7258,-677.7495,26023.1495
56560.8144,28059.2591,53942.129,42146.8019,36686.4055,39245.9929,5952.0453,50263.7476,44160.5151,55919.9899,455.1262,-683.5163,26019.4838
56551.2478,28049.7372,53940.475,42139.3365,36666.0208,39241.8355,5948.3796,50244.9274,44143.3936,55910.1105,438.8094,-699.1178,26010.0067
56547.7163,28046.9656,53944.7218,42137.9507,36654.7555,39245.2329,5947.4856,50241.4852,44145.5394,55910.6916,430.7628,-697.4638,26010.7219
56568.2799,28053.7158,53946.6441,42145.0138,36674.4697,39255.4253,5948.2455,50259.8137,44159.7104,55913.2397,444.5314,-686.869,26013.2253
56585.1778,28061.0919,53953.2155,42162.1352,36707.7291,39265.9307,5956.0239,50292.5366,44169.9028,55923.2533,459.5965,-675.112,26017.6063
56574.3148,28066.1881,53951.8297,42159.5871,36699.906,39260.5662,5955.8004,50289.4521,44163.0632,55924.7732,454.9921,-679.4482,26015.1029
56550.1302,28066.501,53948.6557,42148.2772,36673.7992,39250.5974,5954.0123,50271.3919,44151.0826,55918.2912,439.2117,-698.7602,26007.995
56545.0341,28064.7576,53946.2864,42146.7572,36669.5076,39251.8491,5955.2193,50263.9711,44150.4568,55911.7198,435.7696,-705.7339,26005.1787
56567.9222,28070.122,53945.303,42156.4579,36688.3278,39259.3145,5954.4146,50285.4735,44166.1477,55916.5031,448.9124,-694.3792,26009.0232
56584.3731,28080.1356,53944.4983,42168.2149,36710.456,39266.78,5953.297,50294.5036,44178.2624,55920.2135,459.3283,-684.9468,26013.4488
56586.1166,28086.0811,53944.3195,42164.5939,36700.7107,39270.1328,5952.2241,50296.3811,44180.3187,55920.2135,453.651,-684.8127,26011.7501
56577.2206,28085.6788,53946.7335,42157.799,36676.4367,39272.9044,5954.5934,50278.9468,44172.3615,55913.1503,439.7035,-695.765,26007.3245
56572.2138,28084.7847,53951.472,42157.2179,36673.4862,39282.1133,5959.332,50272.42,44168.2041,55913.1503,434.8308,-696.4356,26008.0397
56584.9543,28088.9422,53951.1144,42170.5395,36699.3695,39291.3669,5959.5555,50295.9788,44181.1681,55917.4865,454.545,-682.4434,26014.3876
56596.6666,28090.8197,53951.0697,42182.7883,36723.1518,39294.6303,5957.9909,50319.2693,44184.9232,55925.3097,469.3419,-673.3686,26016.5781
56598.0077,28085.7682,53953.9307,42180.3743,36722.2577,39290.9646,5956.0239,50317.6153,44190.5558,55930.54,469.3419,-675.9167,26020.2885
56577.0864,28080.0909,53955.1377,42161.5094,36697.3579,39284.4826,5952.6265,50302.1926,44180.1846,55921.8228,446.5878,-692.6805,26016.3099
56570.7833,28075.0841,53955.8977,42152.971,36686.7632,39281.6663,5955.1746,50294.0118,44169.0534,55917.3524,439.3905,-696.972,26014.03
56579.8134,28072.4913,53949.1028,42153.0157,36699.906,39280.9957,5951.6877,50305.9477,44175.0437,55918.9618,449.4041,-688.6125,26015.5052
56587.8153,28077.051,53949.4604,42156.6367,36714.6134,39281.1745,5951.7324,50325.3937,44192.3887,55926.4719,461.8317,-677.3472,26022.0319
56585.4907,28076.5593,53949.7286,42156.9943,36711.7971,39276.0336,5955.6663,50312.9214,44193.9533,55930.227,459.2836,-677.1684,26024.5353
56571.3644,28067.7974,53946.7782,42149.663,36687.8808,39266.1989,5954.504,50292.6707,44182.1963,55923.2086,445.4255,-688.9254,26020.0202
56558.5792,28062.5224,53946.957,42144.5668,36674.2015,39257.884,5952.85,50283.0595,44172.5403,55920.2135,435.6354,-695.8991,26015.4158
56566.5811,28065.4728,53946.1523,42150.3335,36698.0284,39259.851,5955.4428,50307.4229,44182.3751,55923.2086,449.1806,-686.3773,26018.098
56579.3216,28070.8373,53949.1475,42161.9117,36715.3734,39267.1376,5961.3883,50327.7183,44198.1554,55927.5448,464.648,-671.491,26024.5353
56575.4324,28067.5292,53949.5498,42158.0672,36703.1246,39263.2931,5960.6731,50320.074,44191.3605,55930.3612,462.6364,-672.698,26023.2836
56552.7678,28056.7557,53947.8958,42142.7339,36682.5163,39253.3243,5953.6546,50302.6843,44176.4295,55928.7071,445.202,-685.8408,26016.8016
56546.0175,28060.4213,53949.9968,42140.3646,36686.4055,39254.8442,5955.9345,50291.3296,44173.792,55928.5283,436.9318,-689.5512,26014.2982
56563.6307,28068.5574,53951.025,42147.1596,36709.0255,39267.1376,5961.8354,50305.4112,44186.1749,55932.954,449.8065,-680.7446,26017.6063
56585.9377,28073.0277,53949.3263,42158.6484,36727.8904,39271.4739,5962.1483,50328.657,44198.5577,55932.8198,463.8433,-672.9662,26016.3099
56577.5782,28072.5807,53951.2038,42156.1003,36718.0109,39266.8247,5962.64,50328.9253,44199.0942,55940.4194,456.1096,-677.8389,26015.9075
56555.1817,28067.8421,53949.5498,42141.3928,36689.1325,39256.5876,5958.9297,50305.0089,44181.2575,55931.2999,435.7249,-694.558,26011.5713
56548.8338,28061.3601,53951.2485,42129.2782,36677.0178,39254.0842,5956.5157,50290.212,44173.2109,55927.0978,426.8736,-702.3811,26008.3079
56565.3294,28065.1599,53954.8695,42141.661,36704.3763,39259.6275,5957.4991,50305.5453,44187.7842,55933.3563,442.7433,-685.7067,26010.3196
56584.0602,28071.5525,53952.1873,42152.7475,36732.3607,39268.3446,5966.3057,50331.5628,44202.8493,55940.5088,456.5567,-669.837,26015.5499
56578.2934,28074.3241,53950.3098,42153.9992,36723.9565,39265.3048,5964.4729,50325.8854,44205.1739,55936.8879,451.8628,-672.0275,26014.6111
56552.0525,28071.9548,53954.3778,42147.4725,36703.8399,39264.1425,5962.5953,50308.1381,44191.3158,55931.6128,441.4916,-685.3491,26013.1806
56546.1963,28070.8373,53961.575,42141.661,36697.4026,39266.3777,5964.7411,50306.0371,44186.5325,55933.2669,440.374,-690.7135,26013.0465
56575.2536,28077.2746,53966.3136,42158.0225,36721.4084,39276.5254,5969.7479,50326.7795,44198.066,55937.8266,452.444,-677.3025,26016.2652
56587.3235,28083.086,53962.1562,42168.7514,36740.6756,39280.3252,5970.7314,50340.6376,44201.1505,55936.3514,463.4857,-669.0323,26016.6675
56569.9339,28075.844,53958.8034,42165.4433,36737.4569,39276.7489,5964.0706,50333.1721,44197.3507,55928.0813,462.0552,-672.6086,26012.1077
56547.8057,28068.3786,53959.2057,42153.0604,36713.0488,39270.4904,5960.2261,50310.1051,44180.5422,55924.4603,443.8162,-686.6902,26005.9386
56542.0389,28066.3669,53962.8267,42154.178,36698.6096,39273.5302,5960.8966,50301.0303,44179.4246,55923.9686,439.0329,-686.2432,26008.3079
56563.0049,28072.8936,53964.5702,42168.3043,36723.3306,39284.8849,5963.2659,50324.6337,44195.7414,55929.9141,455.5732,-670.3287,26013.6724
56586.5636,28083.7566,53963.8549,42181.8495,36742.6872,39290.4282,5967.6915,50347.209,44208.0349,55932.3728,468.3137,-660.9857,26020.6908
56578.1146,28080.985,53963.8996,42177.1109,36730.3044,39286.8966,5964.3835,50347.1196,44206.2914,55929.2436,460.5353,-667.3336,26018.7238
56553.7512,28067.5292,53963.8996,42156.0109,36696.9109,39276.9724,5959.5108,50317.8388,44193.5956,55926.7849,441.1787,-685.3938,26010.856
56551.4266,28062.0754,53966.1795,42148.3666,36692.3511,39278.6711,5959.1532,50310.3733,44193.4168,55923.8791,433.0426,-692.5911,26011.5713
56570.8727,28062.9694,53968.2359,42165.5774,36715.5969,39287.746,5966.7528,50338.8047,44211.79,55928.9306,448.7336,-674.6203,26017.2039
56587.413,28073.2065,53967.2971,42181.3577,36740.7203,39293.3786,5972.2066,50352.3052,44217.512,55933.0881,463.7539,-660.9857,26022.8813
56581.9591,28069.0044,53962.0668,42169.8689,36732.8972,39285.9131,5967.6021,50341.7999,44207.5431,55928.7518,454.545,-669.2559,26021.2719
56563.586,28056.8898,53958.3564,42157.5308,36710.3219,39278.537,5966.7081,50325.3937,44193.2827,55921.5099,433.892,-683.3375,26015.0135
56552.276,28052.3747,53957.954,42147.8748,36698.4755,39271.0268,5965.3223,50305.6347,44187.203,55919.23,425.9348,-688.7913,26008.755
56574.5384,28058.7673,53958.3117,42152.3452,36712.6912,39274.022,5964.0706,50327.3606,44211.6559,55928.8859,446.9454,-674.8885,26011.6607
56597.9183,28057.0239,53959.6081,42155.2956,36725.5211,39279.5652,5963.2659,50358.206,44222.9211,55935.6362,458.7919,-664.6961,26016.0416
56590.1399,28058.2756,53956.1212,42153.8204,36727.7563,39276.3019,5958.6167,50356.5967,44211.7006,55932.2834,449.8065,-669.6135,26013.9853
56561.619,28050.676,53948.2981,42142.0187,36703.4823,39260.8792,5953.4311,50321.7727,44192.1204,55919.9452,430.0028,-687.0925,26005.7598
56558.3557,28044.9986,53950.8909,42140.1411,36695.7486,39263.472,5954.8169,50315.5142,44188.0077,55923.3427,423.5208,-692.5017,26004.9105
56582.9426,28055.8616,53955.406,42152.0323,36709.5172,39275.9889,5958.4826,50342.3363,44207.1855,55932.954,438.3624,-680.9235,26013.8065
56592.0621,28058.2309,53953.3496,42161.7776,36724.9846,39271.6974,5955.0852,50357.759,44217.0203,55936.1279,452.5334,-673.6368,26013.7618
56590.0505,28063.7741,53955.3612,42165.9797,36729.3209,39267.8976,5958.7508,50362.0952,44212.684,55934.8315,455.4391,-678.3307,26011.0795
56570.8727,28059.6167,53951.4273,42150.0653,36699.1013,39260.745,5956.1133,50338.8047,44196.2779,55933.6692,435.546,-690.7582,26005.4022
56552.5442,28051.0336,53947.6722,42135.939,36679.2977,39252.7431,5950.0337,50323.0244,44192.1651,55924.7732,425.1301,-700.6377,25999.9037
56573.5102,28054.744,53942.7102,42147.1596,36707.9973,39258.9122,5954.9063,50344.348,44200.7929,55929.78,441.8045,-686.7349,26000.9766
56587.3682,28058.0968,53944.6771,42156.9496,36733.8359,39266.8247,5954.8169,50363.794,44215.5004,55936.0832,454.098,-677.3025,26006.7433
56581.825,28052.0171,53946.3311,42154.3121,36729.2762,39259.1357,5951.196,50351.6793,44215.3662,55934.7868,444.755,-684.6339,26005.581
56556.0758,28047.9938,53945.3924,42140.8117,36702.5882,39250.1056,5946.8597,50327.763,44202.0893,55928.4389,426.6053,-699.2072,26000.2613
56548.2527,28042.987,53945.2136,42135.4473,36688.9983,39250.1503,5949.2737,50321.6833,44201.1505,55924.1474,421.6433,-702.6494,25998.7861
56573.4208,28042.0929,53943.9619,42141.4822,36709.1596,39257.3029,5953.2076,50340.3246,44209.823,55930.3164,433.4003,-693.3063,26003.3906
56585.1778,28047.9491,53945.1241,42150.87,36729.8573,39261.3262,5953.8782,50361.2012,44221.6247,55935.5915,445.649,-677.973,26006.2069
56581.378,28050.8101,53948.2087,42152.3899,36732.4054,39261.7285,5956.2474,50369.6054,44218.8084,55935.2785,445.1126,-676.0508,26007.4139
56554.4218,28045.2222,53948.3428,42138.4424,36707.7291,39256.1853,5955.2193,50347.9689,44208.1243,55934.1609,426.65,-689.6853,26003.167
56538.3285,28044.4175,53945.8841,42129.8146,36688.0596,39252.6537,5951.3748,50327.763,44200.0329,55931.1658,414.7142,-698.5366,25997.892
56549.6832,28049.5584,53947.1358,42140.5882,36709.7855,39260.4321,5953.1182,50341.0846,44212.3711,55931.9705,435.1884,-688.2101,26005.7598
56567.6093,28060.1084,53948.0299,42157.6202,36742.2849,39269.8199,5955.6663,50372.5111,44225.5586,55934.608,451.684,-677.2131,26008.3526
56557.8192,28052.7323,53943.2019,42154.2674,36733.7465,39261.9073,5952.4924,50377.6073,44215.6792,55930.7188,444.442,-684.0974,26002.0494
56550.9796,28054.8781,53946.6441,42151.8534,36713.5853,39267.8976,5958.7061,50359.3236,44203.9669,55924.058,438.3177,-691.0712,26000.1272
56550.9796,28053.7158,53949.4604,42150.2888,36700.3977,39266.6906,5960.0472,50344.6162,44200.1671,55922.9851,431.6568,-693.7534,25998.7861
56573.689,28060.9131,53951.2485,42161.7776,36722.0342,39276.1678,5963.3106,50372.377,44216.4391,55936.9326,447.1689,-680.4764,26007.7715
56587.1447,28060.9131,53952.1426,42170.3607,36744.5201,39282.8733,5964.607,50392.3595,44231.5936,55941.8947,460.2224,-670.0605,26013.27
56585.4013,28061.4048,53955.9424,42167.3208,36743.8048,39284.3038,5964.3388,50386.548,44235.7957,55939.0783,460.8035,-673.1898,26010.9901
56569.9339,28059.8402,53954.8695,42152.6581,36722.7495,39278.7158,5960.8072,50364.241,44223.6364,55928.126,439.167,-687.629,26005.4469
56561.7979,28060.8237,53954.9142,42139.6941,36709.3831,39276.6595,5960.986,50358.8319,44213.2205,55924.3262,427.0524,-695.2733,26000.6189
56576.0136,28067.3951,53952.3661,42148.7242,36718.9497,39281.1298,5965.5011,50382.6141,44222.6529,55932.4622,439.167,-683.248,26003.0329
56595.1914,28077.7663,53952.5896,42161.6882,36738.798,39285.8237,5968.7644,50401.3002,44239.5061,55937.1561,453.338,-668.8535,26008.0844
56590.8551,28074.5029,53949.7733,42157.1732,36740.4073,39284.4379,5964.9199,50399.4226,44235.3487,55934.608,448.1971,-673.6368,26007.2351
56567.5199,28059.1249,53947.5381,42139.0235,36710.4113,39281.3534,5957.0968,50372.8688,44220.0601,55930.0482,431.5674,-691.0264,26002.6753
56563.1837,28053.8499,53948.8792,42136.4754,36702.4541,39278.1347,5955.6216,50359.2342,44214.7404,55932.5069,425.9795,-691.4288,26005.5363
56584.7307,28057.6497,53947.2252,42149.3948,36729.2315,39280.2358,5957.8121,50380.2896,44226.4527,55940.9559,437.7365,-680.6999,26007.2351
56598.8123,28058.6332,53946.2417,42161.7329,36744.4754,39286.4496,5957.1862,50398.7968,44232.4877,55943.9957,447.9289,-668.0936,26007.2798
56587.5918,28054.9228,53948.1193,42158.2013,36734.4171,39285.9578,5957.678,50405.0106,44237.5392,55942.7887,452.891,-670.1052,26007.4139
56570.515,28048.8431,53947.6275,42147.6513,36713.5406,39280.2358,5956.2474,50389.6326,44234.2311,55941.0453,441.4916,-687.3608,26002.1389
56560.2332,28041.1988,53944.543,42141.974,36695.3015,39274.2902,5947.5303,50378.1438,44227.5256,55936.1279,430.5393,-696.5697,25998.1155
56577.2206,28039.366,53943.7383,42146.3549,36718.2344,39277.5536,5944.9375,50391.2866,44234.6781,55936.3514,439.0329,-683.1586,25999.0096
56590.8551,28042.227,53944.6771,42152.524,36739.4686,39280.7722,5946.368,50408.2739,44239.1932,55938.4525,451.9969,-673.6368,26003.3906
56590.3187,28039.7236,53947.0017,42156.5473,36735.177,39281.7557,5948.8267,50408.408,44236.7345,55945.2474,445.962,-678.0624,26001.7365
56567.5646,28029.9783,53945.3477,42147.7407,36713.9876,39277.0171,5945.161,50385.2963,44211.477,55937.6478,427.6335,-693.3957,25995.478
56561.7532,28028.2348,53945.6606,42141.661,36699.0119,39276.8383,5941.8082,50367.8173,44208.3031,55929.1095,415.2507,-699.4754,25993.064
56576.997,28034.2698,53945.7947,42145.5055,36718.3685,39280.3252,5942.0317,50384.1788,44230.3419,55932.5069,429.3323,-685.9303,25996.238
56585.5801,28044.9986,53944.4089,42156.145,36741.7037,39281.2192,5945.9209,50409.168,44238.7909,55938.4525,446.6325,-674.5309,25998.9649
56584.2837,28049.916,53947.6722,42155.2062,36738.6639,39279.8334,5946.0998,50414.4877,44239.0591,55940.1065,443.995,-679.5377,26000.6636
56568.7269,28041.9588,53952.3661,42142.421,36711.3948,39272.2785,5942.5682,50385.2516,44227.3468,55937.6478,424.5043,-699.9671,25994.6734
56560.3673,28030.7382,53948.9686,42141.3928,36693.7369,39270.1775,5942.8364,50368.8008,44213.2205,55929.6012,411.8532,-713.6464,25990.7842
56580.7968,28035.5215,53947.1358,42151.2723,36716.3569,39277.2406,5947.0832,50392.136,44229.4031,55935.815,431.4333,-700.2801,25998.2497
56599.0359,28047.2338,53948.1193,42156.9943,36747.9622,39279.297,5948.0667,50408.4527,44240.3108,55940.7324,447.7948,-686.7349,26000.753
56585.8483,28046.2503,53950.265,42150.4229,36735.49,39278.3135,5948.469,50403.893,44239.4167,55942.5205,440.5081,-688.2101,26003.0776
56581.378,28044.7751,53952.8579,42149.5289,36711.1713,39279.5652,5949.0055,50401.926,44236.3769,55940.1959,430.9863,-694.3792,26003.2564
56569.3974,28039.9472,53952.5896,42144.2986,36694.2286,39275.4078,5945.8315,50388.6938,44231.0572,55934.5186,427.4994,-698.3578,26000.1719
56578.4276,28045.4904,53951.3379,42152.2558,36709.8749,39282.2474,5946.6809,50413.1019,44240.4449,55939.436,437.3342,-685.8408,26003.3011
56601.6287,28055.504,53951.1144,42160.6153,36734.6853,39291.6799,5947.0832,50431.788,44252.8278,55948.2425,450.7005,-678.0177,26008.6656
56598.9017,28054.7887,53951.8297,42157.4414,36726.4599,39286.9413,5946.1892,50425.2613,44246.8822,55944.2192,445.202,-684.1421,26004.2399
56568.414,28044.9092,53948.3428,42141.9293,36699.906,39274.3796,5940.1095,50400.6296,44224.3963,55932.3728,422.135,-700.593,25992.5276
