FC3,FCz,FC4,C5,C3,C1,Cz,C2,C4,C6,CP3,CPz,CP4
56364.2085,27903.2886,53881.6005,42001.4262,36649.6593,39135.2624,5966.4845,50355.345,44310.6741,55962.0112,282.1684,-795.4985,25829.4493
56341.1415,27898.8183,53881.1088,41992.0832,36640.6292,39131.1496,5960.8072,50341.7552,44296.4584,55955.2163,266.5669,-810.2953,25823.9955
56315.2581,27888.76,53877.1749,41976.3923,36617.1151,39123.5948,5955.264,50318.867,44286.9812,55946.7226,249.4901,-822.7229,25814.6524
56321.2037,27892.6492,53877.6666,41975.5876,36615.0141,39125.3382,5954.6381,50321.4151,44289.7528,55942.8781,249.4901,-822.6782,25811.2997
56338.1463,27896.6278,53876.8619,41986.3611,36637.1423,39128.9592,5955.5322,50346.1808,44303.6109,55952.847,261.0236,-815.0339,25811.5232
56342.572,27886.3013,53869.7094,41987.7023,36644.116,39125.7405,5952.8947,50357.9378,44306.3378,55947.8849,262.4989,-807.0767,25807.2764
56328.1327,27881.8756,53869.1729,41975.9452,36625.0724,39116.0399,5949.4525,50340.6376,44293.3738,55934.4292,249.3113,-815.2574,25801.3308
56311.7266,27881.9203,53868.9047,41967.6751,36605.1793,39111.793,5945.7421,50318.5093,44274.6431,55927.1425,236.2132,-827.3274,25798.6486
56311.1007,27878.1652,53871.7657,41969.1056,36608.5321,39116.9339,5944.714,50315.246,44281.4827,55929.5565,240.773,-824.8687,25803.5213
56338.6381,27889.967,53879.4994,41987.7023,36638.2152,39127.3499,5955.1299,50346.5384,44302.7616,55947.8849,264.1082,-802.6063,25816.5747
56338.6381,27892.0233,53880.3935,41989.3563,36647.8711,39125.8299,5956.0686,50367.3255,44312.3281,55952.7129,273.3171,-797.8231,25817.0217
56321.2037,27892.4257,53881.4217,41978.8063,36625.0724,39121.8513,5954.6828,50356.5967,44299.8558,55949.8966,261.2472,-807.3896,25814.4736
56316.5098,27892.5598,53878.963,41974.6935,36607.0569,39122.5666,5955.3534,50337.553,44285.3272,55944.8898,249.669,-819.4149,25813.8925
56328.6692,27898.1924,53877.9348,41981.3544,36613.4048,39130.6579,5961.3436,50342.6492,44296.6372,55947.6614,256.3298,-810.4742,25818.9887
56348.2493,27900.9193,53878.1583,41993.469,36637.6787,39133.5189,5962.3718,50379.3955,44315.5915,55954.9928,268.5338,-794.8279,25821.7156
56349.8139,27894.4373,53875.0291,41993.6925,36639.0198,39129.3615,5958.885,50385.4305,44313.1775,55954.1881,268.1762,-794.1127,25816.8429
56333.2289,27890.1905,53874.4479,41984.7071,36616.4446,39124.7571,5957.365,50364.7327,44305.3544,55951.0142,257.2685,-803.9474,25813.356
56308.0162,27888.2235,53871.3187,41972.5925,36591.6789,39115.6375,5949.9443,50344.035,44293.4632,55941.4029,237.2861,-821.9182,25805.9353
56308.1503,27883.2614,53866.446,41964.6353,36590.5613,39108.5297,5940.6906,50348.863,44287.2494,55940.4194,230.7147,-829.9202,25798.8721
56337.0287,27889.7434,53868.4577,41982.2931,36619.6632,39114.2964,5940.2436,50374.3887,44302.1357,55945.8733,244.9304,-816.9115,25801.3308
56344.986,27889.1623,53868.2789,41993.5584,36628.2016,39116.4422,5939.7072,50382.2565,44308.4836,55945.4709,250.1607,-811.86,25800.6603
56319.6391,27885.3178,53867.5636,41977.4204,36602.8547,39111.793,5936.3544,50366.208,44294.9384,55939.8383,236.6155,-821.963,25794.8488
56297.1085,27883.0379,53867.6083,41965.7528,36574.5574,39108.3062,5937.2932,50347.3431,44290.3787,55943.2358,226.2443,-833.6306,25796.2346
56310.6984,27882.5015,53868.413,41971.3855,36590.8295,39110.899,5941.7635,50355.2556,44294.2232,55943.1016,229.5971,-829.7861,25797.6651
56329.6527,27884.7367,53868.7706,41978.7169,36616.981,39115.4587,5946.0998,50376.2662,44309.4224,55948.779,242.2929,-816.9115,25798.9615
56339.0404,27890.9504,53870.2905,41982.6061,36621.1385,39116.8892,5949.4078,50384.8046,44314.7868,55950.7459,245.6009,-814.0951,25803.1189
56334.2571,27893.0515,53872.9727,41980.4156,36613.4495,39115.8164,5948.2902,50374.7463,44317.2902,55951.6847,244.3045,-817.0456,25806.874
56314.0064,27885.0943,53870.3352,41967.9433,36593.4223,39106.6521,5946.8597,50360.173,44300.5711,55940.5088,227.7195,-829.1155,25804.8624
56318.4768,27884.9155,53870.1564,41971.9219,36606.2969,39108.4403,5949.4972,50367.8173,44305.9355,55946.7673,234.1568,-825.9416,25810.4056
56338.2357,27890.6375,53869.1282,41984.7518,36631.152,39118.1856,5952.6265,50394.5053,44323.1016,55952.9364,255.9721,-812.4858,25817.2452
56340.1133,27888.9835,53871.274,41990.608,36634.7283,39121.6278,5957.1415,50399.3779,44332.1317,55962.19,265.2258,-802.2487,25823.8614
56328.1327,27886.346,53868.7706,41984.1707,36619.9315,39114.52,5956.5604,50382.3012,44318.2737,55959.1502,250.8312,-812.8881,25818.5863
56313.917,27877.9417,53870.2905,41972.3243,36601.8265,39104.9534,5951.9559,50364.688,44294.3573,55948.6449,232.5028,-826.4333,25812.0596
56311.5925,27874.276,53867.206,41975.3641,36601.6924,39102.7629,5946.368,50365.8056,44295.0726,55946.2756,234.1568,-824.6452,25807.7234
56324.1988,27880.1769,53863.7191,41985.5118,36623.6866,39104.864,5942.9705,50386.4586,44303.9685,55951.8188,248.0596,-810.6083,25806.5611
56332.6031,27878.3441,53861.3051,41979.4321,36629.5427,39102.4053,5937.7849,50388.962,44302.4039,55950.3883,249.7584,-811.0106,25804.9965
56320.6226,27869.761,53862.0651,41974.1571,36613.4495,39101.7348,5937.2932,50368.2643,44290.6916,55947.4379,237.9566,-822.857,25804.46
56305.4681,27865.6483,53865.5072,41966.0211,36582.6935,39099.9466,5938.5449,50340.8611,44284.4778,55939.6148,224.1433,-833.6306,25799.0956
56308.2844,27870.5657,53869.9329,41968.0774,36590.8295,39103.8805,5942.4341,50351.2323,44292.1221,55944.8004,231.9664,-824.064,25803.9236
56336.984,27882.4121,53870.1117,41986.2717,36621.4067,39109.3343,5949.6313,50378.9932,44316.3067,55959.2843,254.631,-804.8415,25816.0383
56351.7362,27887.2401,53873.8668,42002.0968,36639.0198,39112.3295,5953.6099,50389.4091,44322.1182,55955.261,261.0236,-798.5383,25819.7933
56337.6993,27879.9534,53877.2196,41992.6643,36621.1385,39110.2284,5953.4311,50388.6938,44320.1959,55953.5623,248.5961,-807.3449,25816.6194
56318.5662,27876.3771,53878.8289,41984.6624,36601.603,39109.0661,5955.3534,50378.6355,44311.4787,55950.0754,236.392,-819.2807,25812.8196
56321.6507,27886.2119,53881.1535,41988.1046,36608.1297,39116.3528,5962.1483,50399.7356,44319.3913,55957.7197,246.4503,-812.7987,25817.5135
56347.8023,27900.1594,53887.0543,42003.2144,36629.9897,39134.1448,5971.8937,50439.7452,44343.4417,55972.2483,269.0703,-795.2303,25829.1364
56357.1453,27905.2109,53892.8211,42011.3951,36644.5184,39140.0903,5977.4369,50454.2738,44353.6341,55978.5068,273.63,-788.3012,25832.8915
56342.8402,27907.446,53890.3177,42001.8733,36627.844,39129.7191,5972.3407,50432.8161,44341.5195,55970.5496,259.7719,-798.4489,25828.0188
56315.884,27894.7949,53884.3721,41982.8743,36600.396,39117.6939,5962.5953,50402.7754,44319.7936,55960.2231,241.8905,-814.274,25820.2404
56310.9219,27887.1506,53884.5956,41983.6789,36613.4495,39122.8348,5961.3883,50401.9707,44324.8898,55965.1405,251.8594,-810.0271,25820.3298
56328.9821,27879.4169,53880.7064,41995.3018,36628.2463,39124.2206,5959.4661,50417.5723,44330.4777,55963.9335,263.8847,-798.896,25819.1228
56335.5088,27882.0544,53874.135,41998.2076,36627.6205,39120.3761,5957.0074,50412.5208,44324.5322,55957.2726,269.9643,-801.6229,25815.0995
56322.0978,27876.2877,53873.2857,41990.7421,36607.4592,39115.5034,5950.3019,50402.4178,44303.1639,55949.8072,254.944,-816.6879,25811.3444
56305.2446,27874.3207,53870.3352,41985.9588,36587.1638,39113.8494,5946.815,50391.9125,44288.4564,55938.3631,240.773,-825.7627,25803.9683
56315.8393,27879.7746,53868.1895,41988.8645,36594.8528,39115.9058,5948.4243,50396.5616,44297.4865,55940.4641,246.8973,-817.6267,25804.5495
56341.7673,27897.5666,53873.0621,42004.1084,36622.3007,39127.8416,5952.5371,50420.7462,44320.7324,55948.6896,267.4162,-803.6345,25811.4785
56350.261,27902.1263,53874.7609,42008.7129,36638.2599,39137.4528,5953.0735,50431.5197,44318.5419,55946.7673,279.665,-798.3148,25813.9819
56345.2095,27903.4227,53875.6996,42002.3203,36629.1851,39141.0738,5952.2241,50424.5907,44315.2785,55949.6731,274.9711,-807.7472,25813.0431
56327.2387,27900.3829,53876.4149,41993.022,36597.8479,39134.0107,5949.9443,50400.5402,44304.505,55941.4476,257.0897,-820.2642,25809.3774
56332.3349,27900.3829,53878.4266,41994.1396,36598.2503,39131.6414,5947.7985,50403.2224,44307.5448,55940.5535,255.4804,-810.5636,25812.0596
56351.6021,27909.1001,53879.4994,42006.2095,36626.7264,39144.9183,5951.7771,50425.2613,44319.5254,55948.8237,276.8487,-793.2633,25821.805
56359.3805,27903.6909,53878.963,42005.7625,36633.1637,39147.6005,5947.7538,50428.4799,44321.9393,55952.4,285.1188,-792.1457,25822.565
56338.5934,27889.9223,53873.3751,41988.0152,36610.6778,39138.0787,5940.3777,50405.7705,44309.1094,55943.0122,267.4162,-807.5237,25814.3395
56305.5575,27878.1205,53872.5257,41965.7081,36584.1687,39121.1808,5935.9074,50379.5743,44277.5488,55935.2338,242.6505,-827.685,25809.5115
56310.5643,27878.9252,53875.9232,41967.0045,36591.7683,39114.8329,5937.8743,50384.4917,44282.4215,55942.7887,242.6058,-821.6947,25813.7584
56326.8811,27878.1205,53874.0903,41971.4749,36613.1812,39117.6939,5941.6294,50406.4411,44301.5993,55955.7527,261.113,-804.2604,25819.3016
56324.5565,27870.5657,53868.7706,41966.4681,36609.6497,39109.7814,5938.3661,50397.411,44303.2533,55956.6021,263.9294,-805.1544,25815.77
56301.6683,27863.1002,53864.792,41955.9181,36590.4272,39100.4831,5939.9754,50374.7016,44278.8899,55942.744,244.4834,-824.824,25805.9353
56276.5896,27855.9476,53866.3566,41943.1776,36572.3222,39091.2294,5938.0531,50343.6327,44254.4818,55931.7917,222.7575,-842.3477,25799.5874
56278.9589,27858.004,53866.2672,41944.6528,36582.6935,39086.2226,5941.5847,50340.9505,44260.4274,55936.0385,227.809,-836.2234,25800.392
56293.1299,27870.1186,53868.5024,41949.4808,36607.9062,39089.3072,5944.2669,50350.8747,44266.4176,55941.8947,244.3492,-819.9066,25804.4153
56299.1649,27881.6968,53869.1729,41950.5537,36618.2327,39089.8436,5946.4127,50352.3946,44256.2699,55937.7372,244.9304,-818.5655,25804.8177
56274.1309,27877.1371,53861.5733,41946.7986,36597.6691,39080.6347,5943.0152,50325.7513,44233.6947,55924.4156,228.4348,-831.3954,25797.1734
56252.405,27875.483,53854.1973,41936.5168,36572.4117,39069.0118,5944.9375,50293.6095,44209.1972,55909.4399,217.9742,-842.0795,25790.9149
56254.819,27882.4568,53857.7735,41942.6411,36574.6468,39068.2966,5952.3135,50295.3976,44214.651,55912.3009,230.0441,-831.3507,25795.6088
56269.5265,27894.8396,53862.5568,41951.0007,36595.3445,39077.0137,5955.3534,50319.0905,44226.0057,55924.6838,246.048,-814.721,25804.0577
56280.2553,27905.8367,53867.0719,41959.6285,36607.3698,39084.658,5961.5225,50316.1401,44223.7258,55925.3097,255.6592,-810.6977,25809.0645
56268.4536,27914.5539,53868.1448,41961.8636,36589.4884,39082.4229,5963.847,50293.833,44218.6296,55918.2018,248.462,-819.1913,25809.6457
56249.6334,27914.8221,53869.307,41956.1863,36566.5108,39077.3714,5964.3835,50273.94,44201.8211,55911.6751,232.1005,-828.6685,25807.4105
56255.8472,27916.8785,53871.5422,41962.2213,36570.1765,39077.5949,5968.6303,50274.8787,44203.2516,55917.3077,238.4037,-823.3488,25810.1821
56275.3826,27927.3838,53873.2857,41980.1027,36594.5846,39082.9593,5969.7032,50294.3695,44216.5285,55924.7732,257.9391,-805.4227,25816.6194
56282.4905,27934.5363,53872.8833,41985.0647,36599.6808,39082.0205,5969.4797,50287.9322,44224.1728,55925.712,263.2141,-803.0534,25816.3065
56263.715,27925.3721,53870.2458,41975.7664,36574.7362,39073.661,5962.7295,50263.7029,44205.5315,55914.1785,247.8361,-815.7045,25809.9139
56248.0688,27912.5869,53865.8202,41962.6683,36544.2932,39066.6425,5955.8898,50234.288,44185.1914,55900.3651,229.1948,-831.5295,25800.4367
56258.8871,27908.8765,53864.5238,41969.195,36546.0366,39074.108,5954.7722,50225.9731,44184.5208,55899.4263,232.8157,-826.478,25802.4484
56274.9803,27912.8104,53865.239,41978.3145,36570.5341,39078.176,5950.883,50243.6757,44193.9086,55903.0026,245.1986,-817.0009,25802.4484
56274.2203,27908.3401,53864.9261,41975.8558,36566.9131,39075.2703,5947.8432,50251.5435,44191.584,55900.0075,246.2715,-813.961,25797.8886
56258.2612,27899.4888,53861.3945,41968.6586,36534.1008,39071.6493,5943.5964,50233.0363,44172.9426,55893.5702,233.8439,-830.4119,25794.4018
56240.961,27894.1244,53860.3663,41954.3535,36509.4692,39064.9885,5940.0201,50209.2987,44155.8659,55882.6625,219.5835,-840.649,25790.4679
56242.7044,27895.1079,53859.6064,41952.7888,36513.4031,39060.7417,5938.2766,50204.3813,44159.9339,55880.5168,220.5223,-840.9172,25788.2327
56266.3972,27896.8513,53862.4674,41963.16,36541.3427,39064.3179,5941.8082,50221.5028,44168.9193,55883.199,237.6437,-828.5791,25789.5291
56283.3846,27898.4606,53864.032,41970.9384,36551.9375,39066.7319,5945.9656,50220.9216,44168.07,55887.7587,251.4124,-819.8172,25792.5689
56263.715,27894.3926,53863.4062,41968.4798,36538.1688,39064.5862,5946.4574,50200.4921,44166.1924,55893.6596,244.2151,-825.9416,25794.9382
56245.476,27885.4072,53862.0651,41958.1532,36527.2611,39060.4734,5945.4739,50180.2862,44155.5977,55884.4954,228.0772,-840.2467,25796.771
56260.5858,27887.553,53862.4227,41959.4496,36528.1105,39066.1508,5946.1445,50183.5048,44155.3295,55885.2553,228.9265,-838.2797,25796.1005
56288.9725,27895.9125,53864.5238,41969.6867,36544.919,39070.04,5948.8267,50212.9197,44170.931,55893.5702,247.702,-823.6617,25800.8838
56304.5293,27906.7308,53873.4198,41977.0628,36552.3398,39070.0847,5951.2854,50226.2861,44184.7444,55905.6401,258.5649,-813.5587,25806.2929
56289.1513,27897.4324,53874.1797,41965.3058,36536.0677,39064.3179,5949.4525,50203.8449,44183.6268,55903.0473,246.5844,-822.3206,25801.3308
56271.6722,27890.5034,53874.0456,41950.3748,36516.6664,39057.1207,5948.7373,50176.7546,44169.5005,55898.7111,231.8323,-836.8492,25794.4018
56280.9259,27893.3197,53875.2526,41953.817,36521.0921,39061.6804,5950.883,50176.397,44169.3217,55898.8005,230.4912,-833.9882,25795.6982
56295.4098,27895.9125,53871.8998,41961.506,36545.2319,39066.419,5952.8053,50200.4027,44176.9212,55906.4895,247.1209,-818.342,25800.6155
56292.37,27887.553,53863.4062,41957.1698,36551.8034,39064.4968,5950.1231,50196.3347,44179.2905,55904.7908,250.9654,-816.4644,25797.7545
56278.4225,27875.036,53852.4091,41949.7043,36528.2893,39055.0196,5941.4953,50178.051,44166.2818,55893.3914,235.7662,-830.9931,25790.602
56261.4352,27863.726,53843.3343,41935.4886,36503.7024,39045.319,5931.6158,50153.6429,44147.9981,55887.6693,214.8449,-847.891,25784.2988
56269.2583,27861.8485,53844.4072,41933.4322,36510.1844,39045.4978,5934.1192,50159.6332,44154.3907,55892.0056,216.0966,-843.063,25789.2609
56289.643,27869.6269,53845.2566,41940.2719,36530.0328,39051.7563,5936.1309,50181.7167,44171.2886,55899.8734,234.5145,-830.1437,25793.5077
56295.1416,27881.1157,53845.2119,41947.782,36540.404,39055.6008,5935.2815,50195.4406,44178.7541,55900.9463,242.0247,-829.5178,25790.0208
56281.0153,27879.2381,53842.9767,41939.2884,36530.8821,39049.1635,5934.4321,50178.9451,44171.5568,55897.1912,227.3172,-842.4819,25784.2094
56263.0892,27870.8786,53840.5627,41931.197,36505.8929,39047.7329,5934.7004,50164.2823,44166.1924,55887.6693,219.0024,-853.7471,25783.2259
56272.8345,27873.9184,53845.9271,41938.2602,36515.9959,39057.3442,5939.9754,50174.0724,44173.345,55899.3816,232.9946,-844.4041,25790.5126
56298.4049,27877.897,53851.1574,41952.163,36542.5944,39063.4686,5944.4457,50200.8498,44190.4217,55911.0045,251.0548,-823.1699,25799.185
56301.266,27882.9932,53854.1973,41958.9579,36552.4292,39062.3063,5948.3796,50211.3998,44203.3857,55911.9433,253.6029,-816.5538,25801.1073
56280.3894,27881.2498,53855.3596,41953.0571,36541.9239,39059.2664,5948.1561,50192.7584,44198.7813,55906.4895,241.3094,-827.1039,25797.8886
56268.4536,27875.7513,53859.0252,41947.5585,36525.1154,39061.4122,5949.0502,50172.5078,44182.5539,55902.0191,228.3007,-841.2749,25794.3124
56284.5916,27884.6025,53860.9028,41951.5818,36538.9735,39070.5764,5950.3913,50186.5,44186.4431,55904.8355,234.9168,-832.8259,25795.3852
56303.367,27895.3761,53861.931,41959.7626,36571.0706,39080.8135,5953.7888,50209.5222,44205.5315,55907.92,252.8876,-813.8716,25798.291
56311.1454,27899.2206,53860.1428,41965.5293,36576.3456,39086.4462,5957.365,50227.4483,44206.8726,55908.5906,254.631,-810.653,25799.8556
56298.4049,27897.5219,53857.9524,41964.1435,36555.8267,39085.9097,5957.0074,50227.0013,44196.2779,55902.9132,243.0528,-820.8007,25794.8041
56278.9589,27896.6725,53862.6462,41956.9016,36531.8656,39085.418,5956.4263,50227.6272,44188.0077,55903.405,230.9829,-833.9435,25792.1219
56287.2291,27899.9358,53867.4742,41966.5575,36543.3097,39089.486,5956.6945,50230.2647,44196.3226,55904.9696,241.8011,-826.1651,25795.8323
56314.8111,27909.6365,53868.8153,41982.8296,36575.228,39097.8456,5961.0307,50252.08,44206.515,55910.0211,260.3978,-809.446,25800.705
56325.5399,27918.3537,53870.4693,41984.8859,36589.8013,39101.6006,5964.7411,50259.5901,44210.0912,55910.6022,265.941,-807.7919,25806.9187
56316.3757,27921.9747,53870.4693,41977.7334,36567.7178,39099.2761,5961.746,50232.9916,44199.8094,55907.6965,254.631,-814.8998,25804.013
56296.8403,27914.1963,53868.6812,41962.8918,36543.712,39093.4646,5953.0288,50214.6184,44189.5276,55899.0687,238.1802,-830.2331,25793.6865
56303.8588,27924.4781,53870.9611,41965.8422,36560.744,39105.0875,5953.6546,50233.7068,44199.0048,55906.9365,244.081,-824.5558,25796.9946
56323.4389,27938.4255,53872.3022,41977.5099,36583.6769,39120.1973,5957.0074,50268.8885,44216.2156,55916.369,261.7836,-808.9989,25805.1306
56328.7586,27935.9668,53873.4645,41977.2863,36587.1638,39121.0914,5956.918,50282.836,44225.0669,55914.1785,260.7554,-804.8862,25806.9187
56314.9005,27918.0855,53870.6481,41965.6634,36566.4661,39110.3625,5954.2358,50265.2675,44219.8813,55910.4681,246.048,-813.9163,25803.9236
56298.852,27903.1098,53868.9047,41956.9463,36550.1046,39101.6901,5952.4029,50238.356,44202.9387,55902.7791,228.256,-825.6286,25797.7545
56306.0045,27902.0816,53868.1895,41958.2427,36564.0074,39107.0545,5952.0006,50240.3229,44204.101,55909.0376,229.4183,-824.9581,25798.8721
56332.022,27909.413,53871.1399,41974.2018,36588.9519,39108.1274,5959.2873,50262.3171,44219.7025,55925.3544,248.2831,-809.7142,25807.634
56329.8762,27912.9893,53866.7589,41973.1736,36591.7683,39103.5676,5953.7888,50265.4016,44225.3351,55926.0249,253.1111,-805.825,25806.0247
56316.7334,27903.3333,53865.8649,41961.5954,36571.5623,39096.1468,5950.2572,50254.3598,44213.3993,55919.0065,243.4552,-819.236,25796.5028
56305.1105,27896.0466,53867.1166,41948.6761,36551.1328,39090.9165,5950.1231,50234.4221,44203.9669,55916.816,230.9382,-830.7695,25794.223
56316.7334,27901.8134,53869.9776,41951.3583,36562.6663,39095.3422,5955.0405,50235.495,44212.5052,55920.7946,235.8109,-826.5227,25799.6768
56337.8334,27906.8649,53866.8483,41967.4516,36589.7566,39102.7182,5957.9909,50254.6728,44230.5654,55927.1425,257.6709,-809.4013,25806.0247
56336.4029,27903.6909,53867.6083,41972.2795,36603.3018,39099.3208,5963.7129,50257.3997,44237.8074,55934.5186,261.873,-802.0252,25809.6904
56320.3096,27898.8183,53871.4528,41962.5789,36587.1191,39092.8835,5965.5011,50243.0946,44232.89,55930.7188,247.4338,-812.2623,25805.8012
56292.4147,27889.7434,53867.1613,41943.3117,36564.9015,39082.8699,5959.0638,50221.6369,44223.1894,55925.8908,228.703,-827.0144,25795.117
56291.0289,27888.6706,53863.0486,41938.9307,36562.264,39081.037,5955.2193,50231.6505,44227.4362,55928.3942,231.2511,-827.1933,25794.1782
56319.505,27884.7367,53860.2769,41952.5206,36585.7333,39087.5638,5957.3203,50252.2588,44235.751,55932.8645,243.4552,-815.9727,25796.5475
56321.606,27884.8261,53855.6725,41958.6003,36592.1259,39086.8932,5957.0521,50262.3618,44243.5294,55930.8976,246.7185,-815.2127,25797.8886
56302.8306,27884.5578,53853.035,41946.6645,36579.5195,39078.9807,5958.7955,50251.4988,44230.1631,55925.3097,236.5261,-824.824,25795.6088
56289.0172,27875.6618,53856.656,41934.1922,36562.6663,39071.9622,5957.8568,50233.2598,44221.3565,55923.8791,224.9926,-832.7365,25794.8488
56291.5206,27868.0623,53857.9971,41937.7238,36564.4544,39073.5269,5956.0239,50235.2268,44224.754,55925.6673,228.1219,-829.0708,25794.4912
56311.2348,27872.6667,53856.9242,41951.2242,36590.5166,39083.764,5958.2591,50266.1169,44239.4167,55930.0929,241.4435,-814.6763,25799.8556
56320.0861,27877.1818,53856.7007,41955.5604,36597.1327,39084.6133,5959.1979,50267.4133,44251.0396,55924.7285,246.4503,-812.2176,25801.6437
56303.0094,27872.8902,53854.1079,41948.9443,36583.2746,39078.4889,5952.85,50244.4804,44237.6733,55915.6984,235.0956,-825.1369,25792.0772
56274.4439,27864.3966,53854.1079,41940.9871,36563.158,39072.9904,5949.5866,50223.2909,44220.1048,55920.884,217.3036,-838.5926,25785.1481
56279.7189,27876.1983,53859.1594,41947.8714,36568.7013,39080.7241,5952.2241,50234.9585,44215.5004,55917.3971,220.7905,-830.8589,25790.0208
56305.0658,27884.7367,53861.7522,41962.6683,36597.3115,39096.5044,5957.3203,50269.6037,44233.7841,55922.8957,244.6622,-815.2574,25797.2181
56317.9851,27885.7648,53862.5121,41966.6916,36609.5155,39103.0312,5960.4049,50278.4997,44242.8589,55926.0249,253.5582,-806.7191,25799.7662
56313.7829,27892.2468,53862.9144,41962.9812,36598.6973,39103.21,5963.4,50266.3404,44234.6781,55923.4768,248.0149,-811.6364,25799.3639
56300.1037,27891.8445,53863.3168,41956.231,36584.7051,39104.6405,5962.6848,50254.0022,44229.5372,55917.3524,233.2181,-821.6947,25795.7429
56307.1221,27896.9407,53867.1613,41964.367,36589.6225,39105.5793,5962.953,50267.7709,44231.2807,55915.9219,238.4484,-819.4149,25797.4416
56324.1094,27898.9971,53864.2555,41970.5808,36605.3581,39112.6871,5959.8237,50290.3908,44236.8686,55917.3971,252.2171,-808.8648,25802.0908
56325.9423,27901.8134,53868.1895,41978.4039,36617.0704,39118.0515,5960.2708,50308.3169,44241.6519,55922.091,259.2355,-804.4839,25803.4319
56308.7761,27901.724,53872.5257,41974.3806,36601.2454,39112.6871,5961.8801,50295.7553,44234.6781,55921.5546,249.669,-815.3915,25800.1238
56287.0502,27890.1011,53875.342,41959.852,36573.0375,39105.0875,5958.5273,50280.3773,44221.8482,55916.7266,232.4134,-832.0659,25795.6535
56293.3981,27890.1905,53878.7395,41961.1931,36572.367,39109.9155,5959.9131,50281.2713,44230.2078,55920.4817,235.9897,-831.306,25799.4533
56315.7946,27899.7123,53876.0573,41973.8442,36591.7236,39111.6589,5963.9812,50300.7621,44241.7413,55922.1357,251.6806,-816.0621,25803.3425
56317.8062,27902.4839,53872.3469,41979.5662,36597.6244,39109.7814,5965.7246,50302.5055,44244.2,55921.3758,257.7156,-809.0883,25804.5495
56310.2067,27902.8416,53870.827,41977.4204,36587.432,39110.7202,5969.2115,50286.1887,44242.993,55920.5711,247.702,-817.2691,25805.7117
56293.4875,27892.1574,53866.9825,41967.1386,36576.3456,39104.5064,5964.6964,50264.9993,44228.4197,55916.6372,233.6204,-830.8589,25800.5261
56293.4875,27882.9485,53858.4888,41963.4283,36586.7615,39103.7911,5958.6614,50263.1217,44229.1796,55912.748,236.0791,-830.2331,25798.1569
56317.1357,27885.4072,53856.5218,41974.8724,36607.8615,39108.5744,5959.8684,50284.1771,44245.3176,55921.0628,250.2501,-818.8337,25799.185
56321.606,27885.4072,53854.7784,41978.9404,36609.6497,39103.8358,5961.2542,50292.3578,44251.0396,55922.1804,259.4143,-816.375,25800.6155
56305.5128,27878.3441,53857.5947,41969.955,36594.9422,39098.4714,5959.6002,50272.9118,44242.9036,55921.644,247.5679,-823.0358,25802.2696
56288.3019,27869.4481,53852.8562,41958.9132,36572.7246,39090.1119,5954.1464,50248.7719,44230.029,55919.9452,234.291,-833.0941,25797.8439
56293.3087,27870.968,53853.0797,41960.1649,36578.4466,39092.1235,5956.918,50259.769,44241.2943,55921.2863,239.566,-827.3721,25799.2297
56318.0298,27875.2595,53858.9805,41970.2232,36607.1463,39095.6998,5958.9744,50293.833,44261.6343,55931.747,257.0897,-810.5636,25804.773
56328.401,27878.0758,53860.5005,41971.4302,36612.0636,39094.2246,5956.158,50303.6678,44269.8151,55936.6196,260.0402,-809.0436,25805.667
56308.195,27869.8504,53858.3994,41959.2708,36590.5166,39086.1332,5949.4972,50284.8923,44255.7335,55929.4224,241.7117,-827.3274,25796.5028
56282.8034,27862.9661,53857.2371,41942.4176,36564.678,39076.1197,5943.0599,50258.0255,44244.2894,55926.2484,220.1647,-843.4653,25789.6185
56290.2242,27871.5491,53857.1924,41946.2621,36573.6634,39082.9146,5945.161,50267.9497,44255.7335,55930.2717,225.0373,-836.3575,25791.7196
56322.0978,27888.4023,53863.9873,41962.8918,36603.8382,39093.8222,5955.5322,50314.8884,44272.095,55939.5701,242.8293,-817.4479,25802.0908
56326.2105,27886.5248,53865.5072,41963.1153,36610.7672,39094.1352,5955.1299,50325.349,44270.3962,55940.2853,243.9469,-815.928,25802.8954
56316.1075,27874.0525,53866.0884,41955.6946,36594.8528,39092.4811,5952.6712,50299.5998,44261.1426,55938.7207,234.8274,-827.1933,25797.9333
56309.402,27869.0904,53867.1166,41950.6878,36579.0278,39091.3188,5956.0686,50283.9535,44254.1242,55932.194,223.1151,-838.5032,25796.5922
56318.0745,27879.3722,53870.3352,41953.0571,36590.0248,39094.0011,5962.7295,50302.8184,44265.3,55935.5915,230.9829,-830.3225,25799.6768
56338.1016,27887.8659,53871.0952,41967.4516,36620.0209,39105.4899,5967.9598,50332.8592,44281.885,55944.2639,249.2666,-812.9776,25803.8342
56337.6993,27891.174,53869.62,41971.2514,36628.5145,39106.3392,5968.6303,50337.8659,44287.2494,55945.918,256.1957,-806.5403,25805.8906
56326.7022,27897.4324,53868.413,41968.0774,36616.6681,39102.4053,5966.0822,50317.3918,44283.4049,55944.0851,245.2433,-809.7589,25803.3425
56299.8801,27889.8329,53863.0038,41952.9676,36590.4272,39097.3985,5957.5886,50301.7902,44265.4341,55930.7635,225.7973,-824.9581,25795.2958
56303.6799,27890.5034,53865.8649,41957.9297,36590.1589,39104.1934,5962.3718,50314.2178,44276.5653,55935.4573,236.6602,-821.1583,25802.5378
56324.78,27901.3664,53868.1895,41971.3855,36614.0753,39112.6871,5968.1833,50347.4325,44287.7859,55947.6614,253.1558,-809.3566,25809.6009
56332.3796,27905.6579,53863.4062,41978.3592,36627.7099,39114.2517,5967.6021,50360.173,44286.1319,55942.1629,251.9935,-809.4907,25807.3211
56323.9753,27903.2886,53862.4674,41977.5099,36615.4164,39108.7532,5967.5127,50347.5666,44277.0571,55937.7819,244.9304,-819.236,25802.6719
56300.8636,27897.5219,53862.9144,41965.5293,36593.7799,39106.3392,5965.5458,50327.6736,44260.1591,55934.8315,232.1452,-831.1719,25800.1685
56304.9763,27897.7454,53862.0204,41966.6469,36602.81,39116.3975,5964.7411,50333.5744,44266.6858,55931.8364,234.8274,-825.718,25804.9518
56324.2435,27903.4674,53861.171,41981.0414,36630.9732,39127.1263,5966.8422,50365.0457,44288.2329,55942.5652,247.6126,-809.6248,25809.0645
56330.7703,27904.4062,53862.0651,41988.641,36637.0976,39123.9524,5967.021,50373.3158,44298.3359,55945.6944,256.3745,-804.7521,25809.2433
56316.7334,27896.2702,53865.5967,41982.8296,36616.6234,39116.621,5967.1551,50352.3946,44289.7528,55940.1959,247.9255,-815.4809,25805.4882
56291.3865,27882.8591,53863.138,41969.8209,36593.1988,39106.3392,5962.1483,50322.5327,44274.6431,55931.0764,228.6136,-828.3108,25799.6321
56298.2261,27876.3324,53857.7735,41973.263,36605.9393,39109.692,5958.7061,50334.2897,44279.471,55928.6624,235.7662,-828.5344,25798.1122
56321.6507,27880.0428,53856.9689,41981.5779,36631.7779,39122.8795,5962.5953,50362.9446,44295.8772,55937.8266,249.1325,-812.0835,25802.1355
56325.6294,27883.8873,53859.0252,41983.8578,36637.9023,39124.9806,5964.9199,50369.4713,44292.9268,55943.1911,252.977,-806.0932,25802.2249
56320.0414,27883.6191,53862.0651,41985.4224,36626.637,39123.6395,5961.9248,50361.6035,44285.0143,55939.3018,250.3842,-813.7375,25802.4037
56302.5624,27874.7231,53859.0699,41970.3126,36602.363,39115.2352,5958.572,50337.106,44278.1299,55930.54,235.3191,-827.3274,25797.0393
56306.2727,27877.6735,53858.4888,41975.5876,36608.1297,39115.414,5956.9627,50346.6725,44279.784,55932.0599,235.2744,-821.4712,25796.7263
56315.3028,27881.8309,53857.9077,41985.2436,36627.5311,39117.381,5955.1299,50361.7823,44296.2795,55940.643,251.6359,-808.5072,25800.7497
56319.7285,27886.5248,53862.0204,41991.4573,36639.0198,39119.5267,5957.0968,50373.6734,44309.1094,55950.433,258.5649,-805.065,25804.9071
56314.7217,27888.1341,53862.0651,41982.159,36620.6914,39117.0681,5956.5157,50353.0204,44298.3359,55949.5836,244.7069,-818.1185,25801.9567
56296.1251,27870.5209,53857.3265,41964.0988,36584.3922,39110.6755,5952.1347,50320.7445,44278.7558,55938.4078,229.9547,-829.1155,25792.5242
56310.2514,27869.2245,53861.0369,41970.4914,36595.4787,39106.6968,5952.0006,50334.4685,44286.4448,55940.2853,232.771,-827.1039,25794.2677
56330.5914,27874.4102,53859.8299,41978.0016,36627.2628,39112.7765,5952.7606,50361.5141,44301.9569,55945.605,250.6971,-817.0456,25797.1287
56333.4972,27873.4267,53860.1428,41980.8626,36633.6554,39114.2517,5955.2193,50371.2595,44304.8626,55945.918,253.6476,-811.6364,25798.3804
56316.0181,27869.1798,53862.825,41971.8772,36614.7012,39106.7863,5953.9229,50355.345,44301.1075,55939.4807,241.3541,-818.9678,25794.0441
56303.5011,27868.9563,53860.3216,41965.6634,36601.2454,39109.2896,5952.85,50331.1604,44283.1814,55935.815,227.7642,-831.3507,25790.289
56318.6109,27866.9894,53857.5947,41969.8656,36609.2026,39115.1905,5951.5089,50338.7153,44280.4098,55937.7372,231.4746,-829.8308,25788.9926
56332.2455,27869.761,53858.6676,41978.1357,36629.7662,39119.2585,5949.5866,50369.2478,44301.0628,55940.7324,244.4834,-815.9727,25794.9829
56337.9675,27875.9301,53862.5568,41977.8228,36635.8012,39119.3926,5956.2027,50385.8775,44314.608,55943.8169,251.1889,-808.9989,25798.6039
56322.5001,27873.6055,53861.3498,41969.955,36623.4183,39111.4801,5959.6896,50368.0855,44300.9734,55939.883,242.2482,-819.1466,25797.7545
56305.1105,27859.3004,53859.9193,41960.4331,36600.1725,39104.2829,5953.5652,50343.8562,44284.1202,55934.1609,221.4611,-834.4799,25791.3172
56311.9054,27866.14,53864.8367,41965.5293,36603.3465,39109.8708,5953.9676,50361.0671,44291.541,55945.3815,231.2958,-825.271,25798.4251
56335.3747,27871.7726,53865.9543,41979.0298,36630.2133,39117.828,5958.0803,50385.0728,44309.3777,55949.3601,253.2005,-805.9591,25803.4766
56338.504,27870.3421,53861.4839,41982.4719,36639.0646,39118.588,5956.2922,50387.308,44311.3446,55941.3135,256.8662,-807.9261,25799.9003
56325.5399,27867.3023,53861.7074,41972.369,36618.4115,39117.3363,5954.4593,50368.1302,44299.9005,55933.6245,242.2929,-818.789,25793.7312
56303.8141,27857.9593,53863.8532,41966.9151,36599.7702,39114.6988,5955.3981,50356.7308,44289.0376,55934.5186,233.0393,-828.892,25793.3736
56297.5109,27856.6629,53864.032,41967.0045,36599.4126,39114.7882,5954.057,50362.4082,44299.6323,55944.1745,236.7049,-825.9863,25794.9382
56317.8509,27865.5142,53863.4062,41982.5613,36623.2842,39116.3528,5954.5934,50387.8891,44318.2737,55949.4942,247.702,-812.1282,25797.2628
56326.8363,27867.3917,53861.4839,41986.4506,36624.4912,39116.8445,5953.9229,50397.6345,44322.8781,55945.2474,248.149,-811.0106,25794.4018
56308.4185,27859.1663,53857.7735,41973.1736,36595.7469,39110.0943,5948.9161,50382.7482,44305.6226,55938.7207,234.6039,-825.4945,25788.3221
56290.6712,27854.4724,53852.9456,41959.852,36570.847,39106.8757,5943.8199,50365.0457,44287.0259,55930.1823,216.4096,-842.0348,25784.6564
56286.7373,27851.1196,53849.5034,41955.3369,36581.8441,39101.9136,5937.919,50366.208,44284.2096,55922.091,215.292,-844.4488,25780.7225
56300.1484,27854.9641,53851.8727,41966.1105,36609.7838,39104.864,5938.4555,50393.8347,44299.5429,55928.0366,234.8721,-830.1884,25784.2094
56311.9501,27854.5171,53851.6939,41974.7829,36607.7721,39107.3227,5940.333,50406.2623,44305.3097,55932.954,237.5096,-824.4216,25785.8187
56312.9783,27856.4841,53856.4771,41976.1688,36594.1823,39113.5812,5946.0551,50389.7667,44303.4768,55930.0035,228.256,-828.445,25787.1598
56296.2592,27856.037,53863.0486,41971.6984,36580.1454,39111.346,5947.2173,50367.4597,44296.7266,55926.5614,216.186,-833.6753,25785.9975
56300.5507,27865.2459,53865.2837,41979.9685,36600.3513,39118.6774,5953.2076,50386.7716,44307.7683,55935.7256,231.2958,-826.2098,25791.2725
56317.8509,27875.1254,53864.0767,41990.1609,36621.8984,39126.8134,5958.7508,50413.8172,44320.5982,55945.918,246.048,-812.307,25795.2511
56322.7683,27881.6521,53862.7803,41995.6595,36628.738,39126.8134,5958.9744,50418.1981,44326.9908,55951.1483,250.9654,-804.3051,25796.9052
56308.8655,27874.7678,53858.2206,41988.0599,36612.0636,39121.6278,5953.1182,50402.3284,44314.2503,55939.2571,239.0742,-813.3352,25793.016
56290.5371,27861.7144,53857.1924,41974.1124,36586.3591,39114.7882,5947.3515,50385.8775,44298.8276,55931.7917,219.8964,-825.0922,25788.2327
56303.9929,27866.0506,53861.0816,41976.6605,36595.5234,39115.7269,5949.4525,50397.9027,44299.7217,55937.5584,224.8585,-823.6617,25789.7973
56323.4836,27871.5491,53855.7172,41981.8908,36613.6283,39118.275,5949.8549,50418.511,44314.9656,55940.4194,238.1802,-815.928,25789.5738
56330.055,27871.8621,53851.7833,41981.2649,36619.4844,39119.035,5945.2504,50428.2564,44313.4904,55933.8033,240.2365,-816.6432,25787.6068
56319.9073,27866.5423,53853.929,41976.4817,36604.1511,39113.2683,5944.1775,50410.9561,44307.9919,55935.4126,227.2278,-823.9746,25789.1715
56305.1999,27861.4908,53852.3197,41969.1503,36580.8159,39107.3674,5941.9423,50388.3809,44297.9336,55934.0715,208.81,-838.9503,25784.7905
56306.3622,27865.2906,53853.1691,41967.8986,36590.1142,39110.899,5942.1211,50392.2701,44304.1027,55937.8713,214.4426,-838.6374,25784.8352
56327.9986,27868.8669,53859.0699,41979.3874,36607.5486,39119.482,5945.4292,50421.4168,44328.5555,55944.7557,236.5261,-823.3488,25789.9761
56332.2455,27876.5559,53862.0204,41981.4885,36606.2522,39120.1973,5952.4477,50430.3575,44333.2046,55947.9296,237.1967,-820.7113,25788.9032
56321.919,27880.8922,53868.7706,41978.1357,36601.6924,39120.2867,5955.8004,50421.5509,44324.0404,55952.6235,229.0606,-822.9464,25788.4562
56302.8306,27875.5277,53871.721,41967.8539,36586.9403,39111.346,5954.9063,50395.4887,44311.6128,55949.8966,219.4047,-834.2564,25788.0986
56303.2776,27872.3538,53868.1,41968.3456,36586.1803,39113.4471,5954.0123,50406.8881,44315.6362,55948.5555,223.7409,-828.3108,25788.9479
56324.6459,27882.6356,53869.5306,41977.8228,36605.1793,39118.6327,5959.779,50432.0115,44333.5623,55954.9034,238.806,-813.4246,25797.7098
56333.2289,27885.8989,53874.2244,41981.7567,36614.5223,39124.1312,5965.8587,50438.27,44344.2464,55960.2231,248.0596,-808.5966,25803.2531
56325.9423,27883.5297,53877.3537,41977.644,36609.2026,39127.4393,5966.0822,50430.4916,44333.1599,55958.6585,241.7564,-812.3517,25802.0908
56311.816,27882.3674,53875.4314,41966.1105,36593.1988,39123.6395,5962.6848,50425.4401,44323.9063,55954.1434,228.4795,-819.5043,25800.5708
56317.5827,27885.6307,53878.963,41966.8704,36597.4009,39126.0982,5965.5011,50427.3623,44332.9811,55955.4845,232.3687,-812.7987,25803.6107
56339.9792,27897.8795,53881.4664,41986.1823,36625.0724,39133.3401,5969.0773,50449.0435,44350.0578,55963.7994,250.8312,-794.2021,25812.8643
56353.2561,27905.2109,53886.3838,41998.6099,36644.0266,39137.8552,5976.3193,50465.8967,44355.5564,55968.4932,263.1694,-786.826,25816.6194
56335.4641,27899.3547,53885.7132,41988.9539,36619.4844,39136.8717,5976.7216,50456.509,44342.3241,55959.1502,251.323,-798.2254,25809.5115
56310.6984,27887.5083,53882.2711,41975.7217,36589.7119,39131.2391,5969.5691,50429.5975,44324.9345,55945.6497,237.3308,-814.5869,25801.2414
56310.2514,27885.3178,53879.2312,41978.4933,36594.0034,39131.999,5965.6352,50437.8676,44330.7459,55953.9199,241.0859,-810.7871,25804.013
56337.9675,27894.9738,53873.0621,41988.4175,36619.4397,39135.9329,5964.7858,50464.3321,44345.6769,55960.6701,255.2122,-799.3877,25807.9469
56339.3086,27891.6657,53872.7045,41988.6857,36615.8634,39128.7357,5966.7975,50463.1251,44344.7381,55962.6371,258.8332,-794.962,25807.7234
56318.6556,27882.278,53867.0719,41972.2795,36590.606,39116.3975,5961.2542,50440.9969,44335.9315,55954.8587,245.1539,-806.3614,25801.8225
56307.6586,27876.0195,53871.2293,41979.298,36580.7265,39114.4753,5963.4894,50424.5907,44329.226,55952.8023,238.806,-814.0504,25799.6768
56304.3058,27867.0788,53871.4975,41978.0463,36588.9519,39111.4801,5959.5555,50431.6092,44335.1716,55952.1765,235.0956,-808.7754,25799.5427
56324.6012,27865.8271,53871.6763,41991.8597,36621.809,39122.1642,5960.1367,50460.8005,44350.0578,55961.5642,249.6243,-796.3479,25805.4882
56332.7819,27873.6949,53870.3352,41998.1182,36622.6584,39126.5899,5962.9083,50477.5643,44350.9072,55962.19,258.3414,-795.6773,25805.2647
56323.9306,27877.1818,53870.6034,41999.8616,36609.9626,39130.2556,5969.5691,50473.2728,44344.8722,55959.6866,249.0878,-804.2604,25803.9236
56312.2183,27871.9515,53874.0009,41990.1162,36596.2833,39128.4227,5970.6867,50463.9298,44338.5243,55957.1832,235.185,-811.2341,25805.2647
56320.7567,27879.5063,53876.3255,41992.1279,36608.3533,39135.3518,5974.263,50478.0561,44346.3475,55957.0044,244.841,-805.5121,25809.6904
56332.5584,27890.2799,53873.1962,42003.7508,36639.4669,39143.5325,5976.9005,50495.7139,44360.7867,55961.4301,263.0353,-793.4421,25811.9702
56336.6711,27888.2682,53876.6831,42004.5555,36639.0198,39145.5442,5977.571,50500.1843,44368.431,55965.9451,266.9245,-792.2351,25812.2385
56322.5448,27874.7678,53875.5208,41991.4126,36611.7507,39134.0107,5972.5195,50481.23,44343.5758,55960.0443,250.563,-802.1146,25805.4435
56306.1386,27871.6385,53873.1068,41980.9967,36589.9801,39127.7522,5970.9102,50457.0901,44331.2824,55954.5904,237.2861,-816.8221,25802.0908
56318.0745,27870.7445,53874.9397,41983.9025,36595.3445,39127.2157,5970.642,50456.4643,44337.1385,55954.1434,240.5494,-812.7987,25803.1636
56335.5088,27877.7182,53877.7113,41992.9326,36621.4961,39129.4956,5973.4136,50472.1999,44351.3989,55961.2066,259.4143,-797.5996,25808.394
56347.9811,27881.2498,53876.8619,41997.2241,36629.6768,39132.2672,5972.6089,50485.1192,44356.0034,55956.6468,264.4211,-797.8231,25806.3376
56337.0287,27883.8873,53878.6948,41992.3514,36612.8683,39131.9096,5969.882,50471.5294,44339.8654,55952.6682,252.0829,-808.2837,25803.2531
56315.8393,27881.7415,53880.2594,41981.0861,36585.0627,39132.9378,5968.228,50454.2738,44327.3485,55952.7129,241.8458,-813.0223,25804.5495
56323.2601,27886.793,53880.617,41987.9258,36592.1706,39140.6268,5968.5409,50466.0308,44329.1366,55952.087,242.0694,-808.2837,25807.187
56343.7343,27895.0185,53882.4946,42002.5885,36619.0821,39150.1486,5972.0725,50482.7052,44343.7546,55959.0608,257.7603,-795.8114,25812.149
56354.2396,27900.7852,53883.2545,42006.7906,36626.1005,39154.3955,5969.3009,50487.5779,44346.2133,55961.0277,264.1976,-796.482,25813.2219
56342.8402,27898.0583,53880.7958,41993.4243,36611.4378,39150.2827,5961.9695,50475.1951,44330.2095,55952.4894,254.2287,-809.0883,25807.187
56321.8296,27896.2702,53874.9397,41983.6342,36588.4155,39143.8901,5955.711,50443.0979,44316.8432,55940.8665,242.3376,-822.9464,25801.5543
56328.1775,27890.9951,53873.1515,41988.5069,36595.2104,39144.963,5956.5157,50441.0416,44323.6381,55944.5322,246.495,-818.6996,25803.0295
56345.6565,27893.5879,53871.0058,41995.2124,36617.6069,39144.1584,5958.2591,50462.8569,44337.9879,55952.847,260.3084,-801.2652,25809.1986
56344.226,27888.7153,53864.9261,41999.0122,36621.7643,39137.9446,5958.885,50470.7694,44337.5856,55950.8353,263.527,-800.2371,25809.5115
56321.159,27875.6171,53861.6627,41979.5215,36600.8878,39127.8863,5954.0123,50451.0999,44320.5088,55938.0054,248.7749,-816.5985,25802.1355
56305.3787,27866.7659,53863.9426,41962.5342,36574.5574,39113.9835,5952.09,50422.4896,44302.4039,55929.78,228.8818,-827.1486,25799.4533
56305.1105,27871.7279,53862.825,41964.0094,36586.9403,39115.2799,5956.918,50429.5081,44299.9452,55932.8198,231.564,-822.3653,25803.7448
56318.4321,27879.8193,53865.6414,41971.6537,36611.0802,39121.2702,5963.4,50452.9774,44304.7285,55935.815,251.4124,-807.5684,25807.3211
56318.5215,27879.5511,53872.7045,41975.9452,36615.6399,39117.3363,5969.6138,50450.0717,44311.0317,55944.8004,259.9061,-799.343,25811.1656
56308.5526,27879.1487,53873.1515,41970.9384,36601.603,39111.6142,5969.8373,50425.0824,44288.2329,55940.6877,246.6738,-815.2574,25805.3541
56288.4808,27875.796,53872.0787,41957.0357,36582.157,39101.6006,5972.3854,50393.3877,44267.7587,55937.6031,235.0062,-828.0426,25801.0179
56284.1445,27873.9631,53872.3022,41960.8802,36594.8528,39105.0428,5976.7216,50394.8629,44271.2009,55935.6362,244.081,-820.756,25806.4717
56296.4827,27882.1886,53871.7657,41967.988,36611.5272,39108.3509,5976.1405,50412.7443,44280.0969,55935.1444,256.2851,-806.7191,25810.1821
56298.7626,27885.1837,53868.9494,41973.5759,36611.9742,39103.8358,5975.1123,50408.3633,44276.163,55939.3018,259.4143,-799.9688,25811.1209
56277.9307,27884.2002,53865.5072,41968.435,36600.2619,39099.4549,5975.0229,50383.1506,44256.2252,55927.7236,251.3677,-811.4576,25806.9187
56256.8307,27880.9369,53864.2108,41959.4049,36579.6536,39093.554,5970.5079,50351.6793,44240.0873,55919.4088,236.6602,-825.3157,25800.1238
56258.2165,27881.9203,53865.8649,41962.0872,36582.8723,39097.175,5972.0725,50343.9009,44247.4633,55922.3145,243.0975,-820.1301,25801.1967
56271.8064,27890.9057,53866.8483,41975.677,36606.2522,39099.3655,5974.0841,50370.6783,44257.4769,55927.0978,260.666,-804.5733,25806.1141
56272.7898,27895.5549,53864.9261,41980.2815,36610.499,39099.4996,5973.5924,50372.1535,44250.235,55929.6906,261.113,-804.171,25804.013
56251.7345,27893.9009,53861.6627,41968.9268,36591.053,39093.0176,5970.0608,50344.2585,44237.5839,55926.6955,245.6456,-815.8833,25801.1967
56236.4459,27891.174,53865.1943,41961.7742,36564.4544,39088.4578,5972.4301,50310.9097,44223.8599,55922.8063,233.7098,-825.8075,25797.978
56238.7258,27890.2352,53867.8318,41960.1649,36559.9394,39093.3305,5972.7877,50313.7261,44224.3963,55920.437,238.0013,-825.1816,25796.8605
56260.407,27894.8843,53866.9825,41973.8442,36579.5642,39098.6502,5970.7314,50333.3509,44238.0309,55923.745,254.9887,-810.6083,25804.46
56270.0182,27897.2536,53863.138,41976.437,36591.0977,39099.6337,5969.1668,50337.2848,44235.8404,55922.4039,257.1791,-808.8201,25803.6107
56253.2544,27892.2468,53861.4392,41969.1056,36567.0025,39092.9282,5966.6187,50306.6182,44222.5188,55915.5196,242.6058,-826.1204,25796.9946
56238.0105,27884.9155,53864.032,41965.4399,36537.0065,39088.7707,5965.7246,50286.7699,44200.5247,55905.3272,228.7477,-841.9007,25791.809
56238.4576,27879.5958,53858.4441,41968.1221,36539.8228,39086.1779,5964.16,50278.4103,44199.3624,55898.8452,230.4465,-838.6374,25790.1549
56254.9084,27879.9534,53854.5102,41976.5264,36562.1299,39085.7309,5961.4778,50295.9788,44207.9455,55901.9744,246.8973,-823.7064,25793.1948
56268.1854,27886.6589,53857.0136,41991.2785,36569.7294,39091.8106,5965.1881,50317.1235,44215.6792,55904.5225,257.8944,-815.5257,25795.3852
56246.8171,27877.3159,53856.9242,41980.7285,36549.7917,39083.004,5961.6119,50293.4754,44198.7365,55898.0852,245.1986,-829.3837,25790.6914
56226.6111,27866.6764,53855.3596,41965.574,36517.5158,39078.3548,5957.8568,50268.1732,44186.5772,55898.0852,232.2793,-842.7054,25789.9761
56230.1874,27863.5472,53852.7668,41955.8287,36513.0901,39073.2586,5951.9112,50261.87,44188.5442,55895.6265,232.2793,-840.4702,25789.1268
56254.3273,27875.1254,53857.8182,41972.6819,36551.6245,39076.5667,5957.0968,50285.0711,44207.8114,55907.0259,252.0382,-821.3818,25797.7545
56269.3477,27877.7182,53859.8746,41980.505,36561.3252,39085.1945,5962.953,50283.2383,44214.5616,55910.8704,258.5649,-813.514,25800.7944
56260.407,27871.1915,53860.5005,41970.9831,36539.7334,39084.1663,5961.9248,50266.2957,44209.6889,55907.5624,251.2783,-819.4596,25799.7215
56255.3108,27866.9894,53861.3498,41966.2446,36522.2991,39080.1877,5964.4729,50254.0469,44202.894,55907.7859,242.2035,-826.9697,25797.978
56266.0396,27871.5491,53860.724,41968.748,36532.6256,39082.9593,5964.6964,50266.6533,44209.9124,55904.7908,249.2666,-819.6831,25800.5261
56281.5964,27880.4004,53858.31,41979.1639,36562.5769,39085.0604,5964.4282,50288.7815,44223.547,55912.1221,266.701,-804.0369,25803.1189
56283.8763,27880.8028,53854.7784,41980.8626,36560.6546,39084.3898,5961.8354,50283.1936,44220.4177,55914.849,266.8798,-805.6015,25801.7331
56270.2417,27875.4383,53853.3926,41971.7878,36535.4419,39075.2256,5958.3932,50262.8535,44205.8891,55908.7694,250.3842,-823.7064,25798.6486
56263.4915,27869.8504,53854.1526,41958.8238,36515.817,39067.7154,5956.471,50239.4736,44192.031,55906.3107,231.3852,-832.3342,25792.1666
56273.1475,27864.2625,53851.5151,41951.4924,36519.5721,39066.1955,5954.1911,50235.3162,44195.1603,55901.7509,227.6748,-830.546,25789.9761
56300.1484,27876.6006,53849.5034,41959.9861,36550.2387,39074.7339,5955.9345,50263.3005,44217.9143,55913.2844,251.8594,-812.6646,25795.3852
56300.7742,27884.9602,53848.8328,41963.2941,36556.8101,39080.3218,5955.3087,50275.3705,44222.6529,55920.437,258.5649,-812.9776,25797.978
56286.782,27879.8193,53849.9504,41957.7509,36536.3806,39076.522,5952.8947,50261.2889,44207.0067,55915.4302,242.4717,-824.5111,25792.6136
56272.5663,27871.9068,53847.2682,41945.7257,36512.1514,39071.3811,5946.8597,50236.389,44200.0777,55907.2495,221.9975,-838.4138,25784.5223
56279.853,27875.5277,53846.1059,41952.9229,36516.13,39073.9292,5949.0502,50250.113,44205.6209,55904.1649,224.6797,-841.096,25785.774
56303.4117,27884.379,53853.7055,41962.8471,36538.3029,39080.9923,5956.471,50279.215,44229.5372,55921.7781,246.4503,-823.9746,25797.7992
56305.334,27885.9884,53858.757,41969.0162,36555.4243,39085.8203,5961.2095,50290.212,44237.4498,55928.3942,257.9391,-813.6034,25804.0577
56286.5585,27880.3557,53859.517,41966.9151,36541.2086,39081.7523,5963.4,50275.0576,44228.4197,55922.851,246.6291,-822.7229,25801.6884
56270.2864,27869.0904,53857.103,41958.0191,36519.3933,39072.901,5964.5623,50251.8117,44214.6957,55915.8325,230.9829,-832.3342,25797.4863
56276.9473,27874.7678,53856.8795,41965.5293,36534.0561,39076.3432,5969.6138,50256.8185,44220.2836,55918.4253,241.9353,-821.9182,25801.0179
56299.1202,27878.8358,53855.449,41977.4652,36555.2008,39085.2392,5967.8257,50285.2947,44237.9415,55924.2815,259.9508,-806.4061,25806.0694
56306.0492,27883.4403,53858.0865,41980.8626,36567.9413,39092.1235,5966.6187,50293.6095,44246.0775,55930.7188,265.2705,-805.7356,25808.3045
56302.2941,27885.8542,53861.4839,41977.6887,36552.2057,39089.7989,5967.9151,50275.4599,44239.6849,55926.7849,255.838,-811.2341,25806.8293
56281.8646,27878.2099,53857.9971,41965.3058,36529.0046,39085.0157,5965.4117,50260.0372,44230.0737,55917.3524,240.6389,-823.5276,25801.3308
56287.1397,27884.0661,53859.5617,41971.5643,36544.919,39092.4364,5966.5293,50271.7942,44238.3885,55918.7829,246.2268,-823.8852,25801.7778
56316.1522,27898.8183,53863.138,41987.6575,36574.7809,39107.6356,5974.0394,50304.5619,44250.0114,55929.333,263.7953,-809.893,25807.9469
56324.6459,27906.0602,53864.6579,41992.6196,36594.674,39110.9437,5974.6653,50320.4763,44252.6937,55932.1493,269.3832,-802.651,25808.7069
56301.7577,27906.8202,53864.5238,41984.9306,36574.1998,39107.725,5973.6818,50305.0983,44246.7034,55926.4272,259.012,-812.9776,25806.1141
56276.1426,27897.343,53863.8085,41973.0842,36544.3379,39099.7231,5972.8771,50284.49,44229.582,55919.2747,245.9139,-825.7627,25800.0344
56288.7937,27902.3498,53861.931,41984.3048,36557.9724,39107.9038,5971.4466,50300.0468,44229.4031,55921.1969,251.7253,-821.5159,25801.2414
56320.712,27913.3469,53863.9873,41999.191,36586.1803,39119.035,5970.7314,50334.0662,44252.3807,55931.6576,261.113,-804.4839,25804.2365
56332.8266,27915.448,53864.1661,42003.572,36588.0132,39123.7736,5970.9549,50345.8232,44258.6839,55930.227,261.7389,-806.9426,25804.1024
56321.5166,27911.4246,53866.1778,41995.5254,36569.1483,39122.4772,5971.4913,50331.9204,44265.8812,55934.9656,254.944,-815.8833,25805.3541
56306.1833,27904.3615,53866.7142,41985.9141,36547.4671,39115.4587,5968.5409,50314.8437,44252.2019,55932.954,238.2696,-828.0873,25799.185
56311.5478,27903.5121,53869.8882,41986.987,36556.6313,39119.482,5968.9879,50320.8786,44254.8841,55935.3679,239.4319,-823.4829,25800.7944
56338.0122,27908.3848,53871.721,42005.3601,36592.9306,39128.7357,5975.4252,50341.5316,44276.4759,55942.5205,263.3035,-802.9193,25810.1374
56346.64,27909.2789,53873.6433,42007.4165,36604.1958,39130.3897,5977.7945,50355.7026,44285.2378,55942.4758,270.322,-802.204,25815.1442
56324.8694,27901.4111,53875.8337,41996.0618,36592.4388,39123.9077,5977.9286,50341.174,44274.8666,55940.0171,263.1247,-809.7589,25813.9819
56314.0512,27901.8581,53878.3371,41993.469,36578.4466,39119.482,5983.4272,50329.5511,44262.5284,55938.1843,258.3414,-815.928,25814.4289
56313.7829,27904.7191,53874.5821,41988.9092,36580.4583,39120.3761,5982.846,50337.3295,44267.4011,55939.1677,260.219,-813.7822,25815.9488
56326.1658,27904.2274,53871.0952,41991.1891,36601.7818,39121.0914,5982.399,50345.5549,44283.5391,55942.6993,266.2092,-805.6909,25817.3794
56329.1162,27907.4013,53873.1515,41993.469,36614.7906,39116.3081,5983.0695,50350.3829,44293.7315,55946.7226,271.529,-800.8629,25815.5018
56307.3903,27897.0301,53867.8765,41970.7596,36591.6342,39099.4102,5973.7265,50325.3937,44270.2621,55935.815,252.1724,-815.8386,25801.1073
56286.8714,27884.6473,53864.1661,41955.5157,36565.5273,39088.0108,5968.0045,50295.5765,44242.9036,55919.4088,229.5524,-831.2613,25793.1054
56297.9579,27888.3129,53867.4295,41966.4234,36579.7877,39092.66,5974.5312,50309.1663,44255.7335,55930.9423,240.3259,-820.5771,25803.6554
56318.4768,27900.517,53864.3003,41974.7382,36600.1278,39090.9165,5974.3077,50328.4335,44283.5838,55944.4427,253.0664,-806.4955,25808.081
56323.3942,27897.5219,53861.3498,41969.4185,36603.6147,39087.7873,5972.3854,50329.9087,44284.8355,55944.8004,252.3065,-808.2837,25807.3658
56305.3787,27887.1059,53858.4441,41959.8967,36578.8937,39080.5006,5970.0608,50314.1731,44271.2456,55935.1891,235.7662,-822.6782,25804.1471
56285.2174,27879.9981,53856.5665,41944.4293,36551.8034,39072.3199,5964.9646,50294.4142,44253.2301,55927.1425,218.9577,-839.3973,25795.7429
56287.7655,27882.8591,53855.9407,41947.0221,36562.1299,39077.5055,5967.2892,50304.7854,44258.9521,55939.3913,223.2492,-834.7929,25793.2842
56314.2747,27892.8727,53854.5102,41965.2164,36594.9869,39089.5307,5972.296,50329.1041,44274.956,55946.3203,242.4717,-818.1632,25796.324
56320.9355,27887.2848,53851.9621,41964.4117,36602.0054,39089.6648,5970.6867,50336.9719,44278.2193,55946.4544,244.7069,-820.6218,25793.5971
56310.4302,27880.2663,53852.5432,41959.4496,36581.2182,39085.7309,5970.0161,50321.1021,44267.8928,55940.5535,236.2132,-831.4848,25788.7244
56293.2193,27872.2197,53853.0797,41946.888,36557.3019,39081.2159,5966.0822,50296.8282,44249.1174,55932.9093,220.3435,-842.4819,25785.774
56290.1348,27871.3256,53856.3877,41951.7159,36567.4496,39084.6133,5966.0375,50310.9545,44261.0979,55936.262,231.2958,-838.0562,25791.8537
56305.781,27876.0195,53857.8182,41960.3884,36590.8295,39092.2576,5968.0939,50333.7979,44279.8734,55945.9627,250.6971,-820.443,25796.4134
56316.2416,27879.5958,53858.8017,41959.5838,36599.7702,39093.6881,5968.1833,50341.8446,44283.3155,55951.3718,252.7088,-815.4362,25799.0062
56301.4448,27872.3538,53856.4771,41953.37,36585.331,39090.6036,5963.1765,50324.3208,44261.6343,55942.1629,239.9683,-829.2943,25795.0276
56281.3282,27862.2955,53851.828,41939.8695,36552.161,39080.59,5958.4826,50297.4987,44246.8375,55930.2717,223.6962,-843.5547,25787.2939
56288.8384,27860.2391,53852.9009,41947.9162,36563.6051,39080.9029,5961.3436,50309.8816,44259.3992,55931.7023,230.2676,-835.5528,25792.0772
56306.4069,27865.6036,53853.4373,41964.9929,36593.7352,39089.5754,5963.9812,50332.2333,44280.9463,55939.7489,253.2899,-810.7424,25800.7497
56308.5526,27868.0623,53853.1691,41970.5361,36596.328,39091.453,5963.4,50341.6657,44273.3914,55939.5254,253.6029,-813.0223,25799.185
56294.471,27862.7425,53851.5598,41963.1153,36576.122,39087.5638,5961.6566,50324.0079,44258.7733,55933.4904,236.1238,-833.2282,25794.9382
56279.3612,27854.8747,53849.414,41951.9395,36554.1726,39081.3053,5957.5438,50303.0866,44239.0591,55922.091,219.0024,-848.2933,25785.8187
56287.1844,27860.1944,53855.4043,41955.471,36565.7508,39088.4131,5959.332,50315.9612,44252.6042,55930.0482,230.5359,-836.1787,25790.5126
56301.5342,27868.8669,53855.4043,41971.5643,36596.2386,39096.9962,5962.1036,50338.0895,44269.4128,55935.1891,248.3726,-820.8007,25796.9946
56301.3107,27870.208,53856.3877,41975.2747,36600.1725,39100.8854,5962.3718,50340.8611,44272.3632,55936.0385,249.356,-819.5043,25794.6253
56285.9774,27860.0603,53859.3382,41956.1416,36573.3504,39091.7212,5960.6731,50329.2382,44264.093,55935.8597,233.6204,-830.546,25791.1831
56265.8608,27854.5618,53857.8182,41949.749,36559.6265,39087.5638,5958.9297,50310.4627,44250.1009,55927.0084,222.3104,-842.3924,25788.2774
56282.4905,27866.9894,53860.8581,41967.8986,36576.882,39094.4928,5963.847,50322.7562,44259.578,55927.2766,234.3357,-830.3225,25791.9878
56315.6605,27872.4432,53866.0437,41983.0978,36611.3484,39108.3956,5967.2445,50358.966,44279.2475,55939.2571,254.9887,-809.5354,25799.8556
56319.5944,27876.1089,53865.9096,41987.0764,36619.5738,39106.7863,5965.9034,50365.1351,44286.1319,55940.9559,254.0052,-808.3731,25801.7331
56299.4331,27875.2148,53864.032,41977.8228,36594.0034,39094.8951,5964.5176,50338.8494,44275.9395,55940.4641,238.0908,-816.4644,25795.117
56279.2718,27874.8572,53863.8979,41965.7975,36569.5953,39095.2975,5968.0045,50316.2742,44261.8579,55935.6362,223.1598,-828.8026,25789.6632
56295.1863,27884.2002,53865.9096,41970.8937,36581.5759,39102.7629,5971.7596,50330.8922,44274.509,55943.3252,230.0441,-827.238,25793.1948
56318.1639,27888.8047,53864.3897,41980.9967,36609.7838,39107.6356,5973.3242,50350.6958,44289.9764,55947.4379,246.4503,-813.6481,25800.1238
56323.6177,27892.8727,53867.5189,41985.4671,36619.4844,39110.9884,5970.3737,50358.8319,44289.574,55949.3154,253.7817,-808.239,25802.3143
56320.399,27883.932,53868.0106,41976.5264,36602.0501,39105.0875,5969.0773,50350.9641,44283.9861,55948.3767,244.2151,-818.342,25797.978
56292.7723,27875.5724,53872.8833,41964.8588,36581.8888,39096.9515,5969.2562,50330.3558,44272.8549,55943.9063,231.0723,-834.1223,25794.3571
56295.4992,27877.5841,53871.2293,41965.887,36585.7333,39095.7445,5971.1784,50331.5628,44271.4691,55948.0637,232.4581,-833.3176,25795.9664
56318.9238,27885.4966,53872.9727,41974.7382,36614.1647,39101.1536,5973.2348,50358.4743,44290.5575,55953.8752,244.9304,-814.7657,25803.2084
56326.6575,27882.4568,53870.5587,41983.4554,36629.7662,39106.2051,5975.2017,50368.7114,44299.2747,55951.9529,254.3628,-810.7424,25804.773
56311.0113,27873.0243,53865.7308,41974.023,36604.8217,39097.0409,5973.503,50356.1944,44283.4496,55942.0735,239.2977,-828.7132,25795.7429
56292.37,27866.9894,53860.2769,41961.506,36571.0258,39091.5871,5969.882,50335.3179,44268.5187,55938.9889,223.428,-843.51,25790.1549
56304.7528,27869.2693,53860.7687,41964.7694,36578.089,39098.0691,5969.435,50336.0778,44270.3962,55937.022,229.8653,-836.6704,25792.6136
56329.8315,27875.9301,53863.8085,41976.7946,36613.3153,39105.8475,5970.5526,50366.2527,44292.1221,55949.4942,248.5067,-819.7278,25800.3026
56336.9393,27877.2265,53864.3897,41982.3825,36623.5077,39109.2002,5972.5195,50380.826,44298.2912,55955.4398,253.3793,-814.6763,25803.9236
56314.9005,27876.6006,53864.9708,41971.2514,36605.6263,39104.9981,5971.1337,50368.0408,44291.4069,55952.4,237.6437,-821.7394,25800.0344
56287.7655,27872.3538,53864.3003,41959.9414,36586.538,39098.1585,5968.5409,50344.3927,44276.2524,55945.2474,221.1034,-835.5975,25793.5077
56300.4166,27877.5841,53868.6812,41968.2562,36597.535,39102.45,5973.1007,50355.8815,44288.0094,55953.5176,231.9664,-829.339,25797.978
56325.0482,27885.0496,53869.7094,41983.1872,36618.2774,39111.6589,5977.8392,50387.2633,44307.9919,55962.5477,250.9654,-813.3352,25802.5825
56323.2154,27887.2401,53866.0437,41983.2766,36619.1268,39115.2352,5976.6322,50394.3712,44310.4953,55960.6254,255.4804,-811.2788,25801.1967
56302.0706,27888.447,53866.7142,41971.3855,36605.0899,39106.2051,5975.9617,50382.3459,44295.3855,55954.2775,243.9022,-816.9115,25797.7992
56285.2621,27881.9203,53864.2555,41965.6187,36583.8557,39101.3771,5969.6585,50363.3469,44288.0988,55950.9695,226.4678,-830.9036,25795.7876
56296.7956,27883.8426,53865.7755,41973.4418,36592.26,39108.485,5974.1288,50375.5957,44299.9899,55956.1551,235.6321,-824.1534,25802.5825
56318.298,27886.8824,53865.1943,41982.1143,36624.4912,39115.6822,5974.8441,50395.8017,44306.9637,55960.3125,252.53,-811.4129,25805.22
56317.8062,27883.9767,53863.0486,41978.538,36629.8109,39119.9738,5973.9947,50408.0057,44312.1046,55962.9947,256.4192,-811.547,25801.6884
56303.6799,27887.1059,53868.5471,41977.1969,36616.8022,39115.2799,5972.9666,50398.3051,44308.573,55963.0394,242.427,-818.6996,25799.9003
56287.7655,27878.4335,53866.0884,41966.6469,36598.3844,39104.417,5967.6915,50376.5792,44292.6139,55951.193,220.2094,-832.1106,25792.256
56294.1134,27881.2945,53869.1729,41975.5876,36611.2143,39114.0729,5971.9831,50385.6987,44296.5031,55951.8188,229.2842,-826.2992,25796.9499
56320.7567,27889.5199,53876.996,41992.3514,36642.015,39126.6793,5982.7119,50414.9348,44325.8733,55970.5943,253.5135,-804.8862,25808.6175
56324.8694,27888.5365,53877.1749,41988.5069,36645.1442,39124.7571,5980.8344,50425.1271,44328.1978,55971.6225,251.9488,-801.7123,25809.0645
56310.2067,27879.5511,53872.8386,41978.851,36623.463,39116.3528,5975.5147,50410.1515,44314.6974,55963.1735,237.2861,-814.8104,25804.8177
56288.5255,27867.1235,53869.3964,41963.2941,36598.4738,39111.6589,5968.5409,50380.8707,44307.5448,55955.708,224.5903,-830.546,25801.5543
56287.095,27865.7377,53866.8931,41965.5293,36607.4145,39112.0613,5967.9598,50382.3459,44313.401,55962.2794,232.1005,-826.7909,25801.6884
56308.195,27874.6784,53866.446,41977.4204,36630.3027,39116.9339,5967.1104,50407.6928,44325.0686,55969.3426,242.0694,-809.2225,25804.0577
56312.0395,27873.7843,53867.7871,41987.2552,36630.705,39120.1526,5965.2776,50415.1583,44328.019,55970.5049,243.9469,-804.8415,25804.9965
56296.4827,27867.8387,53863.4956,41977.7334,36612.7789,39108.8426,5961.4331,50397.411,44315.9938,55961.1619,231.4746,-823.0805,25798.3357
56280.3,27862.0273,53864.7026,41967.3622,36591.4106,39104.9981,5960.8072,50383.4635,44309.78,55961.1171,219.8964,-833.2282,25798.2016
56282.1329,27857.6016,53864.0767,41967.988,36595.2998,39105.5346,5962.0142,50396.204,44312.2387,55964.157,221.9081,-826.2992,25796.7263
56306.9433,27868.9116,53861.7074,41983.6342,36618.7692,39116.8892,5966.3057,50413.5042,44322.7887,55965.2299,238.8954,-811.8153,25799.0062
56316.7781,27874.2313,53863.3615,41988.4622,36627.7993,39118.5433,5968.6303,50420.5674,44329.5836,55965.0511,245.1539,-812.2176,25798.9615
56303.3223,27876.3771,53866.3566,41978.2251,36608.9791,39113.2683,5970.7761,50409.3915,44322.5205,55960.8489,230.1782,-825.9416,25798.7827
56285.6644,27868.0623,53864.1661,41963.8306,36586.4933,39103.7464,5963.3553,50394.5947,44311.7917,55958.7926,214.4873,-839.0397,25791.8984
56289.956,27864.9777,53862.378,41967.8092,36594.6293,39103.2547,5960.539,50397.3216,44312.0599,55958.8373,223.2045,-832.8706,25791.7643
56310.9219,27874.3654,53863.6297,41979.6556,36614.5223,39109.9155,5958.3485,50424.8142,44322.5652,55962.8606,239.0295,-814.721,25796.1899
56319.7732,27872.7561,53859.2041,41984.2154,36621.8984,39114.3411,5956.1133,50433.7549,44326.4097,55958.7479,240.8624,-813.7822,25795.0723
56306.4516,27867.0341,53856.343,41977.9569,36611.9742,39112.3742,5955.3087,50420.5674,44312.194,55946.2756,231.2511,-828.0873,25788.4115
56288.3466,27856.9311,53854.242,41966.4681,36588.192,39106.2945,5956.0686,50404.5188,44304.8179,55948.3767,222.8469,-831.5295,25785.774
56297.7791,27856.9311,53853.8843,41966.5575,36591.2318,39110.8096,5956.8733,50408.7657,44318.3631,55954.5904,230.1335,-823.9299,25791.1831
56318.2533,27861.9379,53854.9125,41980.6391,36613.5836,39119.9738,5960.6731,50433.0397,44332.9811,55956.6915,246.942,-811.4129,25796.2793
56328.5351,27869.6716,53855.7619,41990.8762,36627.3075,39124.9359,5961.1648,50442.6062,44332.5788,55957.5856,251.9935,-807.6578,25797.978
56315.6158,27872.6667,53855.896,41980.9967,36614.3435,39121.6725,5961.9248,50428.8822,44333.4728,55958.5243,239.7001,-814.7657,25799.5874
56299.3884,27869.8057,53862.2439,41971.9219,36596.328,39114.1176,5962.1036,50401.5237,44325.7838,55958.7032,225.6632,-822.1865,25801.1073
56304.3058,27868.3305,53864.3003,41976.1688,36602.5418,39117.2469,5965.367,50405.3682,44335.3057,55958.6138,230.4465,-816.1068,25802.806
56323.3048,27873.829,53867.6083,41988.8198,36629.5427,39127.5287,5968.0939,50443.992,44343.8888,55963.6652,245.5562,-807.6578,25806.9187
56323.7518,27875.7513,53868.5471,41992.2173,36637.0976,39126.6346,5963.7129,50458.3418,44339.9101,55961.1171,249.4454,-809.0436,25801.8225
56312.8442,27877.9864,53867.8318,41985.02,36623.9101,39122.7901,5965.367,50440.8181,44338.9714,55962.8159,236.7944,-818.9231,25801.3308
56294.4263,27869.5375,53864.9708,41977.4204,36602.2736,39119.9291,5964.5176,50422.7579,44323.2358,55957.8091,221.4611,-831.7977,25793.3736
56300.5954,27872.0856,53862.4227,41980.2815,36604.4641,39119.035,5963.0871,50427.5858,44317.8266,55957.3174,222.8022,-826.2992,25793.7759
56319.505,27871.7279,53864.3897,41990.2056,36623.6866,39127.6181,5961.7013,50454.0503,44336.9597,55963.6205,237.2414,-815.8833,25799.5427
56330.6808,27865.2012,53861.5733,41992.8432,36628.738,39131.8649,5959.4661,50457.8948,44337.1832,55961.2066,240.9518,-814.1845,25796.324
56318.4768,27862.832,53862.4227,41984.1707,36613.36,39124.2206,5959.4214,50438.8958,44322.1182,55955.6186,229.9547,-826.478,25792.0325
56300.2378,27864.3519,53861.7074,41972.1454,36593.2435,39115.9058,5959.4661,50419.8521,44309.9141,55947.3932,215.6496,-838.2797,25789.6185
56306.1833,27870.208,53863.4062,41977.1969,36593.3329,39117.0233,5961.4778,50431.5197,44321.2241,55948.6896,223.5621,-830.0096,25792.3454
56326.2105,27882.9932,53868.413,41989.0881,36623.3736,39129.138,5966.3951,50460.3088,44334.6351,55963.3523,243.3658,-809.5354,25800.4814
56334.8383,27884.4684,53867.5636,41990.9209,36635.9353,39134.6365,5965.7246,50462.1863,44334.3669,55962.4583,249.1325,-804.2157,25802.5378
56319.1473,27880.3557,53867.2954,41984.8859,36617.2493,39128.9145,5961.7013,50435.6772,44328.0637,55959.7313,239.5213,-815.3021,25798.9615
56302.8753,27878.9699,53867.1613,41978.4933,36593.467,39120.3761,5960.8072,50412.3867,44326.5438,55956.021,225.5738,-828.1767,25797.3522
56304.574,27872.622,53863.2721,41974.0677,36591.7683,39123.2371,5953.3864,50429.8657,44321.537,55954.9481,223.0257,-826.5227,25793.1948
56325.227,27876.3324,53862.2439,41984.3048,36616.3999,39126.4558,5955.8898,50454.9444,44336.1551,55959.9102,235.7662,-815.7939,25795.2511
56324.3777,27871.3703,53860.724,41990.4739,36620.3338,39123.863,5959.1532,50461.2029,44339.776,55961.2066,241.667,-812.5305,25795.7429
56305.334,27862.2955,53857.3265,41976.5711,36603.0335,39111.793,5951.5983,50441.6674,44323.7275,55954.9481,226.5573,-822.8123,25791.2725
56290.8947,27855.2324,53849.861,41958.645,36575.1833,39105.6687,5948.5137,50413.5936,44304.1027,55943.9957,202.7303,-840.5149,25784.6117
56303.5458,27853.1313,53848.5199,41962.6236,36573.3057,39108.3062,5947.262,50417.5723,44312.4175,55946.9014,212.6992,-837.341,25784.567
56327.7751,27858.2275,53850.8892,41977.0181,36604.2852,39110.8096,5949.5419,50449.6247,44336.0209,55955.261,233.3969,-822.9017,25789.9314
56324.9588,27861.2226,53850.7551,41979.1639,36610.4543,39108.3062,5950.883,50458.7442,44341.0724,55959.2843,238.359,-819.3702,25794.2677
56300.9083,27861.9379,53855.449,41972.9501,36592.9753,39111.793,5951.196,50443.0979,44335.9315,55957.3174,230.9382,-821.6947,25792.8371
56287.7208,27853.2654,53853.3479,41959.4049,36571.4729,39107.9038,5951.5536,50424.3225,44323.5934,55947.3932,214.8449,-833.3176,25786.3551
56300.7295,27858.3169,53851.2915,41966.334,36579.5642,39109.2002,5952.4477,50433.8443,44323.6381,55949.0472,217.3036,-829.4284,25786.2657
56324.2882,27866.3635,53853.5267,41974.6935,36604.9111,39117.2022,5956.6051,50460.0853,44340.2231,55961.9665,232.5028,-812.5752,25793.3736
56334.4806,27872.5326,53856.0301,41979.9685,36616.3105,39116.8445,5957.4544,50463.8404,44343.0841,55965.0511,236.1685,-810.8318,25796.5028
56324.5118,27870.6998,53855.2701,41977.9569,36604.6429,39109.5579,5957.5886,50454.5867,44328.3767,55959.5078,227.5854,-824.4216,25792.1666
56300.8636,27865.7377,53848.8775,41965.3058,36576.1667,39100.3489,5948.6032,50435.3642,44307.9919,55948.4661,212.7886,-845.8793,25780.9013
56298.5837,27866.7212,53847.0894,41967.0045,36580.4136,39101.1983,5945.0716,50443.7685,44303.9685,55947.7955,216.8566,-842.9289,25780.7672
56314.9452,27866.3188,53845.6589,41971.5196,36602.2736,39106.0263,5943.194,50462.2757,44321.2688,55952.3553,232.6816,-833.3176,25780.4096
56313.4253,27863.3237,53844.6754,41974.2465,36607.3251,39098.6055,5940.9589,50455.5702,44327.2591,55952.8023,229.7312,-833.5412,25776.5204
56305.2893,27870.7445,53846.5977,41971.5643,36596.1939,39099.4102,5940.6012,50442.1592,44320.7771,55952.8917,220.2541,-839.5314,25776.9227
56294.5157,27872.8008,53845.3907,41966.0211,36574.3339,39105.4004,5942.2106,50422.132,44306.8743,55948.1531,206.5748,-844.1806,25776.1627
56310.1172,27874.0972,53847.2235,41975.1406,36581.1735,39109.9155,5947.2173,50426.2447,44312.8198,55948.332,217.7507,-835.1505,25779.3367
56329.2503,27883.3061,53852.4538,41990.7868,36612.913,39124.4888,5955.1299,50457.1795,44336.8703,55961.5642,236.7496,-816.7773,25789.3503
56325.6741,27883.8426,53852.9009,41988.9092,36617.4281,39125.6511,5956.2922,50471.7082,44345.1405,55963.9782,242.0694,-813.8269,25791.809
56313.6041,27873.7396,53850.3975,41978.4933,36599.3232,39114.4753,5954.5487,50464.2427,44332.4,55953.3834,228.3454,-829.2049,25785.8187
56290.4477,27863.1896,53850.6657,41967.1834,36579.9218,39098.382,5947.5303,50441.5333,44313.1328,55943.6828,208.4076,-842.2136,25779.9625
56297.9579,27867.8834,53855.136,41974.2018,36581.7994,39100.1254,5945.5186,50448.4624,44320.9112,55952.3106,214.085,-832.3342,25783.1365
56316.4204,27879.1487,53857.8182,41984.4389,36601.1113,39107.8591,5950.8383,50467.6849,44341.5195,55963.1288,232.8157,-813.0223,25789.5738
56324.02,27880.6239,53860.9922,41995.883,36607.1016,39115.1011,5956.2027,50469.5177,44348.5379,55962.5477,240.2365,-806.9426,25793.8206
56306.9433,27874.3654,53861.0816,41986.1376,36589.5778,39109.692,5955.6663,50458.163,44341.0277,55958.0326,228.4795,-822.2759,25790.6914
56283.8763,27867.0341,53858.2206,41968.435,36566.9578,39100.8407,5950.3019,50440.9075,44327.1697,55949.8072,207.2006,-840.1126,25782.8236
56287.0502,27870.5657,53857.2371,41967.8986,36577.2843,39103.1206,5949.6313,50441.3545,44330.433,55954.501,208.4523,-834.8823,25781.5272
56312.9783,27878.8805,53857.3265,41981.4438,36602.0054,39108.3509,5952.0006,50476.2232,44349.2085,55964.4699,223.0704,-821.8735,25786.4892
56328.1775,27882.278,53861.0816,41987.8364,36618.0986,39116.7998,5957.7227,50495.401,44350.5943,55966.7498,232.3687,-818.4761,25789.2609
56315.124,27874.4549,53861.3945,41975.9452,36601.156,39112.0613,5954.8169,50469.5624,44337.0044,55963.0841,220.5223,-830.0096,25786.9363
56295.5439,27866.0953,53859.6064,41963.0259,36576.7926,39099.589,5949.2737,50439.2087,44325.2027,55954.9481,208.3629,-842.4819,25781.3036
56299.9696,27870.968,53860.3663,41966.1552,36581.5759,39104.1934,5953.8335,50441.9357,44327.8402,55954.6351,218.4659,-838.9503,25782.8683
56324.02,27880.1322,53861.3945,41983.5895,36608.6662,39111.4354,5958.2591,50459.1912,44337.6303,55962.1453,234.0227,-821.2477,25792.3454
56328.401,27877.003,53857.103,41987.3446,36612.5554,39112.553,5956.3369,50458.7889,44331.6847,55959.1055,235.9897,-817.6267,25791.0043
56316.9569,27876.1536,53853.5714,41979.5662,36585.8227,39108.6191,5952.85,50441.4439,44320.4641,55950.2989,226.4231,-825.6733,25786.5787
56302.6518,27872.0409,53858.0865,41971.162,36572.3222,39102.1371,5951.5089,50422.3108,44321.4476,55944.398,218.153,-835.6869,25785.9081
56307.7927,27871.8621,53865.7755,41976.1688,36586.6721,39104.3723,5956.6498,50435.3195,44332.1764,55953.607,223.3386,-828.132,25790.1996
56334.7042,27878.4782,53869.2176,41994.229,36611.3484,39118.3645,5961.5225,50464.3768,44343.9782,55960.8936,237.5543,-811.1894,25796.8158
56342.3932,27877.5841,53867.8318,41997.7605,36617.1598,39122.8795,5960.0472,50479.576,44348.6273,55961.743,243.0975,-807.1661,25798.6486
56331.262,27872.5773,53868.9941,41992.5749,36607.0122,39124.9806,5957.5886,50460.577,44343.7994,55955.3951,236.392,-815.7492,25794.8041
56315.5711,27868.6434,53866.8483,41982.6508,36585.1521,39122.3878,5954.057,50430.9386,44329.6731,55951.9529,223.875,-827.1039,25792.7477
56319.6391,27864.933,53862.1992,41982.1143,36592.8411,39121.9854,5952.6712,50429.4634,44330.3436,55953.4729,225.7079,-825.1369,25789.7973
56342.8402,27861.8485,53859.964,41992.3514,36614.6564,39128.9145,5951.9112,50463.438,44333.3834,55955.6186,242.3823,-812.2176,25792.703
56353.2561,27863.1002,53863.9873,42002.3203,36620.9149,39138.3022,5953.7888,50477.1173,44336.6021,55957.2726,246.495,-809.0883,25796.9946
56333.676,27863.726,53864.4344,41988.5963,36600.3513,39134.9494,5950.6148,50462.3652,44334.3669,55953.1152,229.7312,-820.2195,25792.8371
56310.2067,27858.5851,53862.6909,41973.8442,36573.8869,39124.6229,5948.6479,50441.3545,44321.0006,55946.0968,213.8615,-831.306,25787.6068
56312.5759,27854.6512,53864.7026,41976.0346,36582.917,39121.5384,5953.6546,50447.1213,44318.0948,55946.7673,218.0636,-830.4566,25787.6962
56331.8878,27863.279,53865.5967,41986.3164,36607.8168,39123.103,5953.2076,50470.7694,44324.7557,55955.6633,233.3075,-818.1185,25792.5242
56336.4476,27869.1798,53865.8649,41990.2503,36616.5787,39124.2206,5953.3864,50474.301,44323.3699,55959.329,237.7331,-811.4576,25795.3852
56314.4535,27868.8222,53859.5617,41974.6488,36599.8149,39118.8562,5953.7888,50453.9162,44307.4554,55948.5555,224.1433,-823.9299,25791.2725
56282.7587,27860.2839,53858.1759,41959.6732,36572.367,39105.4451,5950.436,50421.4168,44282.198,55934.7421,202.4621,-845.4323,25783.1812
56282.1776,27860.7309,53863.8085,41961.7295,36582.6041,39103.7017,5955.5322,50418.1087,44290.334,55947.4826,214.9343,-836.6704,25789.7973
56299.3884,27867.1235,53864.2108,41968.7927,36606.2522,39104.7746,5958.6614,50439.2982,44297.0842,55949.4495,233.531,-823.7511,25795.3852
56298.2261,27871.7279,53859.9193,41971.162,36613.3153,39101.7348,5959.8237,50430.0892,44295.5196,55950.0754,238.0461,-819.1913,25798.1569
56279.5848,27873.382,53858.2206,41959.092,36595.7469,39097.0409,5962.2824,50395.3993,44274.5984,55946.1862,218.5106,-830.8589,25793.1501
56254.819,27870.8786,53857.1924,41946.0386,36576.5691,39084.5686,5959.8684,50361.1118,44255.7335,55936.9326,202.8644,-845.1641,25787.4727
56259.2894,27876.6453,53863.7191,41953.1465,36589.4884,39089.5307,5961.5672,50361.7823,44256.8064,55940.7324,214.7108,-836.4469,25794.1782
56267.9619,27881.2498,53858.3547,41960.3884,36612.7789,39096.5044,5963.6235,50380.3343,44267.8928,55940.5088,234.5145,-824.8687,25797.1734
56267.5595,27881.6521,53855.0913,41967.8092,36615.1482,39093.8222,5962.2377,50380.6472,44261.0979,55935.7256,240.6389,-823.0805,25795.6535
56255.4449,27879.5958,53856.7454,41964.6353,36593.5564,39089.4413,5960.3602,50353.5569,44251.4867,55929.333,232.0558,-830.5907,25792.9265
56239.3963,27882.5462,53859.4723,41960.2096,36576.9714,39094.4481,5962.9083,50332.2333,44237.6286,55924.2368,219.9411,-838.6374,25789.6632
56241.5868,27885.7648,53858.0418,41965.9764,36583.811,39096.2809,5965.4564,50327.4053,44227.0786,55928.6624,222.8916,-832.7812,25790.6467
56264.2962,27891.7551,53857.8629,41986.2717,36601.5136,39096.3256,5965.367,50343.4539,44243.1718,55930.7188,243.3211,-821.0242,25795.1617
56268.096,27886.4354,53855.9854,41988.1046,36595.5681,39093.2858,5961.1648,50347.1643,44247.5528,55928.2601,242.2482,-820.9795,25792.9713
56249.097,27878.2547,53855.896,41974.6041,36574.1104,39086.4909,5956.5157,50328.21,44235.2593,55918.2912,225.3056,-834.927,25783.6729
56233.8531,27873.6055,53857.8629,41961.7742,36550.8646,39077.5949,5955.5769,50300.8962,44212.2817,55908.7694,210.6428,-849.098,25778.7555
56246.5489,27881.2945,53864.2555,41967.3175,36560.744,39084.3004,5962.7295,50300.7174,44214.4722,55918.1571,221.1928,-838.1903,25787.9198
56267.1572,27884.692,53863.7191,41979.3427,36577.4184,39092.7047,5964.8305,50315.3801,44231.9959,55922.8957,235.3191,-822.0077,25794.9829
56271.6722,27884.4684,53862.4674,41983.6789,36581.0394,39093.1517,5966.4845,50323.2926,44239.2826,55924.8179,243.2317,-821.8288,25795.6535
56257.993,27879.4616,53865.4178,41975.9452,36560.5652,39088.1002,5964.8305,50309.4345,44231.1019,55922.0016,227.8984,-833.407,25795.4746
56241.7209,27869.1798,53865.3731,41962.6236,36532.5361,39078.7125,5963.2659,50270.5425,44212.4605,55912.4351,210.2852,-844.0018,25790.5573
56250.4381,27873.0243,53867.3848,41967.1834,36540.091,39082.244,5964.4282,50269.6931,44212.5499,55913.3738,221.8187,-835.5975,25792.3901
56267.8725,27876.9583,53865.9543,41980.8626,36564.365,39081.7523,5962.2824,50292.0449,44230.9231,55919.8558,239.2083,-822.1418,25796.9499
56269.9288,27874.0525,53862.9144,41981.6226,36580.056,39076.969,5959.2426,50294.4589,44229.6714,55917.0395,239.3425,-822.4994,25794.7594
56258.2612,27878.3888,53859.8299,41972.2348,36560.9229,39068.2518,5960.0472,50285.2947,44221.0436,55912.5692,232.771,-834.3458,25789.2162
56256.8307,27879.5958,53864.3003,41970.3126,36541.5215,39068.5648,5964.6517,50276.801,44210.5383,55908.4117,226.6914,-841.7219,25789.2609
56261.6587,27879.7299,53867.1613,41972.9501,36543.6226,39073.661,5965.8587,50279.1703,44215.2321,55911.3175,232.5922,-831.753,25793.8206
56277.8413,27877.1818,53864.1214,41980.1027,36560.5205,39077.729,5963.0424,50289.4968,44221.7141,55917.7548,246.8079,-819.6384,25796.0558
56285.9327,27875.6171,53860.5899,41982.3378,36571.6517,39076.1197,5961.6119,50287.7086,44225.6033,55913.1503,249.669,-816.6879,25796.771
56274.6674,27872.5773,53859.6511,41975.9452,36559.4923,39066.2849,5959.9578,50274.0294,44222.8764,55907.8753,240.5494,-828.2661,25792.256
56252.1368,27864.2625,53858.5335,41960.2543,36531.508,39060.6076,5956.2027,50249.3978,44206.3361,55908.9035,224.6797,-845.8793,25788.5009
56262.1057,27866.3635,53857.0583,41962.713,36538.7499,39066.5531,5955.2193,50251.767,44207.0961,55910.1105,228.1666,-841.856,25790.8255
56277.6178,27870.1186,53856.1195,41971.162,36561.1911,39072.0069,5955.4875,50269.4249,44216.5732,55911.9433,241.1306,-830.1884,25790.4232
56290.0901,27871.415,53855.0019,41974.2912,36568.433,39072.2752,5952.4029,50274.2529,44221.9377,55913.1503,244.2151,-828.8473,25788.3221
56287.1844,27868.4199,53852.0068,41963.5177,36543.9802,39066.9107,5946.8597,50260.1713,44215.098,55911.094,230.4018,-838.9056,25787.6068
56271.3146,27866.7659,53849.9504,41951.9395,36522.9249,39063.2004,5945.2951,50246.3579,44210.3148,55906.0872,217.0801,-849.1874,25783.807
56277.5731,27874.6784,53852.3197,41956.0522,36531.8656,39072.3199,5953.2076,50262.63,44220.2389,55915.2067,221.9081,-843.3312,25785.6846
56293.1299,27877.8076,53848.4752,41960.8355,36549.7023,39079.383,5954.4593,50290.7932,44236.7345,55924.1027,231.8323,-829.7414,25787.1151
56299.2096,27876.1089,53847.0894,41961.6848,36557.8383,39078.8913,5957.5438,50306.6182,44245.3176,55925.4885,237.0626,-822.9464,25789.2162
56289.4642,27873.3373,53849.9057,41962.2213,36543.0415,39071.7387,5961.6119,50292.9837,44238.0309,55920.9287,230.4465,-830.6801,25790.4679
56263.8491,27861.4014,53851.068,41950.196,36516.0853,39060.5181,5958.9297,50268.4414,44226.408,55915.5196,218.153,-842.4371,25787.5621
56267.5595,27863.279,53852.9456,41950.0619,36521.0921,39061.8145,5959.6896,50268.6203,44230.7889,55919.1406,229.2842,-836.2681,25790.6467
56285.9327,27866.1847,53852.5432,41962.9812,36553.8597,39060.7864,5958.8403,50281.7184,44241.4284,55925.4438,244.9751,-820.3983,25792.9713
56275.8297,27857.1546,53845.3013,41955.6051,36549.9705,39053.6785,5954.1464,50276.0857,44230.9231,55920.2135,241.6223,-821.1583,25788.9926
56270.3311,27859.1663,53848.8775,41953.2359,36539.3311,39059.6688,5955.5322,50268.352,44223.6364,55923.1639,227.6748,-831.3954,25789.4844
56260.094,27862.6084,53850.0845,41945.681,36525.2495,39062.8427,5954.2805,50255.388,44220.373,55926.7849,210.0617,-842.616,25788.1433
56277.6178,27872.2197,53855.1807,41955.6051,36532.4914,39069.9953,5958.2144,50265.9827,44235.5275,55929.6012,218.9577,-835.1058,25788.3221
56298.1367,27878.3888,53856.2983,41963.3836,36558.0171,39070.7552,5960.8072,50297.2752,44245.7646,55930.7188,237.1073,-824.3769,25790.9596
56292.5488,27877.6735,53851.5598,41967.9433,36567.9413,39068.7883,5959.5108,50310.3733,44242.7248,55926.3378,238.9848,-826.0757,25787.3833
56277.886,27875.5277,53850.9339,41962.2213,36551.2222,39071.2917,5954.7722,50296.2023,44228.2408,55917.263,221.6846,-840.0679,25780.4096
56262.2398,27876.4665,53849.7716,41947.6032,36527.7976,39067.2684,5949.4972,50264.284,44217.959,55910.5575,208.3629,-856.5634,25775.0899
56264.8326,27881.071,53849.861,41951.8054,36530.748,39067.4472,5950.1231,50268.9779,44224.4411,55913.3291,212.7439,-851.0202,25776.6992
56287.4079,27893.5879,53846.6424,41963.5624,36554.3962,39079.6959,5949.4972,50292.5366,44240.3555,55917.0842,230.2229,-835.9998,25779.6496
56292.5041,27889.967,53842.2614,41965.127,36560.6993,39086.1779,5945.0716,50305.2324,44245.3176,55918.8277,237.0626,-830.9036,25780.6331
56288.4808,27883.5297,53841.4121,41967.988,36552.9656,39089.3966,5945.161,50300.0468,44235.1252,55912.748,228.3901,-836.2234,25778.9791
56275.6509,27878.1205,53843.3343,41960.3437,36530.0775,39089.8436,5945.2057,50285.9652,44228.4197,55905.8189,213.7721,-848.338,25780.2755
56283.6528,27875.796,53847.1788,41957.7956,36539.8675,39090.5142,5946.368,50295.2635,44243.3953,55911.1387,215.292,-846.0581,25782.4212
56295.5886,27879.0146,53846.1953,41965.4399,36564.678,39099.0525,5944.4904,50322.4432,44254.5265,55913.5526,228.1666,-833.2729,25786.221
56304.3952,27881.071,53846.8212,41969.6867,36574.8703,39100.6172,5949.3631,50337.4189,44258.4604,55919.3194,231.564,-831.753,25791.5407
56291.6547,27871.6832,53846.9553,41960.1202,36555.5584,39094.6716,5948.3796,50325.5725,44253.6771,55920.9734,221.9081,-836.9386,25788.2327
56273.0134,27863.5472,53848.5199,41947.9162,36537.5876,39091.9,5943.8646,50305.0983,44247.4186,55917.4865,210.7322,-843.5547,25785.9528
56273.5051,27862.4743,53850.6657,41948.6761,36550.1493,39092.9282,5945.3845,50309.7028,44253.0066,55922.3145,216.7225,-839.4867,25788.8585
56293.3534,27865.4695,53847.0447,41958.645,36574.9598,39088.5025,5944.8034,50337.5083,44264.7636,55925.4438,231.2511,-829.9649,25791.1831
56299.7013,27865.8718,53845.1225,41952.7888,36586.4933,39084.3898,5943.2387,50342.9621,44267.6693,55924.9967,230.4912,-831.5295,25788.5456
56282.0435,27854.2042,53844.7648,41945.3233,36576.0773,39077.6843,5939.3495,50313.6367,44256.1358,55915.2961,216.8119,-845.7005,25783.2259
56265.1008,27846.6493,53849.7716,41933.5663,36544.2932,39065.972,5937.6508,50291.5978,44243.1271,55910.0211,200.1822,-858.4857,25777.7274
56270.0629,27849.9126,53850.2187,41933.611,36551.0881,39062.7533,5940.0201,50298.6163,44247.8657,55918.3359,204.0714,-852.1378,25777.9956
56288.6149,27862.1614,53850.8892,41947.782,36581.1735,39070.6211,5945.4292,50324.8572,44263.646,55928.4389,220.8799,-836.134,25786.0422
56295.9462,27869.4928,53850.3528,41947.335,36581.2182,39068.5648,5947.1726,50340.5482,44267.3117,55936.262,224.188,-834.3458,25786.3998
56284.5021,27876.3771,53849.5034,41939.2884,36558.5983,39063.8709,5943.5964,50322.7562,44257.2981,55934.6527,210.7322,-842.8842,25778.7555
56268.3195,27871.1915,53849.9057,41934.7733,36544.6061,39065.212,5942.9258,50303.0866,44244.3788,55926.2037,199.914,-852.7637,25772.2735
56274.3992,27878.6123,53850.4422,41937.0532,36555.8714,39065.972,5945.0716,50304.1148,44252.7384,55927.9472,207.9159,-846.9969,25775.9392
56296.3933,27882.4568,53847.5364,41943.4011,36574.2892,39066.9554,5945.2504,50328.7911,44266.7305,55932.6857,221.9081,-836.581,25776.4757
56301.713,27883.1273,53848.3411,41953.2359,36580.5924,39073.4822,5947.4856,50335.6755,44270.5303,55941.5817,227.049,-833.6753,25778.845
56286.9608,27879.4616,53846.9553,41946.6645,36561.6828,39071.2023,5945.6527,50311.9379,44257.164,55934.608,214.1744,-847.9804,25776.9227
56260.8093,27865.9165,53845.4801,41931.9123,36540.1357,39064.1391,5944.5351,50283.5959,44244.2447,55929.1989,196.7847,-861.7043,25772.7653
56266.9784,27867.8387,53847.4917,41938.9755,36548.6294,39063.558,5946.5915,50303.7572,44257.164,55931.6128,201.3892,-853.4789,25777.5933
56283.6528,27868.1964,53843.9155,41949.2573,36571.8752,39071.2917,5945.4739,50324.3208,44269.0104,55932.9093,218.4659,-838.9056,25780.0072
56290.5818,27861.3567,53843.0661,41948.0503,36574.1104,39073.4375,5946.9938,50325.0808,44264.9424,55928.0813,222.221,-834.3458,25780.5437
56270.8229,27858.8533,53847.6259,41940.406,36550.7752,39067.5366,5946.1445,50312.7873,44253.543,55929.4224,208.7206,-846.0581,25779.6049
56248.3817,27852.1925,53846.2847,41924.0892,36528.7364,39062.9768,5942.3447,50288.8709,44234.7229,55924.5497,192.2697,-859.6927,25776.0286
56258.5741,27855.3665,53846.9106,41927.889,36543.2203,39070.9788,5946.0551,50290.0779,44245.407,55928.8412,203.8926,-847.9357,25784.2094
56282.267,27862.5637,53848.4752,41944.4293,36574.0657,39083.2275,5948.5137,50320.6104,44268.1164,55936.0832,225.1267,-830.7695,25792.8371
56291.8782,27871.8174,53850.9786,41953.2806,36586.3144,39088.9049,5952.6712,50339.6541,44275.2689,55942.4311,234.8274,-823.3041,25796.4581
56271.404,27860.5521,53849.8163,41942.7305,36564.2756,39083.4957,5950.9724,50325.2596,44259.4886,55939.436,219.4494,-839.3526,25792.7477
56250.2146,27849.5103,53846.8659,41934.7733,36540.7616,39081.3053,5945.9209,50296.8729,44251.2184,55931.434,204.3396,-850.2156,25790.1996
56250.2146,27850.315,53850.0398,41937.3661,36554.6644,39081.8417,5951.1065,50301.7902,44252.7831,55931.6576,211.2687,-838.5032,25793.9547
56277.7072,27863.279,53856.0301,41950.4642,36581.0841,39094.1352,5957.1415,50340.1011,44278.8005,55942.7887,227.496,-823.2594,25799.7215
56279.5401,27860.7756,53853.1244,41956.231,36583.7216,39093.9116,5957.0074,50348.2372,44280.0075,55936.262,232.7263,-826.5227,25794.1782
56269.2583,27858.004,53849.0564,41950.7772,36570.7129,39084.8368,5949.4972,50334.4685,44264.6295,55931.6576,219.6282,-839.7102,25783.4941
56246.9959,27850.8514,53844.4519,41938.1708,36549.7023,39072.2305,5942.2106,50310.3733,44246.7034,55926.0249,198.0811,-855.4459,25774.8216
56258.3953,27851.5667,53843.1108,41943.6246,36561.3699,39075.4491,5944.6692,50304.6513,44251.9337,55923.1192,203.0432,-849.992,25774.8663
56271.8064,27855.4112,53844.6754,41953.9511,36580.95,39086.5803,5946.2786,50324.9913,44268.0717,55924.8626,220.6117,-835.5081,25779.2473
56281.5517,27857.6016,53847.6259,41966.8257,36592.1706,39093.3752,5950.6595,50342.1128,44275.403,55930.6741,233.8886,-829.2049,25782.0189
56278.4225,27860.0156,53847.447,41965.9764,36577.5079,39088.7707,5950.883,50331.7863,44266.9988,55929.1542,228.3901,-835.7763,25780.4543
56261.0775,27852.1925,53848.4305,41951.1795,36559.9841,39078.4442,5945.9656,50308.3616,44254.4371,55924.4603,214.085,-851.3331,25778.6661
56264.9667,27854.6512,53849.9504,41942.06,36562.5769,39079.2042,5948.0667,50319.7163,44264.0036,55930.5847,219.1812,-843.5994,25779.4708
56290.3136,27867.6152,53854.7784,41955.0687,36598.2056,39091.9447,5957.5438,50351.1429,44282.4662,55942.2076,236.0791,-824.1534,25786.6681
56304.7528,27868.9563,53855.9854,41962.3107,36612.1531,39096.9515,5959.1532,50357.6696,44285.6401,55940.8665,239.1189,-820.756,25789.7079
56292.9511,27867.3917,53856.0301,41956.1863,36591.7236,39094.0458,5957.2756,50338.0001,44279.024,55936.6196,227.9431,-829.0261,25788.4115
56274.8909,27862.072,53856.2089,41945.2786,36569.3718,39088.279,5957.2309,50322.8456,44271.9162,55932.7304,213.6379,-841.7666,25782.913
56285.7985,27865.2012,53856.6113,41947.6479,36576.3456,39089.2178,5958.3485,50335.139,44282.5109,55936.262,216.7672,-839.0844,25786.6234
56306.8986,27870.3421,53853.2138,41951.5818,36596.6856,39096.5939,5960.0025,50365.5821,44288.1435,55944.0851,234.9615,-831.8871,25792.4348
56309.3126,27870.5209,53854.5549,41949.4808,36595.881,39092.2576,5957.3203,50374.344,44293.6867,55949.1813,237.1073,-825.6286,25793.0607
56295.7227,27871.2362,53857.1924,41944.6975,36577.7761,39081.0817,5957.0968,50359.1001,44293.5973,55951.5953,228.0772,-829.9202,25787.0704
56287.989,27870.1186,53856.3877,41936.1591,36558.6877,39073.8398,5957.7227,50339.6541,44279.1134,55947.6614,211.0451,-841.6325,25783.1365
56288.8384,27866.6317,53854.5549,41937.5002,36564.0968,39075.6726,5956.7392,50336.3013,44279.9628,55947.7508,209.5699,-838.9503,25785.8187
56312.8442,27873.4714,53853.035,41951.0454,36594.0034,39087.6532,5956.918,50365.5821,44300.6158,55955.3504,232.771,-821.8288,25790.9149
56316.4651,27873.1138,53854.1079,41948.4526,36599.2337,39087.832,5956.9627,50373.584,44308.3048,55957.4962,233.978,-821.9182,25788.7244
56298.1367,27867.0788,53851.1127,41941.4788,36584.0346,39087.1614,5956.3369,50362.4082,44291.4516,55950.3436,224.8138,-830.7695,25783.7623
56274.0415,27858.5851,53847.2235,41933.1193,36558.6877,39078.3101,5955.6663,50342.0234,44273.5702,55944.5769,211.0898,-845.5217,25777.9509
56277.5731,27853.4442,53846.4189,41934.5498,36564.9909,39077.2372,5955.1299,50351.0982,44282.5556,55942.1629,212.7439,-842.5266,25777.5038
56299.0308,27866.2294,53848.4305,41948.6761,36591.9471,39083.6298,5957.5438,50372.5559,44290.8257,55943.1016,230.9382,-827.6403,25781.9295
56309.402,27873.8737,53850.0845,41952.8782,36605.4922,39088.4131,5958.572,50379.9766,44293.955,55951.2824,235.5427,-822.0971,25788.5009
56295.8121,27869.8951,53849.2799,41945.8151,36593.1094,39080.9476,5952.9841,50360.173,44291.4516,55947.125,222.8469,-829.4284,25787.3386
56276.1873,27861.1332,53847.5811,41934.4604,36566.5555,39076.6114,5947.9326,50340.2799,44279.7393,55938.0502,206.2172,-849.0086,25778.532
56278.9142,27860.3733,53847.0894,41934.0581,36573.3057,39083.8534,5949.0502,50346.7619,44284.5672,55935.815,210.3746,-847.8463,25777.4591
56296.6615,27864.0836,53849.1905,41947.2009,36595.5234,39091.5871,5950.3913,50372.69,44295.0279,55945.4262,230.1335,-832.7812,25780.9013
56299.7907,27868.554,53848.5199,41948.2738,36600.4407,39092.1682,5952.1347,50378.3226,44300.5264,55948.332,233.1734,-832.0659,25781.4378
56293.6664,27870.8339,53850.7551,41946.7092,36589.8907,39091.8106,5953.6546,50374.5228,44300.3029,55945.605,221.9975,-840.0679,25780.4096
56285.7091,27864.5754,53852.6326,41940.7189,36564.1415,39087.832,5952.1794,50368.0408,44290.781,55938.4525,210.5534,-849.098,25776.0733
56289.4642,27871.2362,53851.7833,41945.8151,36575.6303,39096.1915,5952.0453,50374.9698,44298.5147,55940.7324,213.5038,-843.4206,25777.7721
56308.4632,27878.1205,53856.0748,41957.0804,36604.5088,39103.1653,5954.4593,50396.1593,44316.8432,55951.64,228.5242,-826.0757,25785.2376
56314.9452,27881.4733,53856.1642,41962.8918,36610.1414,39102.5394,5955.5322,50401.6578,44327.4379,55958.4349,231.0723,-820.1301,25790.1102
56292.817,27874.9913,53852.6773,41950.4642,36588.0579,39098.5161,5952.6712,50387.9339,44316.5302,55950.8353,218.2424,-834.3011,25787.9645
56265.4138,27862.2508,53849.5034,41936.9638,36562.9792,39094.2246,5954.4146,50363.2128,44305.5332,55936.4408,203.3561,-847.2204,25783.5388
56274.1309,27863.1896,53850.4422,41939.6907,36570.4894,39096.415,5954.2358,50362.8999,44315.7703,55943.951,211.3581,-838.235,25788.1433
56296.0356,27865.0671,53852.5879,41948.4526,36594.3611,39094.8057,5953.5205,50389.2303,44326.0968,55949.9413,228.1219,-822.4547,25792.9713
56303.7694,27861.8038,53852.3197,41958.9132,36606.7439,39092.7047,5952.1794,50400.2273,44325.6497,55948.5108,233.3075,-824.3769,25791.049
56293.4875,27858.1381,53847.1788,41953.9958,36588.3261,39085.2839,5949.8549,50385.2963,44315.7703,55944.6216,221.4611,-840.4702,25783.807
56280.1659,27852.7737,53849.9951,41943.8481,36569.193,39082.1993,5948.6926,50359.2342,44305.3097,55938.7654,206.9324,-854.1495,25775.8945
56283.0716,27855.6794,53848.967,41945.4575,36579.1619,39088.3684,5950.0784,50371.6618,44310.4059,55935.4126,212.1627,-848.2039,25776.2969
56310.9219,27867.9729,53851.2915,41959.5391,36608.4427,39099.8572,5954.9958,50398.0815,44320.3747,55946.4991,226.9149,-836.4469,25782.153
56323.6177,27871.9962,53853.1691,41969.1056,36618.7692,39101.243,5956.0686,50402.0154,44322.4311,55949.7178,233.7098,-831.7977,25784.2541
56303.6799,27870.0739,53850.8892,41963.1153,36598.6079,39094.8951,5954.5487,50392.0913,44316.0832,55944.3086,226.8255,-835.9104,25780.4096
56291.61,27858.2722,53850.6657,41956.8568,36587.2085,39095.8339,5954.1911,50372.6453,44311.8364,55937.2008,216.6331,-844.9852,25780.7672
56291.5206,27861.6697,53854.3314,41957.4827,36589.7566,39098.382,5955.4875,50374.5228,44315.3679,55942.6099,221.4164,-838.9503,25785.7293
56304.7975,27862.4296,53850.5316,41963.7859,36603.3912,39093.3305,5957.1415,50389.1408,44325.605,55948.2425,234.6486,-826.5227,25789.0373
56310.2067,27861.5803,53852.5879,41967.3175,36609.0238,39094.0458,5956.7839,50396.964,44326.2309,55951.2377,239.8789,-821.9182,25792.5689
56296.4827,27853.6677,53850.2634,41955.471,36592.2153,39094.4481,5951.9559,50389.5879,44315.2338,55945.918,229.1948,-834.4352,25787.7856
56280.8365,27855.8135,53849.1011,41946.128,36565.6167,39090.1119,5951.5536,50374.9698,44304.9967,55935.5915,213.5038,-841.409,25781.2589
56292.8617,27862.2955,53854.9125,41955.024,36575.4068,39092.2129,5954.9063,50377.205,44311.3893,55942.2076,218.6447,-839.2632,25786.2657
56317.9404,27863.9495,53856.4324,41963.473,36605.5816,39100.7513,5955.9792,50402.0602,44325.4262,55950.9248,231.0276,-825.0922,25793.5971
56330.1891,27862.0273,53852.4091,41964.0541,36610.0967,39102.9865,5954.9063,50409.4362,44330.0307,55951.5059,234.6486,-822.5888,25793.8653
56311.9501,27862.3402,53855.2254,41964.3223,36593.6458,39100.036,5956.5604,50399.3779,44326.812,55950.4777,231.0276,-829.7414,25791.9431
56286.9608,27853.3101,53854.7784,41957.3039,36574.9598,39096.4597,5953.7888,50383.6423,44316.1726,55946.4097,212.5204,-839.0397,25788.5903
56298.3155,27851.3432,53855.5384,41958.7344,36579.8771,39099.4996,5952.1794,50388.6938,44316.709,55951.8188,216.186,-831.4848,25791.5854
56315.6605,27862.3849,53854.4655,41963.7859,36601.7371,39102.5841,5948.3796,50410.7326,44328.1084,55957.4068,228.8371,-821.7841,25793.6865
56319.8179,27864.5307,53852.6773,41969.5079,36615.4164,39108.932,5949.8549,50420.1204,44333.0705,55957.6303,233.1734,-820.4877,25795.2511
56310.2067,27858.3616,53851.8727,41960.0755,36588.9072,39096.5939,5947.7538,50394.55,44325.1133,55945.3368,217.4377,-834.4799,25788.1433
56286.5138,27847.6328,53852.9009,41945.7257,36560.7888,39089.4413,5943.2387,50367.2808,44311.4787,55933.8033,200.3163,-848.7403,25781.7507
56288.1678,27848.6609,53848.654,41944.8316,36568.1201,39091.6318,5940.4224,50375.8639,44312.8198,55930.9423,202.5068,-845.3876,25779.0685
56311.2348,27856.797,53850.4422,41963.2941,36603.57,39101.9136,5945.5633,50409.3915,44319.3913,55941.7605,220.7458,-829.8755,25782.8683
56313.8276,27856.5735,53847.8494,41965.6187,36608.1744,39106.6968,5943.8199,50420.5674,44321.4029,55940.9559,224.5903,-825.7627,25783.0918
56306.8986,27853.8913,53845.1225,41962.9365,36593.5564,39102.3159,5941.3165,50400.4508,44320.9559,55937.1561,221.2822,-829.2049,25782.8236
56289.8666,27851.0302,53843.8261,41952.163,36565.9297,39096.5492,5938.3214,50386.6822,44309.78,55937.1561,207.2901,-845.8793,25777.9062
56302.4282,27853.8018,53843.0661,41957.2145,36575.2727,39100.7066,5940.2883,50406.1282,44314.7868,55938.3631,214.8002,-844.5382,25780.5884
56328.9374,27859.1216,53844.0943,41975.3194,36602.1395,39104.864,5946.1445,50422.9814,44333.8305,55942.8334,240.8624,-823.5276,25787.1151
56334.7042,27861.1779,53844.8095,41976.6158,36609.1132,39104.5064,5947.0832,50429.0611,44334.5904,55943.5487,245.6456,-819.1466,25787.2939
56329.6974,27866.8553,53849.0117,41970.0891,36592.7517,39106.518,5949.989,50421.3721,44330.7012,55946.5438,233.8439,-827.238,25790.2443
56303.2776,27865.8718,53850.6657,41964.9035,36572.1881,39104.9534,5952.5371,50411.5373,44315.8597,55946.0521,223.875,-837.341,25789.9314
56295.9909,27861.5803,53851.5151,41961.8636,36575.7644,39110.3625,5952.1794,50413.7278,44319.2124,55948.2872,228.0772,-833.0494,25789.0373
56317.8957,27866.2741,53850.2187,41973.263,36606.6545,39118.275,5952.0453,50442.5168,44339.776,55952.8023,242.2929,-818.789,25793.8653
56330.2338,27871.9068,53853.5267,41978.5827,36616.8022,39121.4937,5954.4146,50455.749,44350.8178,55956.8256,248.7302,-813.1564,25793.9547
56311.7266,27864.1731,53852.9456,41968.2115,36588.5943,39108.5744,5952.3582,50433.6208,44330.3436,55949.8966,231.5193,-823.4829,25789.6185
56287.7655,27855.143,53848.5646,41951.3583,36564.5885,39100.8854,5945.2504,50403.7589,44316.8879,55943.1016,207.9606,-838.1009,25784.567
56293.4875,27858.9427,53852.7668,41955.024,36580.1901,39106.831,5949.1396,50416.4994,44329.8966,55943.951,211.9392,-831.2166,25787.3386
56313.2465,27866.2741,53856.2089,41967.8986,36601.4242,39108.3509,5952.8947,50445.3331,44347.2415,55950.0754,231.8323,-816.1962,25790.0208
56314.9452,27866.6317,53859.5617,41977.5993,36603.4359,39113.9388,5955.1746,50453.7374,44344.9169,55957.5409,239.9683,-811.4576,25791.4066
56301.4001,27858.5851,53858.4888,41966.1999,36584.6157,39108.5744,5951.2854,50440.1028,44334.5904,55953.6964,224.9032,-822.2759,25788.3668
56279.6295,27850.3597,53857.2818,41948.3632,36555.0667,39096.2809,5947.5303,50405.9941,44318.0948,55951.7741,204.2949,-839.7996,25784.0753
56290.9395,27858.2722,53859.6064,41957.1698,36571.6517,39105.7581,5954.5487,50412.2972,44330.3436,55955.3057,213.8615,-829.9649,25789.395
56322.7236,27872.3091,53858.3547,41978.1804,36611.2143,39118.9456,5963.6235,50452.5751,44351.0413,55965.811,240.0577,-808.9542,25800.3026
56328.848,27869.5375,53853.5714,41985.8694,36622.256,39119.6609,5963.4447,50456.2855,44355.7352,55966.6157,245.8245,-805.1544,25798.738
56310.6537,27858.2722,53848.654,41976.124,36594.674,39116.1293,5956.7839,50427.0494,44337.1832,55954.4563,234.738,-821.3371,25788.5009
56298.4943,27853.4442,53850.5316,41972.1901,36571.7411,39115.1458,5957.5438,50411.9396,44325.1133,55948.6002,224.3221,-832.513,25785.8187
56305.9151,27859.9262,53849.5481,41973.8889,36582.1123,39111.5248,5957.4097,50423.6519,44326.4991,55949.1366,228.4795,-829.7414,25785.4611
56316.3757,27868.3305,53846.1506,41976.5711,36608.7109,39113.9388,5954.6828,50453.4245,44346.7945,55954.9034,247.2103,-814.3634,25786.6681
56322.6342,27870.7445,53849.5481,41979.3874,36615.4611,39116.4869,5955.4875,50462.3652,44348.225,55958.122,248.0149,-814.3634,25787.9645
56318.7003,27867.2129,53849.6375,41974.7382,36598.5632,39116.8445,5955.1746,50449.267,44340.983,55954.3669,235.498,-823.7064,25785.9975
56303.9929,27859.4792,53847.1788,41964.0094,36564.8121,39110.899,5955.8898,50420.5227,44327.7955,55954.4116,225.0373,-834.0329,25784.7011
56296.2592,27859.0769,53843.8261,41959.2261,36557.3019,39111.0331,5953.6994,50416.5888,44329.8966,55951.6847,223.4727,-831.5295,25786.2657
56313.3359,27866.7212,53845.0778,41969.3738,36582.7382,39114.0282,5951.8218,50436.7054,44347.8227,55953.607,241.1753,-816.4197,25792.9713
56324.78,27865.5589,53848.9223,41974.023,36595.434,39115.1905,5952.85,50439.6558,44353.2765,55954.5904,247.5679,-814.2292,25794.8041
56314.5876,27860.5521,53847.1788,41965.3505,36581.7547,39106.2051,5947.7091,50423.339,44341.743,55946.1415,230.7147,-826.4333,25790.0208
56294.024,27856.4394,53844.8542,41958.645,36560.9229,39098.3373,5942.9705,50406.3517,44332.7576,55949.7178,216.5437,-837.341,25789.9314
56295.0075,27853.9807,53845.1672,41963.92,36568.746,39101.243,5944.714,50416.7229,44337.1385,55953.1599,224.9032,-831.5295,25793.2842
56313.8276,27866.0059,53844.8542,41976.6605,36602.1395,39113.2683,5948.4243,50443.0532,44353.2765,55959.5078,240.8624,-812.8881,25796.6369
56319.0132,27870.1633,53848.8328,41987.7023,36619.7079,39122.1195,5957.3203,50466.2544,44355.5564,55957.8538,249.356,-809.1778,25798.3804
56303.2776,27870.7445,53846.9553,41979.8344,36604.0617,39116.9786,5955.6663,50464.3768,44350.1472,55953.7411,237.0626,-820.0407,25794.2677
56285.6644,27865.0671,53845.8824,41974.2018,36581.7994,39112.1507,5953.297,50440.684,44342.19,55945.4262,224.2327,-829.4284,25790.4679
56287.4079,27867.794,53850.174,41974.1571,36584.7051,39114.3858,5953.1182,50452.6645,44341.9665,55951.64,231.9664,-828.9814,25790.289
56306.0939,27871.8174,53855.896,41983.7683,36608.7109,39122.209,5955.1299,50471.0823,44351.3989,55959.9996,244.9751,-813.2011,25792.7924
56316.5098,27869.8504,53856.4771,41993.469,36618.2327,39122.7454,5955.9345,50468.8025,44357.1657,55964.5146,248.3279,-807.8814,25791.2725
56303.3223,27861.0438,53852.7668,41981.712,36594.1823,39115.3246,5951.5536,50446.3166,44336.6021,55954.7246,230.6253,-824.4663,25779.6943
56291.5653,27851.9243,53848.0282,41972.7266,36570.0871,39109.5579,5949.1843,50428.5246,44319.7489,55946.365,215.5602,-842.616,25772.6312
56294.1134,27851.2985,53845.8377,41970.2232,36576.8373,39108.9767,5946.6362,50435.1407,44323.2358,55944.8451,214.3085,-839.3973,25772.1394
56314.677,27863.6366,53849.6375,41980.952,36608.845,39117.2469,5950.0784,50456.956,44338.8373,55950.5224,236.1685,-820.2642,25779.9625
56324.5565,27859.8815,53846.9106,41987.434,36614.12,39118.4539,5949.5419,50452.0386,44338.0773,55942.0288,249.8925,-814.0951,25781.3931
56309.4914,27856.2158,53848.0729,41982.0249,36592.6623,39115.3693,5947.0832,50431.4303,44331.9082,55941.2241,240.9071,-821.9182,25782.153
56293.3087,27860.8203,53851.6492,41972.056,36574.6021,39114.8776,5946.8597,50422.9814,44326.365,55946.2756,225.3503,-828.7579,25783.4941
56294.7839,27860.2391,53848.5199,41972.9501,36576.4797,39113.0447,5944.8481,50428.8375,44328.3767,55944.5769,226.9149,-826.2992,25782.9577
56320.4437,27867.9729,53853.9737,41983.7683,36602.2736,39121.449,5950.9724,50460.7111,44349.5661,55954.3669,244.7963,-811.4576,25791.6301
56328.3116,27869.9845,53851.9174,41989.6692,36611.2143,39122.9689,5952.8053,50478.4137,44357.5233,55957.3621,251.1442,-806.272,25794.0441
56306.1833,27865.1565,53848.6987,41981.2202,36590.5166,39119.2585,5946.5915,50458.2524,44343.4417,55949.7178,236.2132,-813.961,25790.1996
56294.1581,27859.4792,53850.2187,41971.609,36566.6002,39117.9174,5941.8976,50438.8064,44325.3815,55943.6828,217.9295,-826.9697,25788.1433
56300.059,27859.2557,53846.5083,41971.5643,36563.918,39119.4373,5941.4953,50442.2039,44333.607,55947.4379,220.5223,-827.2827,25790.5126
56316.9569,27864.933,53847.0447,41980.3709,36589.6672,39128.0204,5945.8315,50463.9298,44352.9189,55951.8188,237.8225,-811.9047,25798.4251
56318.7003,27870.5657,53843.1555,41983.4554,36603.5253,39132.8037,5948.0667,50470.2777,44354.3047,55949.5836,240.2365,-810.5636,25799.7662
56304.4846,27858.9875,53841.6803,41967.4963,36575.8985,39120.6443,5944.2669,50443.3215,44329.7178,55942.6099,223.8303,-826.9697,25789.5291
56286.2009,27842.7601,53841.9932,41955.9181,36553.5468,39108.485,5940.6459,50414.8901,44310.8976,55933.8927,210.911,-840.3808,25785.7293
56293.6664,27842.3578,53842.7085,41957.9744,36561.7722,39109.7367,5941.54,50419.0028,44307.5895,55930.6741,211.6263,-839.6208,25784.4776
56311.4583,27854.8747,53844.586,41971.3855,36592.3047,39116.7998,5950.2125,50444.1708,44323.2358,55938.6313,232.5028,-818.7443,25789.3503
56303.1882,27864.1731,53844.4519,41971.6537,36592.7964,39111.2119,5952.6712,50448.4624,44317.3349,55934.608,235.2744,-816.0174,25789.6632
56284.1892,27855.8135,53844.8542,41964.8588,36577.5526,39108.4403,5950.883,50413.3254,44294.849,55931.0764,222.9363,-829.0261,25783.4047
56261.7481,27853.8913,53840.3839,41950.6878,36555.1114,39099.3655,5947.7985,50382.3012,44274.8219,55923.298,208.497,-841.8113,25774.1511
56260.4964,27856.8864,53840.7862,41953.6829,36567.3602,39095.2528,5952.1347,50380.1554,44272.8102,55922.4933,213.8615,-837.8327,25778.845
56273.3263,27869.2693,53841.4568,41965.3058,36594.1375,39098.5161,5954.1017,50395.5781,44287.0706,55930.3612,232.8157,-822.5441,25786.2657
56268.096,27868.107,53839.4451,41965.0823,36595.2551,39093.4199,5951.4195,50386.101,44272.0056,55930.54,231.8323,-825.5392,25783.2259
56254.0591,27865.9165,53840.8309,41960.0308,36578.849,39088.1002,5954.4146,50362.0505,44257.0299,55926.0249,221.9975,-830.8589,25781.1248
56229.7851,27863.5025,53840.7415,41944.4293,36553.2786,39071.7834,5953.2076,50325.1702,44239.5955,55916.9054,204.0714,-844.3147,25777.9509
56230.2321,27869.6716,53842.8426,41944.2058,36560.6993,39072.0069,5955.9792,50321.4598,44239.1932,55921.2863,213.0121,-838.3691,25782.7342
56245.6548,27881.6968,53842.932,41954.5323,36585.9121,39078.0419,5959.6002,50345.6891,44250.682,55925.5779,227.4513,-829.5625,25785.2823
56249.0523,27885.0049,53842.6638,41958.4662,36585.2416,39082.5123,5962.4612,50346.002,44256.6276,55927.0978,235.7215,-825.0475,25786.5787
56233.2273,27881.7415,53839.311,41950.4642,36566.1085,39075.6726,5964.2941,50318.6435,44246.1222,55918.8724,223.6515,-835.1505,25782.8683
56217.7151,27880.5345,53839.9816,41942.7752,36543.7567,39069.9506,5960.0025,50290.2567,44230.029,55912.9715,205.7701,-845.8346,25778.8897
56218.4751,27877.5841,53838.9087,41942.5517,36541.298,39069.9059,5956.8286,50283.5512,44224.6646,55911.4516,207.8712,-844.717,25777.0568
56246.6383,27881.8309,53841.4121,41957.5274,36565.3932,39079.6959,5964.5176,50309.1663,44240.4002,55922.2251,229.0606,-825.8522,25788.4115
56249.9464,27883.9767,53841.278,41958.8685,36576.3903,39082.9146,5961.6566,50309.8816,44247.061,55918.3806,238.9848,-821.5159,25789.7526
56229.1592,27877.7182,53842.0826,41953.1912,36562.0404,39079.2489,5959.9131,50291.3743,44234.9911,55907.8306,227.5407,-832.7812,25786.0422
56212.6189,27878.7017,53847.447,41947.0221,36535.0842,39079.1148,5962.2377,50266.3404,44227.3468,55909.7081,212.2968,-841.4537,25786.5787
56227.1476,27882.7697,53851.6939,41955.5157,36548.1824,39079.8301,5964.16,50282.6571,44232.89,55909.3952,217.8848,-838.6374,25789.0373
56256.8307,27889.0729,53850.5763,41968.9268,36573.4845,39084.1663,5969.7926,50302.9972,44242.1883,55910.9151,237.152,-827.4615,25793.9994
56264.475,27884.9155,53847.1788,41970.7149,36568.7907,39077.2372,5965.7246,50296.3811,44232.9347,55912.3456,240.4153,-825.2263,25791.3172
56244.0008,27872.2197,53843.5131,41961.506,36535.5313,39068.3413,5957.6333,50270.5872,44212.9076,55905.2378,223.2045,-836.6257,25783.4941
56218.0281,27861.4014,53842.932,41951.4924,36509.6033,39061.0546,5954.951,50236.4784,44202.6258,55895.9395,203.5797,-847.9804,25778.2191
56219.0115,27864.0836,53845.0778,41954.0405,36517.9181,39061.7251,5956.2922,50236.3443,44207.0514,55893.7043,212.0733,-844.1359,25781.5719
56247.6218,27875.2595,53848.7434,41968.1668,36551.3563,39072.0516,5963.847,50268.0391,44221.133,55905.1037,236.6602,-827.238,25787.5621
56257.5907,27881.3839,53850.3081,41973.3971,36557.5701,39073.8398,5967.468,50279.0362,44232.2195,55912.9268,242.2929,-824.7793,25789.9314
56241.7656,27878.8358,53852.0068,41964.7694,36539.4205,39065.8826,5964.6964,50255.388,44218.4955,55904.0755,229.0606,-833.8094,25786.3104
56223.5266,27870.2974,53852.3197,41953.0571,36513.4925,39057.9253,5961.4778,50230.8905,44201.0164,55897.2806,213.2803,-849.0533,25780.5437
56237.2059,27871.4597,53852.1856,41956.991,36521.0921,39058.5959,5962.5953,50241.6641,44210.4489,55902.7344,221.9081,-843.823,25784.8352
56266.1737,27880.1322,53854.1079,41972.4584,36551.9375,39066.6425,5967.0657,50261.1548,44228.4644,55907.16,236.8838,-823.8852,25788.0539
56271.3146,27880.5792,53855.3596,41974.0677,36555.2008,39067.4472,5966.1716,50267.9944,44232.89,55907.2047,238.806,-821.0689,25790.1549
56260.7199,27873.4714,53852.7668,41959.7626,36528.9599,39061.0993,5964.7858,50249.0848,44219.0766,55903.8967,227.5854,-831.7083,25787.9198
56255.4449,27868.1964,53851.2915,41956.4098,36518.544,39058.0595,5965.5011,50215.7807,44207.9902,55895.9395,214.5767,-841.0066,25782.8683
56260.407,27871.5491,53855.2254,41955.471,36522.6567,39061.1887,5965.3223,50218.4629,44220.9542,55908.2329,221.5952,-832.8706,25786.8469
56285.3962,27877.1371,53857.0136,41971.6537,36543.3544,39074.2421,5967.9598,50245.3744,44238.4332,55914.5808,246.3609,-814.8998,25793.1501
56293.6664,27873.3373,53853.5714,41973.9336,36551.9375,39075.4491,5965.5905,50250.4259,44235.3934,55913.6868,246.2268,-813.8269,25795.4299
56270.51,27867.9281,53852.6773,41963.1153,36534.1902,39072.6775,5960.4496,50236.7467,44225.648,55909.6634,230.6253,-826.5227,25791.0937
56260.9434,27861.3567,53853.3479,41953.6829,36512.5537,39067.9836,5959.3767,50223.5144,44217.4673,55902.3768,216.6331,-840.5149,25785.5505
56276.6343,27865.8718,53852.9903,41956.8568,36519.5274,39070.8447,5962.953,50238.8477,44223.994,55904.5672,219.4941,-833.0941,25787.5174
56293.3534,27878.2099,53851.2915,41968.3456,36548.2718,39075.9856,5962.5506,50277.3374,44234.9017,55910.3787,229.2395,-820.4877,25790.1549
56306.228,27885.0049,53857.8182,41980.3262,36558.8218,39084.7474,5967.8257,50296.2917,44247.3292,55917.4865,240.46,-811.1,25793.91
56290.6712,27885.1837,53858.6676,41969.9997,36536.1124,39078.7572,5968.4068,50278.8126,44240.8472,55913.3738,232.6816,-818.789,25790.1549
56274.3098,27875.1254,53857.4606,41961.506,36515.9065,39074.5997,5971.3572,50253.9128,44233.0241,55907.5177,219.8517,-829.5625,25787.0257
56278.1543,27874.6784,53858.7123,41962.4001,36523.6849,39071.8728,5972.2513,50261.2889,44235.5722,55907.6965,225.1267,-820.9348,25791.3172
56295.7674,27879.6852,53859.9193,41973.3524,36556.6313,39078.936,5973.7265,50289.9885,44243.6635,55912.3009,241.8905,-806.3167,25794.6253
56298.852,27883.4403,53866.3119,41975.677,36564.8568,39081.6182,5978.018,50301.6114,44256.717,55925.9355,248.5067,-803.0534,25798.9615
56282.714,27877.3159,53863.4062,41964.2776,36536.8277,39081.1712,5972.3407,50272.6883,44244.96,55916.6372,239.7448,-816.4644,25796.0111
56273.0581,27874.3654,53860.2769,41957.9744,36521.2709,39082.7358,5971.1784,50252.3035,44227.9726,55910.9598,226.602,-827.5956,25791.9878
56277.6625,27870.0739,53855.9407,41963.2941,36528.0211,39089.7095,5972.3407,50263.4794,44236.8239,55915.6537,227.8984,-824.5111,25793.3736
56298.4049,27879.0146,53859.0252,41984.5283,36565.7955,39102.2712,5978.018,50296.4258,44255.4653,55923.1192,249.5348,-807.8814,25799.185
56301.4448,27882.725,53859.0252,41990.2503,36581.2629,39105.2216,5979.538,50306.3053,44261.4108,55920.7052,257.1344,-799.7453,25802.5378
56290.4924,27885.5413,53859.0252,41985.1989,36560.5652,39100.1701,5977.3028,50283.9983,44251.6655,55915.6537,240.013,-813.3352,25796.9052
56273.5498,27887.3295,53862.825,41973.1736,36535.5313,39094.4928,5972.1172,50261.6465,44244.3788,55910.3787,224.2774,-826.5674,25793.9547
56279.406,27893.8115,53862.0204,41981.2649,36539.9122,39097.2197,5969.1668,50276.1304,44261.2767,55913.9103,235.498,-816.1962,25797.5757
56295.7674,27896.7172,53858.1312,41991.6362,36561.3252,39102.9865,5969.7479,50301.8796,44268.1611,55919.8111,249.5348,-804.1263,25800.4367
56305.0658,27896.2255,53861.3498,41995.9277,36569.8189,39104.9981,5968.0492,50309.8816,44271.5585,55919.5876,255.7486,-804.1263,25800.0791
56289.196,27893.2303,53861.3945,41985.4224,36555.7373,39103.9699,5964.5623,50300.2256,44260.7403,55914.9384,241.5776,-818.6549,25797.3522
56280.8812,27887.1506,53859.3829,41964.0094,36527.7082,39100.3937,5961.7907,50273.4035,44246.8375,55904.7908,220.2094,-832.3342,25789.842
56293.8899,27886.8377,53858.3547,41963.2941,36536.7383,39107.5462,5962.4612,50278.2315,44251.3525,55909.6634,223.1598,-827.8191,25789.9314
56308.9103,27893.5432,53857.6841,41973.6654,36566.9578,39113.2683,5960.4943,50307.1994,44257.8346,55911.8986,238.3143,-817.1797,25789.7973
56306.1833,27886.3013,53854.3314,41968.2562,36567.4943,39106.518,5950.5254,50322.3538,44257.924,55905.6848,235.2744,-819.3254,25782.913
56291.6994,27874.9466,53855.896,41956.5439,36549.9258,39096.728,5945.5186,50299.6892,44256.1358,55907.5624,220.0305,-832.6024,25778.9344
56278.9142,27865.3353,53853.5267,41942.3729,36522.9696,39086.2226,5943.4175,50273.4482,44243.5741,55900.6333,201.568,-848.1592,25771.7371
56285.0386,27864.933,53851.4256,41944.8763,36532.8491,39086.1779,5945.6974,50283.3277,44249.8773,55899.2475,204.9655,-843.4206,25776.5204
56300.8189,27872.8008,53851.5151,41955.024,36553.4127,39088.8602,5951.9559,50300.2256,44264.5401,55907.2495,224.5009,-828.2661,25782.5553
56301.266,27873.2926,53850.6657,41957.0804,36555.5137,39084.1663,5949.989,50304.2936,44269.7257,55910.6469,223.2045,-828.7579,25779.9625
56284.7257,27873.069,53848.8775,41951.1348,36548.3612,39073.2586,5947.0832,50287.6639,44256.8511,55903.6285,209.1676,-841.6325,25775.8498
56269.6606,27870.1633,53845.5695,41937.2767,36533.1173,39063.3792,5944.8034,50269.4249,44240.8919,55894.9113,198.2599,-850.5732,25769.6807
56272.8792,27867.8387,53849.9057,41938.6178,36537.1853,39065.0779,5947.1279,50273.7612,44245.407,55900.9016,206.396,-845.7452,25771.2901
56298.7179,27878.1652,53854.2867,41952.8335,36560.9229,39072.9457,5956.0686,50297.8563,44257.3428,55910.6916,219.2259,-831.5295,25776.6545
56301.0871,27880.2663,53852.6773,41956.2757,36568.6119,39073.9292,5953.8782,50310.1498,44263.199,55910.0211,223.3833,-828.3108,25775.7604
56280.7024,27870.5209,53852.0515,41947.5585,36550.2387,39064.9885,5950.3019,50290.9273,44261.2767,55905.7742,210.1958,-843.2865,25772.1841
56262.4633,27860.5968,53855.0466,41943.267,36533.3408,39064.2285,5952.0006,50272.6436,44250.1456,55911.7645,197.6341,-852.8978,25770.8877
56260.407,27853.8465,53851.1574,41944.8763,36538.3029,39061.1887,5949.5419,50281.4949,44248.4468,55914.2679,200.1822,-846.3711,25775.3134
56277.5731,27860.7309,53851.9621,41954.1299,36559.8947,39067.9836,5952.5818,50307.6911,44267.8928,55919.2747,220.9693,-832.1553,25782.913
56290.9395,27870.1186,53853.7055,41959.5391,36577.0161,39074.3762,5960.8966,50318.5987,44284.9696,55923.8344,230.9382,-825.8522,25786.8469
56281.0153,27870.2527,53852.1856,41948.5867,36561.3699,39067.8495,5961.0307,50306.5288,44270.6198,55922.7616,215.292,-833.1835,25787.6962
56265.9502,27862.2508,53853.7502,41936.4721,36540.4934,39062.5298,5960.0025,50290.7038,44257.2534,55918.1571,202.5515,-843.1971,25781.4378
56277.3496,27865.1565,53855.136,41944.7869,36543.1756,39069.3247,5963.6235,50295.6212,44269.5022,55919.4982,212.6992,-835.6869,25784.2541
56299.6119,27873.6055,53856.656,41955.6051,36575.1386,39080.6347,5966.5293,50314.6648,44274.5984,55928.6624,227.3619,-819.4596,25791.5407
56309.4467,27875.9301,53854.4208,41957.4827,36587.1638,39082.0652,5964.607,50325.9301,44279.5157,55925.6673,230.67,-818.6102,25792.0772
56290.6712,27871.1021,53851.5598,41945.9492,36562.264,39073.9739,5962.1483,50317.3023,44271.335,55916.4137,219.4494,-831.753,25783.5388
56263.1786,27861.2226,53846.5083,41939.6013,36535.7101,39063.6027,5959.5555,50292.4472,44251.0396,55905.1037,201.0316,-848.7403,25776.6992
56264.7432,27861.625,53845.346,41944.8763,36540.9851,39065.7037,5958.8403,50297.7222,44251.3525,55908.0988,208.9888,-840.6043,25779.9178
56284.1892,27867.9281,53844.0049,41955.1581,36567.1366,39074.9574,5958.2144,50313.8602,44267.2223,55913.4185,225.7526,-826.2992,25783.5388
56297.7791,27876.1536,53846.24,41958.8685,36576.1667,39077.9525,5962.953,50316.1848,44280.4992,55922.5827,234.738,-820.4877,25789.2609
56285.3962,27878.2099,53847.6259,41950.5537,36563.8286,39074.1527,5961.7013,50305.5453,44277.6829,55918.3806,218.7788,-832.2448,25781.6613
56265.9502,27868.7328,53845.1672,41943.5352,36548.1824,39071.5152,5956.3369,50284.7582,44268.8763,55906.266,203.3561,-845.5664,25776.7886
56265.0561,27869.1798,53845.3013,41947.2009,36549.747,39072.901,5953.7888,50281.2713,44264.1824,55905.8636,204.6078,-841.9454,25775.7604
56287.3632,27881.3839,53852.9903,41960.299,36578.5807,39079.8301,5960.4496,50316.2742,44276.0289,55917.0395,227.0937,-823.7958,25781.5272
56300.3272,27885.8542,53852.9009,41974.8276,36588.5943,39088.9496,5962.5059,50335.8096,44284.8802,55919.0512,234.4251,-819.9513,25785.3717
56273.5498,27878.5229,53851.5598,41958.3768,36567.4049,39079.6065,5958.885,50312.9661,44275.5818,55914.7596,219.5388,-835.821,25779.2026
56264.1621,27871.1915,53857.1477,41951.9395,36548.3612,39077.1478,5959.1085,50294.1459,44263.4672,55913.7315,206.8877,-844.0018,25780.6331
56277.0814,27872.0856,53855.8066,41960.1649,36559.9394,39087.2061,5961.2542,50304.383,44272.9443,55915.7431,211.2687,-835.821,25785.8634
56304.9763,27879.2381,53855.5384,41973.7995,36593.1988,39098.2926,5965.367,50327.5841,44290.9151,55923.745,228.256,-819.0125,25791.3172
56308.955,27880.6239,53857.4159,41974.5594,36604.4194,39095.1186,5966.7081,50331.8757,44291.4069,55924.5497,228.5689,-811.9941,25792.5689
56293.7558,27873.8737,53858.3547,41963.3389,36587.0744,39091.8553,5966.3504,50311.625,44284.0755,55923.9239,215.5155,-822.3653,25788.4562
56280.0765,27865.4248,53860.1875,41952.9229,36564.2309,39091.4977,5965.4117,50294.593,44269.2339,55918.1571,204.4737,-834.614,25787.0704
56287.8549,27866.8553,53861.171,41960.2096,36568.2542,39091.4977,5967.8704,50303.8466,44273.4808,55918.3359,216.7225,-829.652,25791.1384
56303.9929,27870.7445,53859.8299,41968.435,36587.2532,39091.3635,5968.5409,50328.657,44285.7742,55931.7917,232.324,-815.2574,25794.3124
56310.6984,27877.5841,53857.4606,41971.9666,36590.606,39091.14,5970.8655,50337.4189,44290.6469,55933.4457,238.6272,-807.1661,25795.2064
56298.6284,27877.2265,53860.0534,41963.4283,36576.0773,39087.519,5971.2231,50323.6502,44281.0804,55926.2484,227.5407,-813.4693,25791.809
56285.888,27871.5938,53862.5568,41951.5371,36558.3301,39081.037,5970.5079,50305.59,44270.7986,55926.2484,213.9062,-827.2827,25786.0869
56293.7111,27874.276,53860.2769,41951.8501,36567.3602,39082.8252,5969.1668,50310.5521,44274.2854,55930.7188,216.2755,-825.6286,25785.1034
56313.917,27885.4072,53866.1331,41964.4564,36595.2998,39093.2411,5975.8276,50338.0895,44296.2795,55941.537,237.0626,-810.5636,25789.9314
56319.0132,27886.793,53868.3683,41961.9977,36600.0384,39089.8883,5977.7051,50354.8533,44302.538,55944.1745,242.5164,-810.4742,25789.1268
56310.2961,27878.3441,53864.3897,41954.6217,36585.5992,39084.4792,5977.6604,50341.8893,44294.5808,55938.9889,231.2958,-817.6714,25791.6301
56293.8005,27877.897,53863.2721,41947.782,36572.7693,39088.9943,5976.3193,50317.2576,44282.5109,55932.2834,218.1977,-828.8473,25787.8304
56295.3204,27878.5229,53865.0155,41946.888,36575.675,39091.1847,5976.9899,50326.3324,44289.574,55938.9442,222.4445,-821.6947,25792.7477
56318.2533,27889.8776,53867.5636,41967.8986,36605.2687,39096.1468,5981.639,50354.4956,44302.7616,55950.2542,240.013,-805.0203,25800.3473
56327.7751,27898.2818,53873.4645,41977.1969,36618.3221,39099.589,5984.1424,50365.001,44310.3164,55954.7246,245.6456,-803.3663,25798.6039
56315.2581,27894.5267,53872.3469,41964.1435,36598.3844,39096.2362,5980.3426,50350.1594,44301.5993,55938.8548,231.117,-822.1865,25788.4115
56300.6848,27888.3129,53870.9611,41956.5886,36581.4865,39092.6152,5979.225,50337.5977,44286.713,55935.1444,217.2142,-834.7929,25786.3998
56312.7548,27881.2945,53871.274,41963.2941,36592.8859,39104.104,5979.4039,50346.3149,44291.1386,55942.744,224.2327,-825.1369,25791.0043
56334.5701,27885.6307,53869.5306,41974.8276,36611.1249,39106.3392,5978.0627,50367.6832,44305.5779,55947.4379,239.2083,-811.7706,25792.7924
56331.2173,27889.2517,53866.9378,41979.8344,36617.2493,39098.4714,5977.7945,50365.9397,44305.1308,55944.9345,240.8624,-813.7822,25793.4183
56309.8043,27886.793,53866.3119,41972.6819,36593.1094,39094.1799,5978.3757,50355.9709,44297.7101,55944.1298,231.4746,-820.1301,25794.9382
56288.9725,27878.9699,53863.0933,41956.6333,36571.7411,39090.0224,5975.1123,50336.7484,44290.9598,55934.5186,215.0238,-832.8706,25787.0257
56294.3816,27882.1886,53864.8367,41958.0638,36584.7945,39090.9165,5973.503,50342.3363,44301.7781,55937.2902,218.6,-825.4051,25785.1034
56320.5332,27891.3081,53868.0553,41971.1173,36617.2493,39103.5229,5979.1356,50379.8425,44320.2853,55947.3038,238.5378,-813.8269,25789.4397
56326.5234,27895.3314,53869.8435,41978.3145,36622.3454,39107.7697,5981.192,50389.9008,44321.8946,55947.2144,241.3094,-810.7871,25790.1996
56302.0706,27888.2235,53868.6812,41967.3622,36599.9043,39095.1633,5975.4699,50366.4315,44308.126,55940.1512,225.9314,-828.132,25783.0024
56280.6576,27881.518,53869.62,41948.6314,36577.1502,39087.7873,5970.4632,50343.6774,44299.4088,55936.0385,210.7322,-841.4984,25777.0568
56287.542,27888.3129,53869.8882,41957.3486,36591.053,39096.9515,5975.7829,50349.8018,44303.9685,55935.9938,224.0539,-830.6354,25781.3036
56303.367,27888.0,53866.7589,41963.7412,36607.9062,39099.4549,5975.2017,50370.6783,44310.8976,55939.436,236.2132,-820.7113,25781.6613
56308.9997,27884.0661,53859.4276,41965.7081,36608.398,39097.3985,5970.642,50374.4781,44308.4389,55939.0336,234.6486,-823.7958,25776.3863
56294.6945,27876.1536,53853.2138,41954.0852,36588.192,39092.1235,5965.054,50362.9446,44297.1289,55927.0084,219.7176,-837.6092,25771.9606
56281.507,27868.6434,53854.1079,41941.8365,36573.9763,39090.6036,5963.5341,50344.3033,44286.4448,55919.4535,203.3561,-848.1145,25769.3678
56285.5303,27875.9301,53858.4441,41945.5916,36583.811,39093.4646,5965.2776,50349.4442,44290.1105,55930.227,208.05,-840.2914,25776.3416
56316.4204,27883.7532,53863.2721,41962.9812,36611.7954,39103.21,5970.7314,50373.0923,44305.0414,55940.1512,223.0257,-825.0475,25785.3717
56323.9753,27882.7697,53862.4674,41964.7247,36617.9198,39103.2547,5967.9598,50386.1904,44315.0103,55943.8169,225.6632,-822.3653,25783.5835
56303.8141,27871.1915,53857.3712,41957.9744,36593.2882,39093.3305,5965.0093,50366.3421,44307.5895,55937.2902,209.704,-839.0397,25778.3085
56281.507,27869.2693,53854.3761,41946.8433,36568.433,39086.7591,5963.847,50347.7901,44298.8276,55931.3446,197.4106,-848.1592,25777.0121
56289.6878,27869.5375,53855.0019,41954.3087,36582.5593,39095.3422,5968.6303,50364.6433,44307.0978,55936.7985,210.5087,-834.4352,25780.5884
56307.6138,27877.9864,53855.2254,41965.574,36610.4096,39105.2663,5968.0939,50394.3712,44322.9675,55939.1677,230.3571,-816.6432,25785.9528
56313.8276,27873.2032,53851.5598,41964.68,36606.2969,39104.3723,5961.8354,50399.9591,44322.9675,55934.0715,229.7759,-819.0125,25784.0306
56302.5624,27868.4646,53855.6278,41955.024,36589.0414,39092.5705,5961.9248,50384.3576,44315.1891,55930.8976,215.4261,-832.8706,25779.6496
56284.5469,27866.7659,53858.8017,41944.2058,36570.1318,39083.764,5960.3155,50360.3965,44304.952,55923.745,199.4222,-845.4323,25775.6263
56291.2077,27869.8951,53856.9689,41940.0483,36574.1998,39083.9875,5962.193,50366.4315,44309.1542,55922.091,206.6195,-841.1855,25777.8615
56307.7927,27874.0972,53852.722,41947.4244,36598.1162,39096.5492,5962.7295,50397.3216,44323.0122,55925.6673,221.8187,-826.9697,25778.845
56314.8111,27872.8008,53856.4771,41957.9744,36602.2736,39103.5229,5963.4,50408.408,44328.6002,55932.3728,229.9994,-820.0407,25780.6331
56296.4827,27870.1186,53857.1924,41954.1299,36591.1871,39096.5492,5960.9413,50383.7764,44313.9374,55927.0978,216.6331,-833.5412,25775.6263
56283.3399,27860.5968,53856.343,41940.7189,36572.8587,39087.9661,5959.332,50357.9825,44302.2251,55930.9423,199.8693,-848.2486,25772.3629
56293.9793,27858.4957,53858.4888,41944.0717,36573.3057,39094.7163,5962.193,50374.3887,44305.7567,55932.7751,204.3843,-842.4371,25778.1744
56313.4253,27863.726,53859.964,41955.9181,36592.8859,39102.5394,5963.3106,50399.7803,44321.6264,55942.3417,222.221,-824.3322,25782.5106
56317.4486,27868.7775,53856.4771,41958.2874,36603.7041,39102.897,5963.2659,50405.9047,44323.3252,55942.7887,228.703,-818.4761,25780.7672
56303.8588,27867.3023,53855.0019,41953.8617,36591.1871,39096.3703,5958.125,50392.1807,44316.6643,55934.9209,211.0451,-830.9484,25771.603
56275.7403,27855.5453,53853.5267,41938.6178,36562.711,39084.3898,5951.5089,50365.001,44304.3262,55926.3378,193.9237,-846.684,25766.328
56280.1659,27854.4724,53854.689,41939.0649,36566.4214,39085.5074,5950.9724,50372.5559,44311.7023,55930.0482,200.808,-845.3429,25770.2619
56307.8821,27852.9972,53854.8231,41948.6761,36591.4106,39088.4578,5952.7606,50391.4207,44323.2358,55932.641,215.1579,-830.9036,25774.3746
56309.3573,27849.9573,53853.3926,41949.7937,36603.9723,39091.5424,5952.1794,50394.1923,44321.4923,55931.8364,214.4426,-830.9931,25773.4358
56293.264,27845.8446,53849.0117,41940.2719,36580.5477,39087.8767,5946.1892,50379.7084,44311.8364,55924.3262,199.8693,-844.9852,25766.328
56282.6246,27835.5181,53846.3295,41928.4254,36553.9491,39080.0089,5940.1095,50361.0671,44297.8442,55914.7149,185.1618,-857.5916,25761.5447
56285.5303,27835.4287,53847.6259,41936.9638,36556.8548,39083.2275,5941.1377,50372.7347,44295.2514,55919.677,196.3377,-850.3944,25767.1326
56299.2543,27843.2071,53848.6987,41953.2806,36581.4865,39095.3869,5947.6197,50404.653,44312.2834,55933.4457,217.8848,-831.1272,25773.9276
56309.5808,27853.7571,53851.2021,41963.2047,36597.2221,39100.2148,5954.8616,50420.9697,44322.6993,55935.2338,227.5854,-825.9416,25775.7157
56299.5225,27851.9243,53851.2915,41959.1814,36580.4583,39098.6055,5953.8335,50395.2205,44311.3446,55926.5614,215.3367,-835.7763,25773.1676
