FC3,FCz,FC4,C5,C3,C1,Cz,C2,C4,C6,CP3,CPz,CP4
55854.4546,27586.2068,53620.8898,41573.1221,36343.8427,38748.5772,5890.0863,50243.9439,44434.2792,55945.7392,-124.231,-1071.9448,25494.2179
55866.1222,27587.1009,53623.3932,41578.2183,36352.9176,38757.6073,5893.8414,50257.1762,44438.7943,55948.3767,-120.163,-1065.0158,25498.2859
55887.2223,27595.818,53626.2095,41587.7849,36385.5511,38768.3809,5899.1611,50286.0099,44455.5581,55952.9364,-100.6275,-1051.0236,25503.0245
55894.5984,27607.128,53628.4,41598.6031,36397.2634,38777.0087,5898.3117,50291.4637,44460.386,55949.9413,-94.0114,-1049.5037,25504.5891
55882.8413,27601.8977,53628.9811,41595.4292,36377.6386,38769.8114,5893.7967,50275.7281,44442.5046,55944.5322,-108.853,-1061.0372,25496.9001
55864.3788,27596.0416,53630.054,41587.8296,36355.8233,38767.0398,5896.9706,50263.6135,44425.5173,55937.0667,-123.4263,-1068.1003,25494.9778
55873.4089,27602.3,53630.7245,41592.9258,36363.9146,38774.6394,5899.8764,50283.1936,44431.8205,55938.8995,-111.2223,-1058.0868,25501.9069
55896.7441,27611.4643,53627.2824,41607.7226,36388.0992,38783.3118,5898.58,50294.3248,44444.0246,55940.643,-90.1222,-1041.6806,25506.0196
55907.16,27616.0687,53631.6633,41615.7693,36402.2255,38790.3303,5906.1795,50297.8563,44451.2665,55950.4777,-83.4614,-1033.6339,25511.1158
55887.4458,27610.0785,53632.6915,41601.8665,36376.521,38780.4508,5903.2291,50286.5016,44445.7233,55952.6682,-97.0513,-1043.6475,25505.9302
55867.6869,27601.9424,53633.9432,41591.6294,36351.5764,38776.6957,5900.7704,50268.6203,44433.0275,55944.9792,-113.8151,-1058.0868,25502.3539
55876.0464,27605.6528,53631.0822,41591.0482,36364.4063,38778.4392,5898.0882,50277.6504,44438.5707,55944.3086,-114.2174,-1055.941,25504.0526
55897.817,27608.2456,53626.88,41600.123,36388.4568,38783.446,5897.1941,50307.0205,44451.4453,55950.6118,-99.8229,-1047.4473,25506.1984
55898.1746,27604.3117,53625.4048,41600.3019,36388.6356,38777.5004,5897.3283,50313.3684,44454.664,55954.054,-96.2466,-1045.078,25502.9351
55880.785,27601.853,53620.8898,41588.9472,36366.1498,38769.4091,5894.5566,50285.8311,44438.526,55947.572,-112.0269,-1058.2656,25495.4696
55871.0396,27598.6791,53620.0851,41590.2883,36345.6309,38767.5762,5894.2884,50269.9614,44430.5241,55937.2455,-126.9579,-1067.3404,25494.8884
55882.7519,27604.7587,53621.158,41595.3398,36358.0585,38773.4771,5899.5634,50282.3889,44442.0129,55943.8616,-113.4574,-1057.2821,25499.1353
55905.1931,27609.7208,53622.9014,41602.7158,36384.1206,38776.0252,5897.9988,50297.6328,44451.7136,55949.8519,-95.5313,-1045.7039,25503.0245
55902.5556,27604.7587,53620.6216,41601.8665,36388.0992,38773.0747,5895.7189,50296.3364,44453.6358,55952.5788,-95.3078,-1047.045,25500.1187
55879.6227,27593.5829,53618.2523,41589.7071,36366.3286,38766.0563,5892.8579,50281.629,44446.7068,55948.332,-108.8083,-1058.4891,25497.3918
55872.0678,27587.1009,53619.9957,41584.6556,36353.901,38766.7716,5894.2884,50261.6465,44435.8885,55946.0968,-118.8666,-1071.1849,25494.2179
55889.2339,27594.5216,53624.4214,41589.7071,36374.2858,38773.2536,5894.7802,50279.9302,44447.0197,55948.8684,-108.3612,-1062.423,25499.3141
55909.4399,27599.6178,53625.0919,41593.5963,36394.8494,38775.6228,5892.545,50303.3549,44463.4706,55955.4845,-96.4254,-1047.5367,25501.8175
55904.6566,27596.6674,53624.2872,41585.3262,36386.8028,38768.9173,5891.6956,50298.0351,44474.1547,55965.0511,-100.404,-1047.2685,25498.8223
55878.8627,27585.1339,53617.2241,41567.6683,36361.0536,38754.9698,5884.6772,50272.5542,44455.9604,55952.4894,-120.2971,-1066.044,25486.5289
55863.2612,27569.443,53615.0336,41552.7821,36336.3773,38745.1351,5877.9716,50249.0848,44436.9167,55943.8616,-140.4583,-1083.9701,25481.075
55869.1174,27566.9843,53612.2173,41562.7956,36352.9176,38747.2361,5877.3458,50258.9196,44436.7826,55947.4379,-135.5857,-1074.9847,25484.8748
55888.3846,27576.6402,53611.9491,41579.2018,36375.0458,38750.1866,5877.8375,50286.5016,44450.0595,55956.468,-118.9113,-1065.1946,25488.2276
55889.5469,27577.3108,53610.6974,41578.3525,36374.4646,38751.1253,5878.374,50296.4705,44454.217,55955.5292,-116.542,-1062.4677,25486.663
55877.611,27576.8191,53609.8033,41570.4846,36362.1265,38751.0359,5877.7928,50286.9487,44449.6572,55946.5438,-125.7062,-1067.5639,25483.489
55857.271,27567.1184,53603.9919,41558.0571,36333.5609,38744.8668,5872.6072,50261.1548,44434.5027,55937.0667,-142.2912,-1084.3277,25475.4424
55866.1669,27574.4945,53608.8645,41565.7014,36345.0944,38750.6336,5877.9269,50268.5308,44441.4765,55937.469,-130.8918,-1077.3987,25479.8234
55889.0998,27590.1407,53611.5915,41582.0628,36372.0506,38762.8376,5885.6159,50305.5006,44457.2568,55942.2076,-111.1329,-1060.6349,25488.0935
55892.2291,27589.8725,53609.4904,41588.7684,36377.7727,38768.2468,5884.6772,50325.796,44460.9225,55945.8733,-108.3165,-1052.4541,25489.8369
55879.3545,27581.96,53609.3563,41583.8957,36361.143,38759.2167,5881.3244,50314.1284,44447.735,55940.9559,-122.577,-1064.8817,25486.9312
55869.9667,27583.3458,53612.5749,41580.9005,36352.0235,38762.1671,5883.2914,50296.5599,44445.1421,55944.2639,-134.8704,-1073.0177,25486.5289
55877.6557,27595.9074,53614.4972,41588.0084,36362.1712,38774.1029,5890.7121,50300.8515,44464.2305,55955.6186,-118.7325,-1057.8185,25495.1566
55898.5323,27607.888,53618.744,41600.123,36384.9699,38784.5635,5899.474,50321.8621,44484.7047,55961.7877,-98.7947,-1043.1111,25503.4715
55901.1698,27611.0619,53622.7673,41601.2406,36394.6259,38786.8434,5901.1281,50341.9787,44489.7562,55957.7644,-98.6606,-1037.6126,25504.0973
55880.785,27599.8414,53624.5555,41592.6129,36377.9068,38785.5917,5900.0105,50327.003,44477.5969,55954.9928,-111.5799,-1049.1014,25499.7611
55868.1339,27596.8909,53623.3485,41582.0181,36358.5949,38785.0553,5899.2058,50314.5754,44459.5814,55947.7061,-124.8568,-1066.3569,25496.7213
55877.7452,27598.8579,53627.5506,41584.8792,36370.4413,38786.1282,5901.7092,50323.3373,44468.9244,55954.4116,-119.1348,-1059.3385,25500.1187
55900.991,27611.8666,53624.8684,41592.9705,36392.346,38789.5256,5902.8715,50359.1001,44481.4861,55962.8606,-103.7568,-1045.3016,25505.1255
55909.7081,27619.4662,53626.8353,41602.9394,36402.6725,38795.3818,5907.7442,50378.6802,44486.0458,55964.8722,-95.8443,-1044.3181,25506.4219
55889.3234,27615.7111,53626.0754,41593.194,36386.0875,38791.2244,5907.163,50357.9825,44483.0507,55964.2017,-102.1922,-1048.5649,25504.8573
55868.9833,27607.2621,53624.8237,41585.1474,36364.5405,38783.6695,5905.3749,50334.6473,44471.5172,55952.847,-120.0736,-1060.1878,25499.8952
55876.4935,27607.3515,53624.8684,41592.6129,36379.3373,38790.6432,5905.7772,50344.6609,44477.9992,55949.5836,-116.4079,-1053.6611,25499.7164
55894.5984,27616.1581,53621.2474,41599.5419,36398.5598,38794.9795,5902.7821,50362.7658,44491.6785,55957.4962,-101.2087,-1042.8876,25501.2363
55894.3748,27616.7393,53618.4311,41599.0055,36399.7668,38791.582,5896.0766,50363.5705,44488.0575,55956.5574,-100.6275,-1043.4687,25495.9166
55880.1591,27608.5585,53615.8383,41584.5662,36379.2926,38782.0154,5888.9687,50339.8776,44472.5007,55947.4379,-123.8734,-1061.3054,25488.0488
55866.9269,27596.8462,53613.7819,41575.1338,36358.0137,38775.9805,5882.6208,50319.6269,44457.6591,55942.9675,-138.8937,-1076.8622,25480.8068
55879.0863,27593.5382,53613.6925,41580.0065,36365.4792,38777.2769,5883.6043,50336.5695,44460.8778,55946.0968,-130.9812,-1070.6931,25483.2208
55897.817,27597.6509,53609.8927,41582.8228,36383.0477,38779.1544,5883.8725,50349.8912,44474.3335,55947.8402,-116.4973,-1060.0984,25485.5901
55898.6664,27594.2981,53605.333,41584.1639,36382.1983,38773.3877,5879.0892,50346.8961,44475.2723,55944.7557,-113.9492,-1062.1995,25485.9477
55890.128,27584.4187,53605.5118,41583.2251,36367.8932,38765.8775,5876.8988,50336.4354,44457.6591,55940.7324,-130.4895,-1074.4482,25482.0138
55875.3312,27578.339,53608.1046,41577.1455,36352.247,38763.3741,5874.1719,50320.7445,44444.7398,55936.4408,-140.3689,-1082.5396,25480.3598
55883.646,27583.3458,53610.7868,41583.1804,36364.0487,38768.6938,5876.2282,50328.2994,44466.0634,55954.5904,-130.8024,-1073.5095,25485.1431
55901.2592,27588.9337,53609.6692,41595.0269,36387.3392,38773.5218,5877.4352,50356.8649,44487.4763,55960.983,-113.368,-1059.562,25490.8651
55901.2145,27587.5926,53609.4457,41595.0716,36392.5695,38778.1262,5880.788,50367.862,44491.3656,55959.9996,-105.232,-1052.3647,25494.8884
55885.1659,27582.5411,53608.9987,41578.0842,36367.5356,38769.3644,5880.028,50342.5598,44476.6581,55951.9976,-119.6265,-1061.3501,25491.0886
55871.4867,27572.9746,53605.2436,41566.6848,36345.2733,38766.548,5875.4236,50322.7562,44460.6096,55945.5156,-134.8704,-1074.2247,25485.6348
55881.4555,27573.064,53605.5118,41576.609,36360.0254,38770.929,5879.581,50334.0214,44474.7359,55952.4894,-122.7111,-1063.4065,25490.5522
55895.8501,27576.9532,53608.9092,41586.6673,36380.9466,38772.0913,5884.7219,50353.3781,44492.4384,55956.4233,-104.9191,-1047.8944,25494.9331
55894.7325,27578.8754,53610.9209,41589.9754,36389.3509,38777.1875,5885.4371,50365.001,44495.0759,55960.4019,-103.7121,-1048.4308,25494.9778
55881.0085,27574.4945,53608.8198,41578.8889,36365.7027,38774.55,5876.8541,50337.7318,44479.2956,55948.7343,-121.1017,-1062.5571,25486.5289
55867.9551,27570.1135,53609.8927,41569.0541,36342.4122,38769.5432,5874.1271,50319.6269,44468.4774,55943.951,-135.4516,-1073.4648,25485.3666
55881.9026,27572.2593,53609.1328,41572.2281,36348.3131,38776.2934,5879.4022,50340.8611,44476.8816,55946.9908,-128.0308,-1066.1334,25491.2227
55896.5653,27582.0941,53608.641,41584.5215,36373.8388,38782.1943,5886.063,50364.3751,44493.5113,55953.8305,-109.7023,-1051.5153,25496.006
55902.3321,27583.6587,53610.6974,41588.4554,36386.5793,38785.1894,5887.0018,50371.483,44492.2149,55953.3387,-111.8034,-1054.1081,25494.7543
55889.0104,27574.0474,53609.6692,41579.2912,36368.4297,38778.6627,5882.6655,50354.3168,44482.8272,55951.5059,-123.1134,-1066.3569,25488.5852
55873.3642,27570.4712,53611.0103,41576.9219,36352.6493,38772.5383,5877.2117,50327.45,44470.3102,55946.9461,-133.0823,-1074.7164,25482.9526
55883.4672,27572.2593,53609.8927,41583.3145,36360.4277,38777.0981,5876.7647,50339.4306,44469.7291,55946.1415,-130.7577,-1074.2694,25482.9079
55904.2543,27581.0659,53617.8052,41597.3067,36387.2945,38784.8318,5881.5032,50368.2196,44483.766,55959.1949,-113.6363,-1064.2558,25488.9876
55906.6683,27587.8608,53624.8237,41600.3913,36395.1176,38784.6529,5884.2748,50377.2944,44489.8903,55959.9549,-108.9424,-1061.3501,25488.2723
55892.8549,27579.7248,53621.9627,41585.1027,36373.7941,38777.6345,5882.1291,50360.3965,44478.178,55950.3883,-124.3204,-1071.4084,25484.5619
55880.6509,27571.4993,53619.7722,41573.6586,36356.8068,38777.9474,5882.0397,50348.5501,44469.282,55944.8898,-133.9763,-1079.2762,25484.6066
55883.2884,27574.5392,53617.8499,41579.1124,36363.6464,38775.757,5879.8492,50360.6647,44474.8253,55950.2542,-125.7956,-1071.3637,25488.9876
55903.6285,27578.7413,53616.0171,41597.0385,36386.8028,38776.0699,5880.788,50379.4402,44491.0973,55961.6536,-111.8481,-1056.6562,25491.491
55905.6848,27581.1106,53615.8383,41599.1396,36389.5744,38780.4061,5878.9104,50381.7201,44485.1965,55964.1123,-111.4011,-1055.181,25491.1333
55885.8812,27572.8405,53613.7372,41583.8957,36363.2441,38770.929,5874.0824,50360.8435,44470.489,55956.7362,-130.266,-1071.6319,25482.5503
55871.7549,27566.4926,53609.3116,41575.7596,36342.6358,38766.5927,5871.2661,50342.7833,44458.8661,55948.4661,-142.8723,-1087.0546,25475.1295
55875.1523,27566.8949,53607.3446,41578.7548,36352.1576,38768.1574,5869.0757,50354.3168,44470.8467,55954.9481,-138.2232,-1079.1868,25476.1577
55893.7937,27576.2379,53608.5069,41590.6906,36377.0574,38774.1923,5872.8755,50379.0826,44483.2295,55959.5972,-126.0638,-1068.9497,25477.0964
55900.7674,27580.2165,53606.6741,41591.4506,36381.0807,38771.7783,5870.6403,50386.9951,44485.3753,55955.7974,-123.6945,-1070.9614,25473.8778
55882.2155,27577.5343,53605.2436,41578.2183,36360.6513,38770.5266,5869.1651,50371.7065,44475.317,55946.812,-139.9666,-1086.7417,25468.8263
55873.3195,27578.6966,53610.6527,41573.301,36342.5016,38769.5879,5873.7248,50359.1001,44473.3053,55945.6944,-147.1192,-1094.2966,25470.4356
55877.9687,27588.0396,53613.2902,41583.0016,36357.2091,38775.3099,5879.1786,50367.5938,44488.1469,55947.572,-135.7645,-1082.1372,25476.6494
55896.9229,27593.8064,53614.676,41596.3233,36383.5394,38784.34,5883.5149,50396.6063,44495.4336,55952.5341,-122.8899,-1067.4745,25480.8068
55901.3039,27592.2418,53611.2338,41593.9093,36385.1041,38782.6413,5880.0727,50408.3633,44490.6503,55950.7906,-126.3767,-1066.7145,25479.9128
55883.5119,27592.2865,53611.5021,41582.4652,36366.5074,38779.1991,5883.1125,50390.7055,44486.2694,55955.1716,-137.195,-1077.0857,25477.7223
55870.2797,27590.0513,53614.1843,41575.9832,36352.1576,38781.7472,5885.1689,50374.0758,44480.592,55952.4894,-147.9238,-1085.8476,25477.6776
55884.1825,27595.7286,53618.297,41592.0317,36367.8485,38790.9561,5890.1757,50385.4305,44490.7844,55955.1269,-134.4681,-1073.733,25483.5784
55904.4331,27603.3282,53620.3533,41605.3087,36389.8873,38796.5441,5892.4109,50412.9231,44505.1342,55964.0676,-115.1115,-1055.494,25489.971
55907.473,27609.7208,53621.4262,41604.7275,36392.9719,38794.9347,5893.0814,50411.2244,44502.0944,55965.2299,-116.2291,-1055.0469,25492.2509
55900.9016,27603.6412,53622.5438,41596.8597,36380.0526,38792.029,5897.4624,50401.0767,44496.9982,55964.1123,-125.5721,-1060.9031,25491.7592
55886.5964,27592.8229,53622.0968,41587.8743,36358.5055,38788.1845,5894.8696,50392.3595,44489.5774,55959.4184,-136.748,-1068.9497,25490.5075
55888.2058,27591.1689,53618.0735,41585.058,36359.8019,38781.3896,5887.6723,50399.6909,44495.5677,55962.1453,-128.1649,-1064.6582,25490.3287
55906.8918,27591.5712,53616.8665,41605.9345,36387.071,38784.4741,5889.6393,50417.1252,44512.0186,55968.985,-108.8083,-1052.2753,25496.006
55909.574,27586.6985,53615.4807,41608.7955,36392.7484,38780.9873,5887.0018,50419.6286,44513.2256,55966.4816,-105.9473,-1052.3647,25495.7378
55886.9541,27586.0727,53612.6643,41597.0385,36370.1284,38771.9572,5881.682,50397.2322,44497.7582,55962.19,-123.9181,-1069.3073,25489.3005
55867.1504,27578.6072,53609.8927,41584.298,36349.7436,38762.7929,5875.1106,50384.5364,44487.834,55956.1998,-140.4583,-1086.7864,25481.9244
55872.7831,27580.2612,53609.5798,41590.7353,36359.5337,38763.9105,5876.6752,50388.7832,44493.4219,55959.6419,-129.2378,-1075.6105,25482.2373
55891.4244,27586.9668,53609.4904,41600.9277,36378.7115,38770.1243,5877.614,50403.6248,44503.8378,55966.571,-113.7257,-1061.7077,25486.5289
55891.9162,27583.7481,53607.5681,41598.2902,36375.0458,38767.4868,5875.7365,50416.857,44507.5929,55965.364,-117.0784,-1063.9876,25484.8301
55883.3331,27584.5081,53607.747,41594.9374,36359.6231,38766.6821,5875.2447,50406.1282,44496.6406,55958.4796,-131.16,-1077.2645,25481.075
55860.5343,27577.7578,53607.7917,41584.9686,36339.6853,38762.1224,5874.4401,50377.8309,44484.1236,55949.4495,-146.2698,-1086.3841,25477.1411
55872.7831,27580.9318,53611.4573,41588.7684,36348.626,38763.9552,5876.2282,50393.9241,44486.7611,55951.2377,-140.9501,-1080.2597,25477.5435
55901.9744,27585.9386,53614.6313,41602.1794,36375.1799,38771.2419,5878.0164,50409.7939,44504.7319,55955.261,-124.9015,-1067.4745,25479.4657
55902.6897,27588.889,53615.6148,41603.3417,36382.3324,38775.0417,5876.7647,50408.6763,44508.934,55963.5311,-124.0969,-1066.7145,25479.8681
55884.2719,27586.2515,53614.8995,41591.9423,36363.1099,38773.0747,5874.0377,50393.9688,44495.4783,55955.0375,-141.1736,-1077.3093,25475.8447
55867.5528,27580.4847,53613.9607,41584.5215,36343.8427,38769.9008,5874.6189,50377.3838,44483.9895,55951.1483,-152.3048,-1089.0663,25475.2636
55875.5994,27579.1883,53620.1298,41594.2669,36353.3646,38773.1642,5881.235,50391.5548,44492.3043,55957.9432,-138.9384,-1082.5843,25481.1198
55888.3399,27588.5761,53622.812,41606.158,36377.8174,38774.4159,5883.1125,50414.5771,44510.6328,55960.8489,-119.8947,-1067.1169,25484.0255
55892.989,27594.5216,53629.7411,41614.8752,36388.9039,38779.1991,5886.1524,50426.1106,44526.0555,55965.364,-112.161,-1058.4444,25484.1149
55870.7714,27590.7218,53629.607,41605.2639,36368.5191,38783.0436,5887.9405,50425.5742,44517.2936,55961.6089,-125.5721,-1066.7145,25482.9079
55864.647,27589.8725,53629.3834,41602.4476,36352.4258,38784.6529,5890.7568,50412.5208,44509.3811,55958.4349,-136.435,-1070.559,25482.5503
55878.5051,27595.4157,53629.1599,41609.4661,36364.0934,38796.9464,5891.2933,50432.3691,44520.1993,55963.8888,-128.0308,-1063.3618,25484.696
55897.4147,27599.4837,53627.4612,41615.3222,36384.0759,38802.3108,5892.6344,50455.1679,44528.6483,55967.3309,-115.8267,-1052.9011,25487.6465
55902.1533,27599.6178,53628.4447,41622.3407,36393.106,38802.9367,5893.8861,50458.8336,44527.7542,55968.3144,-115.5585,-1050.6213,25490.9992
55889.1445,27589.1572,53628.9364,41610.5837,36373.347,38792.9678,5887.4935,50436.8395,44518.1876,55965.2746,-130.6236,-1062.4677,25486.0371
55873.7218,27579.7248,53630.8587,41601.2406,36350.5483,38782.4178,5889.9522,50412.6102,44503.1226,55962.1006,-136.9715,-1071.1402,25484.6513
55880.785,27577.9814,53631.1716,41608.1697,36365.7475,38785.4576,5894.5566,50422.0873,44509.5152,55966.2133,-122.9793,-1062.4677,25491.6698
55901.3039,27584.8657,53630.9481,41624.71,36400.2585,38792.4761,5896.9706,50450.5187,44530.8387,55973.7235,-100.9405,-1044.184,25499.2247
55896.0289,27582.5411,53629.5623,41621.8042,36405.0865,38790.9561,5895.0484,50449.9376,44536.1584,55971.5778,-103.8015,-1040.6524,25498.867
55873.7218,27572.6169,53619.2358,41602.4476,36374.9117,38783.6695,5887.0465,50423.9649,44515.9972,55959.8655,-124.0075,-1057.8632,25491.6698
55864.2447,27575.165,53618.8334,41597.2173,36356.9409,38779.3779,5881.9056,50404.8318,44504.7319,55953.9199,-133.6187,-1074.627,25486.7524
55873.1407,27582.3176,53624.6896,41605.3981,36372.7212,38787.7375,5884.4984,50424.6354,44512.4209,55963.3523,-122.1746,-1065.3734,25489.0323
55891.782,27593.3594,53629.1599,41615.8587,36389.4403,38797.0805,5886.6888,50446.6742,44527.1283,55975.7352,-105.9026,-1052.7223,25495.8719
55901.438,27588.6655,53626.3436,41619.5691,36387.0263,38799.7627,5884.3642,50446.2272,44528.8718,55971.9354,-103.3992,-1052.9011,25494.3073
55889.1445,27585.6256,53622.3203,41613.9811,36370.8884,38797.304,5881.8161,50431.1621,44515.1478,55964.9616,-116.8996,-1065.5969,25487.6018
55874.303,27581.7811,53615.2124,41605.9792,36347.4637,38791.3138,5877.0776,50410.822,44506.073,55956.0657,-135.228,-1076.9516,25481.2092
55882.6625,27583.9716,53613.8266,41609.1532,36357.522,38796.4994,5878.1505,50419.271,44506.1624,55957.2726,-130.5789,-1070.1567,25486.2607
55906.6236,27593.4935,53617.4029,41617.7809,36377.8174,38806.2447,5884.4984,50448.6859,44519.4393,55966.1686,-114.2621,-1053.6611,25493.2791
55906.0425,27597.4274,53623.1697,41624.9782,36387.2498,38805.5295,5890.2651,50449.3564,44517.6959,55965.6769,-109.9706,-1045.9274,25497.3024
55889.8151,27594.6558,53623.3485,41616.5292,36367.2227,38802.3108,5890.7568,50428.614,44508.487,55963.3076,-119.5371,-1054.1081,25497.2577
55878.7286,27585.9833,53622.365,41599.7654,36347.3296,38792.9678,5886.063,50412.6102,44496.5512,55959.9996,-131.5176,-1065.9099,25492.7427
55881.5002,27585.7598,53625.986,41602.4476,36352.7834,38794.1301,5888.9687,50416.4994,44502.9438,55961.296,-119.0454,-1060.3219,25492.5191
55905.6401,27594.4769,53629.8305,41614.8305,36380.8572,38802.892,5896.613,50438.9405,44513.5385,55967.5992,-102.1922,-1049.0566,25497.7942
55905.8636,27598.1426,53630.1434,41617.9597,36391.3625,38801.6403,5900.8151,50440.5499,44512.3315,55968.225,-98.6159,-1047.5814,25496.453
55879.3098,27591.1689,53628.4447,41600.9277,36373.4812,38792.3867,5898.4905,50406.6199,44488.4598,55958.4349,-118.5536,-1060.8137,25488.6299
55867.9998,27584.1057,53633.1385,41589.1707,36358.9525,38781.2555,5897.7753,50370.6783,44476.1217,55955.4845,-129.7742,-1072.7048,25488.317
55873.4089,27590.0513,53631.6186,41592.8364,36363.0205,38778.3945,5901.8433,50369.9183,44477.3734,55958.9714,-126.4662,-1062.4677,25493.0556
55892.0503,27597.6956,53633.675,41601.9559,36384.21,38780.6296,5905.8219,50391.4654,44481.2626,55967.3309,-113.0104,-1046.6427,25497.7942
55877.3428,27601.2272,53631.9315,41599.4525,36392.1672,38772.8959,5905.4643,50388.7832,44476.7475,55964.4252,-110.2388,-1044.9886,25494.799
55854.0076,27595.7733,53628.9811,41591.5847,36377.1468,38763.4635,5904.4808,50352.2605,44456.7204,55960.7595,-120.4759,-1060.456,25491.7145
55836.0815,27595.0581,53625.6731,41586.9802,36350.9059,38759.619,5904.1679,50316.3189,44440.8059,55953.607,-128.1649,-1071.6766,25490.2393
55850.4313,27598.5003,53625.226,41596.2785,36360.7854,38765.5199,5910.1582,50318.5987,44451.9371,55955.4845,-115.1115,-1063.4512,25495.9166
55862.3672,27607.4857,53624.6896,41601.33,36389.0827,38769.3644,5914.0474,50330.2664,44459.6261,55965.6769,-101.0746,-1052.0071,25501.2363
55859.2826,27612.8054,53626.5224,41606.918,36394.9388,38769.9008,5916.4166,50316.0506,44457.0333,55963.6652,-97.4089,-1044.3628,25503.4715
55843.1894,27610.4808,53625.3601,41603.2076,36380.3208,38765.341,5914.0027,50288.6921,44444.8292,55955.9315,-113.681,-1054.8681,25498.0624
55825.7997,27607.2621,53623.6614,41591.4059,36359.8019,38762.1224,5912.0804,50270.0061,44427.7972,55950.7012,-124.9015,-1068.9497,25495.559
55833.2205,27606.5916,53627.5059,41594.2669,36365.3004,38766.6821,5915.8355,50277.1586,44436.3356,55951.9529,-117.9725,-1055.7622,25499.3588
55850.4313,27616.7393,53630.054,41611.4777,36390.3791,38779.1097,5921.2446,50307.1994,44447.9585,55956.1998,-97.0066,-1041.4571,25507.4054
55849.7161,27623.9812,53630.501,41609.3767,36383.8524,38778.3945,5923.6139,50311.7591,44450.8195,55956.2445,-94.3691,-1039.7583,25508.3442
55836.0368,27617.1416,53628.0423,41599.0502,36356.1809,38769.6773,5920.7082,50283.1936,44426.2773,55944.7557,-112.5634,-1054.1528,25500.6999
55824.9503,27612.8501,53628.4447,41598.469,36340.8476,38771.0184,5922.541,50263.3899,44416.3084,55939.3018,-123.2922,-1062.6912,25496.3636
55836.4391,27617.991,53630.9481,41604.057,36355.108,38780.4061,5925.9385,50269.112,44430.1665,55945.9627,-114.6197,-1053.7952,25498.6882
55854.4993,27618.9744,53630.4563,41615.7246,36373.5706,38785.5917,5926.6537,50282.1654,44438.9731,55951.9082,-100.6275,-1043.1111,25501.3257
55865.1835,27622.506,53630.2775,41622.2066,36380.9019,38792.3867,5925.8491,50288.6921,44433.4745,55953.3834,-93.7432,-1041.8147,25499.0906
55848.2409,27623.713,53627.9529,41612.5953,36359.176,38790.7773,5922.8987,50265.2228,44415.772,55944.8898,-103.0862,-1052.8117,25498.1965
55840.373,27616.9628,53628.3553,41608.572,36334.8573,38780.4061,5919.2777,50240.3229,44410.7652,55934.0715,-116.8996,-1062.1548,25494.3073
55845.3798,27615.1747,53631.3504,41609.3767,36345.3627,38782.0154,5920.3953,50252.3929,44421.0917,55939.3466,-107.9589,-1054.4211,25498.8223
55858.2544,27621.1202,53633.0044,41617.4233,36371.5142,38783.0883,5922.094,50259.0537,44434.4133,55948.6002,-93.7432,-1045.7933,25502.3539
55866.7034,27619.3321,53630.6798,41619.0326,36366.4627,38779.8697,5921.334,50253.5552,44433.0722,55947.4826,-89.4964,-1044.1393,25499.9399
55851.683,27611.9113,53630.1434,41605.6216,36341.1605,38771.376,5917.5789,50232.7234,44422.8351,55940.33,-102.8627,-1056.8798,25494.2179
55840.1048,27607.1727,53634.3455,41601.7771,36326.3637,38769.4985,5914.9861,50211.0422,44410.8546,55939.8383,-117.749,-1066.5804,25493.9049
55843.9493,27608.6032,53632.6468,41603.6546,36335.0809,38770.3478,5914.8967,50214.4396,44415.2802,55939.7936,-114.8432,-1061.3948,25497.0342
55868.4915,27618.5721,53633.0491,41616.9763,36355.6892,38772.4936,5917.266,50240.1888,44430.9711,55948.8684,-97.096,-1045.9274,25502.8009
55867.6869,27613.3865,53630.054,41616.6633,36346.3014,38768.3362,5913.7344,50235.7185,44429.8089,55950.9248,-93.8326,-1044.9886,25501.9516
55858.7909,27602.7471,53626.7012,41604.5487,36322.5192,38760.7813,5909.0853,50218.9547,44416.5766,55945.0239,-107.6907,-1059.8749,25498.3753
55841.133,27594.3428,53620.0851,41590.4224,36304.1013,38754.6122,5904.7043,50193.5631,44407.7253,55939.6148,-124.231,-1072.7048,25495.4249
55851.8171,27601.0036,53620.3086,41592.3893,36313.6679,38753.0476,5902.1562,50199.464,44419.5718,55944.1745,-114.4856,-1068.3686,25498.0624
55875.6888,27609.4526,53622.0074,41604.9957,36339.5065,38762.033,5904.2573,50233.2151,44429.63,55952.5788,-98.0794,-1050.8001,25500.834
55870.8161,27610.6596,53621.7839,41604.1911,36347.7319,38760.7366,5903.3632,50244.3016,44424.2656,55951.4612,-99.5547,-1048.252,25503.0692
55856.6898,27605.7869,53619.2358,41593.8199,36325.0673,38757.205,5900.0999,50218.5971,44412.598,55944.1298,-116.7208,-1063.9876,25497.7942
55851.3701,27596.9356,53619.2805,41582.9122,36303.6543,38754.8804,5897.1494,50207.2871,44398.6058,55935.7703,-137.7314,-1073.8224,25492.5638
55862.1436,27603.2835,53625.3601,41586.9355,36313.1315,38760.9601,5896.8812,50224.5873,44413.4474,55944.2192,-126.645,-1066.1334,25496.2295
55881.7685,27610.6596,53623.2591,41602.4923,36343.2169,38770.169,5901.5751,50248.2355,44433.3851,55954.8587,-107.6013,-1051.0236,25498.0177
55884.5848,27615.0405,53621.2027,41608.1697,36351.487,38769.722,5902.648,50261.6018,44433.1616,55955.8868,-105.0532,-1050.1295,25497.213
55861.0708,27605.6081,53615.1677,41589.7071,36329.1353,38759.172,5900.9939,50238.9371,44415.5037,55945.5603,-121.6382,-1064.0323,25487.8253
55835.6792,27593.6276,53613.2008,41579.783,36311.1198,38753.137,5903.6762,50214.082,44407.5018,55941.7605,-129.953,-1071.0508,25487.1994
55841.8483,27593.1805,53615.9724,41589.8412,36322.6086,38758.7696,5912.1698,50229.9517,44425.3385,55957.0044,-119.4924,-1059.8302,25498.1071
55871.129,27598.1873,53620.2192,41603.8334,36357.2538,38762.1671,5919.1883,50258.7408,44447.0644,55966.0345,-98.0347,-1043.7816,25506.5113
55869.028,27596.1757,53622.2756,41597.5302,36359.2654,38757.4285,5913.2874,50252.5717,44439.733,55964.5593,-99.8676,-1045.4804,25507.8524
55852.1748,27592.3759,53620.711,41590.2436,36333.6504,38751.93,5908.5935,50233.2598,44426.4561,55955.3057,-114.9774,-1054.287,25506.1537
55849.8502,27597.5615,53621.3368,41595.9656,36324.1732,38754.1652,5911.7675,50219.4911,44422.3434,55952.9364,-120.6994,-1057.0586,25502.2198
55854.8123,27599.439,53615.6148,41596.5021,36334.2315,38761.0048,5908.7276,50241.2617,44420.3317,55955.7974,-119.3136,-1054.8681,25496.4978
55881.4108,27606.0104,53616.643,41609.779,36359.3996,38772.3595,5911.0969,50268.5308,44451.2218,55964.6487,-100.8064,-1038.7301,25500.5658
55887.3117,27616.2922,53622.2309,41618.675,36365.3898,38777.0981,5919.5459,50277.9186,44457.3909,55962.7712,-93.8326,-1033.0081,25505.3937
55869.3409,27621.4331,53627.3271,41619.3455,36357.4326,38771.6889,5922.7198,50270.8107,44446.3938,55959.2843,-102.1028,-1048.0732,25503.248
55852.0854,27618.8403,53628.9811,41611.7013,36342.144,38764.8046,5917.8919,50250.6495,44432.4911,55953.9199,-115.6032,-1063.4959,25497.213
55861.0708,27625.68,53631.6186,41613.0871,36354.4822,38773.6112,5917.8919,50268.5755,44437.0061,55955.261,-109.1659,-1057.8632,25498.42
55886.9988,27633.9501,53635.7313,41627.1687,36384.1206,38788.408,5919.2777,50287.2169,44458.1062,55963.8888,-93.3409,-1040.9653,25504.6338
55897.5935,27637.8393,53634.5243,41630.4767,36393.0166,38792.8337,5917.7577,50286.6805,44458.732,55967.1521,-94.5479,-1041.1441,25505.3043
55882.0814,27637.2582,53633.0491,41619.5691,36374.7329,38789.4362,5917.5789,50271.9283,44451.7583,55961.8771,-107.1095,-1049.5484,25501.4598
55867.5975,27633.5478,53633.4962,41616.3504,36347.2849,38793.0572,5913.0639,50258.2937,44439.733,55952.5341,-118.1066,-1059.1149,25498.3753
55874.7053,27627.2446,53627.0142,41613.6235,36355.9574,38794.2642,5909.4429,50278.9915,44441.1635,55953.607,-113.0551,-1059.0702,25495.6931
55899.1581,27632.4749,53628.8023,41625.6934,36388.4568,38801.7744,5911.6781,50308.3616,44463.2471,55964.6934,-94.5032,-1038.5066,25503.9185
55903.1367,27631.3126,53630.501,41626.0958,36392.1225,38798.8687,5912.2145,50305.5006,44466.0634,55963.9782,-89.5858,-1034.6174,25508.1654
55876.1805,27620.4497,53623.6167,41612.3718,36370.2178,38789.7938,5909.7111,50287.798,44447.3773,55955.9762,-102.4604,-1049.9507,25504.3209
55852.5324,27611.4643,53623.7508,41602.9841,36351.4423,38782.239,5905.062,50273.8059,44440.8506,55956.5127,-113.7704,-1059.1596,25501.2363
55864.2894,27614.5935,53624.4214,41609.2873,36362.2159,38786.5752,5906.1348,50279.2597,44451.49,55954.6351,-104.6509,-1052.3647,25499.0906
55888.2952,27614.4594,53623.8402,41621.536,36381.3043,38789.3915,5907.163,50302.5502,44461.6824,55959.8655,-93.6091,-1042.1723,25499.8058
55889.3234,27613.7441,53622.0968,41621.4466,36383.8971,38784.1165,5907.9677,50304.3383,44460.9672,55960.1784,-89.6752,-1043.4687,25499.627
55869.7432,27604.4458,53616.9559,41603.3417,36364.004,38773.4771,5902.1562,50280.2879,44441.8788,55950.7012,-109.2553,-1057.4162,25493.8155
55861.786,27600.199,53616.2853,41595.3845,36349.2072,38770.1243,5902.4692,50267.1003,44438.5707,55946.5438,-125.8403,-1066.5804,25490.3287
55862.9483,27598.1873,53616.1959,41593.5069,36352.694,38767.3527,5907.7442,50275.9069,44446.7962,55949.986,-119.4924,-1063.5853,25494.7096
55885.3894,27607.3962,53617.4029,41607.812,36382.8242,38773.8347,5913.8238,50302.1926,44467.3598,55957.675,-102.0581,-1050.9342,25502.1751
55892.095,27615.0405,53618.744,41609.6449,36386.7134,38774.2817,5914.6732,50308.4511,44470.9361,55962.2794,-96.9619,-1044.8992,25503.2927
55875.5994,27612.7607,53619.504,41601.1065,36370.7989,38771.376,5917.3107,50289.8991,44461.9954,55959.9996,-112.6975,-1053.1694,25501.6387
55865.407,27609.4973,53623.6167,41592.5235,36353.1858,38769.0514,5920.6635,50271.6601,44455.871,55959.1949,-119.85,-1059.0702,25499.0011
55885.4342,27612.8948,53629.5623,41595.9656,36367.4015,38775.0417,5921.6917,50287.7533,44465.9293,55965.3193,-110.2388,-1050.1295,25502.7115
55904.1649,27625.2329,53631.8421,41602.537,36393.106,38782.6413,5922.3175,50303.6678,44483.453,55971.4884,-95.0843,-1036.2715,25507.1819
55908.0094,27630.8656,53635.4184,41609.4661,36393.2848,38786.0835,5925.715,50311.9379,44485.4647,55973.7682,-90.8375,-1031.7564,25509.9982
55893.0337,27625.8141,53635.9549,41601.7324,36376.3869,38782.7754,5927.369,50300.8515,44475.4511,55968.9403,-101.8345,-1042.0829,25503.2927
55875.957,27620.5391,53635.5972,41594.5351,36358.6396,38775.3993,5926.2067,50278.6785,44463.9176,55961.1619,-116.6314,-1056.4327,25497.5706
55881.0979,27619.5109,53635.1949,41597.0832,36362.1712,38777.7686,5921.6917,50286.9934,44469.3714,55962.8606,-112.3846,-1055.181,25496.3189
55901.5721,27624.2048,53638.0112,41613.6235,36394.8047,38787.961,5923.9268,50315.9165,44489.1751,55976.1822,-93.1621,-1034.0363,25505.4832
55903.4497,27625.68,53640.4699,41615.3669,36406.6511,38789.1233,5925.0891,50320.5657,44489.3986,55980.4738,-90.2563,-1029.8789,25511.7416
55886.2388,27617.4992,53639.4417,41606.158,36388.9039,38779.2438,5924.2398,50309.8369,44472.0984,55974.1706,-106.6625,-1042.7535,25509.2829
55876.7617,27612.0454,53640.4252,41601.4642,36362.5735,38776.0699,5928.4866,50286.1887,44463.3812,55971.8013,-116.3185,-1046.8215,25511.1158
55880.2038,27606.0551,53639.7994,41605.1298,36371.2013,38779.2885,5926.2067,50282.4336,44472.903,55971.7119,-105.5896,-1038.5513,25513.798
55896.0736,27605.027,53639.4417,41614.6964,36391.9437,38780.3167,5926.5196,50299.7786,44479.4297,55973.3212,-91.3739,-1026.7943,25514.6474
55901.5721,27601.853,53633.4962,41614.607,36393.8212,38778.8415,5923.1669,50310.3733,44476.2111,55969.2979,-96.4254,-1032.2481,25510.5346
55885.1212,27596.3545,53628.8023,41610.5837,36372.453,38774.4159,5918.7859,50296.6046,44460.6543,55960.983,-111.3564,-1047.4026,25506.6454
55858.4332,27584.4634,53625.1813,41594.2669,36354.2587,38768.1127,5913.7791,50271.7942,44451.6242,55953.4729,-123.8734,-1062.2442,25497.973
55863.7977,27584.4634,53624.1084,41593.3728,36361.8582,38770.8396,5911.4099,50279.5279,44458.5532,55956.1998,-118.0619,-1057.2821,25496.766
55879.4439,27592.2418,53626.5671,41610.4943,36386.1769,38783.3118,5914.852,50307.8699,44470.7125,55959.0608,-99.197,-1044.5416,25499.627
55889.0998,27600.6907,53631.1269,41624.0394,36392.2566,38792.8337,5923.3457,50312.2956,44473.4842,55961.1171,-94.2796,-1038.6407,25500.387
55868.715,27594.2981,53629.2493,41610.4496,36366.9544,38784.8318,5922.541,50285.9205,44466.6892,55953.9199,-112.0269,-1053.527,25496.6766
55852.9347,27591.6159,53631.708,41603.2523,36351.1741,38781.5237,5925.402,50270.5872,44457.3015,55950.3883,-122.0852,-1062.7806,25495.7825
55865.854,27593.717,53634.9714,41609.5108,36366.2392,38788.408,5922.3622,50278.7232,44469.0138,55954.9481,-110.8646,-1053.527,25499.8058
55881.1873,27601.3166,53633.7644,41618.1386,36395.2965,38789.8833,5921.6917,50308.8981,44484.1236,55963.9335,-90.5693,-1035.735,25508.7465
55879.5333,27603.9988,53630.2775,41624.2629,36404.4607,38785.3682,5925.6256,50330.0428,44480.7261,55965.2299,-83.6402,-1032.0693,25515.452
55868.8045,27603.2835,53628.7129,41613.6682,36382.243,38781.6578,5920.9317,50302.9078,44467.181,55956.1998,-95.9784,-1048.1626,25511.3393
55859.7744,27596.7568,53630.3669,41600.0783,36357.4773,38778.9309,5919.6353,50277.9186,44466.9127,55959.5525,-109.1212,-1055.9857,25510.7135
55870.0114,27601.9424,53631.7974,41609.2873,36368.8767,38784.4741,5920.4847,50286.7252,44472.1431,55965.2299,-105.9026,-1047.2685,25512.591
55890.7539,27612.9395,53630.4563,41620.7761,36395.207,38790.3303,5921.4234,50309.4792,44484.7941,55969.3873,-91.3739,-1035.8691,25515.5861
55892.3632,27616.7393,53628.3553,41624.71,36406.7405,38791.8055,5922.2281,50310.0157,44487.6999,55972.0695,-95.0396,-1039.2666,25514.8709
55874.4818,27609.5867,53624.6449,41610.539,36380.2314,38780.4508,5917.1766,50289.1392,44470.5337,55964.3358,-115.2456,-1059.7408,25504.4103
55859.0144,27597.2933,53619.8169,41590.3777,36355.8233,38769.9455,5910.1582,50269.3802,44452.2053,55954.3669,-136.0774,-1074.9847,25490.731
55877.7004,27599.8414,53620.6216,41602.8053,36370.2625,38775.1758,5911.9463,50289.005,44460.4307,55956.8703,-125.9744,-1063.0488,25491.8933
55903.9414,27617.4545,53624.4661,41616.9316,36399.4092,38783.3565,5916.0143,50326.243,44482.3802,55966.3028,-111.5799,-1049.906,25496.9001
55904.1202,27618.2145,53627.193,41616.261,36407.8134,38783.7589,5919.0989,50329.6852,44491.0526,55968.672,-109.4788,-1051.6047,25496.6766
55889.4575,27611.956,53626.2542,41607.2756,36387.7863,38774.5947,5918.4283,50312.7873,44480.4579,55963.9782,-123.6498,-1060.4113,25491.1333
55872.2466,27611.7325,53626.8353,41602.85,36369.1002,38775.8911,5923.5245,50295.3976,44471.2937,55961.6536,-127.8967,-1065.0158,25490.5969
55880.3827,27612.7607,53630.3669,41606.2474,36381.5278,38779.3332,5924.6868,50309.3451,44474.5123,55964.6934,-120.3418,-1056.7456,25495.1119
55901.3933,27614.7276,53631.261,41614.8305,36403.7901,38788.2739,5924.3292,50335.8543,44494.0925,55973.9918,-105.0979,-1041.3229,25503.8738
55917.3971,27616.6499,53630.9034,41623.3689,36407.0982,38790.375,5925.4915,50345.3314,44497.1323,55979.6691,-94.1455,-1034.7515,25510.177
55901.2145,27614.1912,53630.5904,41610.4048,36391.6755,38785.5023,5922.3622,50327.9865,44489.041,55977.2104,-105.1873,-1044.9439,25510.7582
55885.0765,27610.5702,53630.7245,41598.5137,36372.5871,38779.065,5919.5459,50311.178,44481.0838,55968.9403,-116.9443,-1056.2986,25505.9749
55897.2359,27610.6149,53632.3339,41602.3135,36376.2081,38782.239,5920.44,50331.5628,44492.7961,55973.8129,-110.2835,-1049.906,25508.7018
55907.3389,27616.3816,53636.983,41615.1434,36406.4276,38794.8006,5925.8491,50353.2439,44503.7037,55989.4145,-97.3642,-1034.528,25517.0614
55908.7247,27615.9793,53632.2892,41613.2659,36412.2391,38794.5771,5926.6537,50350.3382,44502.9438,55985.257,-99.0629,-1037.2549,25515.7202
55898.4876,27609.2738,53632.2892,41598.3796,36390.3344,38780.6743,5923.5245,50343.5433,44497.2217,55983.0219,-116.2738,-1050.7554,25508.523
55885.8365,27611.2407,53635.2843,41597.3067,36369.2343,38773.2536,5924.6868,50333.6638,44485.9117,55976.6293,-128.2096,-1061.0819,25505.3937
55889.7704,27615.7111,53637.8324,41595.608,36374.5987,38775.9805,5922.8539,50344.2138,44497.7582,55978.5515,-122.3534,-1053.6164,25503.2033
55909.0376,27619.3768,53637.9218,41612.8635,36403.1196,38788.2292,5926.922,50373.6734,44511.0351,55989.5039,-103.8015,-1036.942,25509.1488
55911.5857,27617.3651,53637.9665,41617.5574,36416.3518,38794.6218,5931.0347,50372.8241,44511.0798,55987.2687,-97.6324,-1035.8244,25508.97
55896.4759,27614.5935,53636.4913,41612.193,36403.3431,38793.1019,5927.5478,50349.7571,44499.2334,55981.5466,-107.3331,-1046.285,25505.8408
55882.8413,27615.5323,53638.6818,41604.3252,36384.8805,38788.8104,5927.4137,50341.2634,44492.3043,55975.5564,-116.9443,-1052.8117,25500.7446
55892.095,27619.7791,53636.6701,41612.7294,36395.7435,38791.2691,5929.6042,50358.1613,44497.7134,55974.6176,-106.4837,-1045.4357,25502.8456
55909.7975,27622.6848,53637.6089,41623.9053,36419.6599,38801.685,5928.3525,50383.5529,44517.2042,55984.05,-92.6256,-1033.6339,25508.8359
55908.0988,27624.6518,53636.2231,41624.3523,36423.862,38800.5674,5925.8938,50396.7404,44519.2605,55981.9937,-95.2631,-1033.6339,25506.6454
55890.7539,27620.5391,53636.2231,41610.4048,36396.1905,38789.5703,5919.9035,50374.4781,44505.3577,55973.5894,-115.1562,-1048.7437,25500.834
55873.9454,27611.0619,53634.4349,41603.5652,36369.0108,38782.686,5916.1931,50346.3596,44492.0361,55969.3426,-126.8685,-1060.6349,25496.0954
55879.6227,27605.6975,53626.6565,41601.4194,36378.8903,38783.9377,5909.1747,50345.8679,44491.6338,55965.1405,-126.4215,-1062.1995,25489.2111
55894.3748,27603.2835,53622.4544,41606.4709,36399.9009,38782.9095,5905.3749,50369.6501,44498.6522,55967.1521,-118.1066,-1055.7622,25488.5405
55894.2407,27604.8928,53623.2591,41602.6711,36398.5151,38780.4508,5903.0503,50373.0029,44497.3558,55976.7187,-122.4428,-1058.7126,25489.4346
55880.8744,27597.9638,53619.2805,41588.7684,36373.0788,38771.376,5900.5469,50357.1332,44486.8505,55971.8013,-142.2912,-1077.0857,25479.1528
55867.8657,27591.2583,53616.2406,41584.298,36355.9127,38766.861,5898.4458,50336.1672,44477.1945,55962.8159,-154.4952,-1089.8262,25472.6261
55874.9288,27592.7335,53615.9724,41590.6906,36363.1099,38769.1855,5899.5634,50347.3431,44483.8107,55968.7167,-143.1406,-1076.9516,25476.56
55896.0289,27603.1941,53621.1133,41602.1794,36390.8261,38779.1097,5905.6431,50379.4402,44502.7202,55976.9422,-120.163,-1058.802,25487.0653
55897.1018,27606.0998,53625.4048,41610.4943,36395.2965,38789.5703,5914.3156,50390.0796,44518.1876,55984.8547,-111.714,-1049.2802,25496.1401
55881.1426,27594.7452,53627.3271,41597.5302,36373.1235,38785.7258,5919.0094,50379.3061,44511.2586,55985.5253,-121.1017,-1049.3696,25497.9283
55872.0231,27589.1572,53628.7129,41596.6362,36367.8485,38785.4129,5922.0493,50363.3916,44501.3344,55980.0714,-124.8121,-1052.1859,25500.0293
55890.0386,27596.6674,53626.2989,41605.7557,36383.8077,38794.1748,5921.9152,50374.0758,44513.0467,55985.3464,-112.474,-1046.1509,25508.523
55910.781,27607.6645,53630.6798,41619.5244,36405.8465,38801.8638,5926.162,50401.2555,44534.0574,55992.499,-91.3739,-1028.7166,25520.2353
55910.5128,27609.8996,53631.5739,41626.0511,36420.0622,38802.4002,5929.7383,50406.8881,44532.5375,55993.3931,-83.5508,-1022.1899,25525.9573
55897.7723,27602.7918,53631.4845,41618.4515,36410.3615,38794.3983,5926.162,50392.4042,44521.1381,55993.3037,-97.99,-1033.9022,25522.6046
55884.406,27595.4157,53631.1716,41607.2756,36387.9204,38786.9328,5920.2164,50365.4927,44514.5667,55987.0452,-111.5799,-1046.4638,25515.7202
55894.196,27596.8462,53632.7809,41608.3485,36393.1507,38786.9328,5919.9929,50369.4266,44521.8086,55982.7983,-109.5235,-1045.838,25511.6522
55911.6751,27599.6625,53635.3737,41616.3057,36405.4441,38794.9795,5917.2213,50397.3216,44534.9067,55984.2288,-99.2417,-1039.1772,25509.8641
55912.8821,27605.027,53639.7547,41621.2231,36410.7192,38794.9795,5914.7626,50407.7822,44539.0195,55988.6992,-99.4653,-1041.0994,25505.3043
55889.681,27599.0814,53635.4184,41608.8402,36380.2761,38780.4061,5906.269,50380.6472,44513.4491,55976.4504,-121.9064,-1058.5338,25491.8933
55871.3078,27587.2797,53629.9646,41593.7304,36351.487,38767.4421,5899.2058,50349.2206,44496.6406,55967.5992,-139.4302,-1072.0342,25484.6066
55885.5683,27591.9735,53633.4962,41603.8334,36367.9379,38777.858,5906.8501,50363.6599,44508.3529,55979.535,-127.3602,-1061.663,25493.1003
55909.1717,27595.9522,53629.3387,41615.3222,36392.3013,38782.8648,5909.7558,50392.8065,44523.4627,55986.3746,-110.4623,-1048.2073,25498.9564
55902.5556,27595.371,53626.3883,41617.3786,36405.1312,38788.3633,5910.6499,50397.9027,44531.7328,55986.3299,-101.2534,-1038.1937,25501.1022
55893.3467,27595.0581,53626.6565,41620.5525,36394.6706,38787.3352,5911.3204,50389.0961,44519.4393,55984.363,-110.7305,-1044.5863,25502.8009
55879.6674,27588.9784,53625.986,41612.4165,36374.2411,38778.0815,5910.7393,50370.8124,44511.1692,55977.9704,-124.3651,-1056.7009,25501.0128
55888.6975,27597.2039,53625.5389,41620.2843,36377.8621,38786.2623,5913.3321,50377.8309,44516.5336,55978.328,-115.6032,-1049.3696,25507.0478
55905.1037,27601.406,53624.8684,41624.0394,36397.3975,38793.8619,5909.0853,50404.9212,44529.4976,55985.9723,-102.8627,-1041.5912,25510.177
55908.3223,27596.0416,53623.7508,41622.6983,36398.6939,38789.7938,5905.7325,50420.031,44529.5423,55986.5534,-103.7121,-1044.9439,25506.109
55886.4176,27583.5246,53622.0074,41607.4544,36381.2149,38779.0203,5898.4458,50394.6841,44514.0749,55978.4174,-120.9676,-1060.3219,25496.9895
55877.3428,27579.2778,53619.9957,41594.6692,36368.9661,38772.4042,5892.4556,50368.3984,44494.4501,55967.5545,-138.1785,-1069.8438,25489.4346
55880.7403,27579.1436,53616.3747,41594.9374,36368.7426,38775.9358,5890.5333,50369.4713,44499.0993,55970.1025,-134.6022,-1065.9099,25488.2723
55892.3632,27584.1057,53614.4972,41601.7771,36381.3043,38780.1826,5891.338,50389.0067,44510.9904,55975.3329,-122.7111,-1059.7855,25484.9643
55893.5702,27587.235,53614.0054,41604.1464,36388.2333,38776.8745,5887.1806,50399.6909,44506.6541,55969.1638,-123.471,-1066.6698,25481.835
55878.371,27583.6587,53614.7654,41603.1182,36370.8884,38774.6394,5885.7501,50383.6423,44493.8689,55958.6585,-136.6585,-1077.8457,25475.8447
55871.3526,27586.4303,53618.0735,41595.4292,36357.7902,38772.4489,5889.8628,50369.0243,44487.0293,55948.4661,-147.8344,-1083.2548,25470.5697
55886.1047,27595.7286,53630.7693,41607.6779,36377.8621,38783.2224,5901.0834,50388.2468,44506.3859,55964.4252,-133.0376,-1068.458,25482.4162
55908.9929,27609.6761,53631.708,41615.6352,36398.2916,38790.9114,5904.0338,50415.4265,44529.9894,55976.5399,-115.2009,-1050.7107,25492.2956
55911.1387,27607.8433,53632.5127,41616.3951,36400.9738,38796.2759,5908.4147,50423.8755,44539.3771,55981.9937,-111.4458,-1050.1295,25500.0293
55900.7227,27599.3943,53633.8091,41617.6468,36394.6259,38792.6996,5914.4497,50410.1068,44531.554,55980.5632,-114.9327,-1054.1975,25505.662
55882.5731,27591.7053,53633.1385,41608.2144,36380.5443,38788.9445,5912.438,50392.0019,44526.0108,55983.3795,-120.5206,-1058.8914,25506.3772
55888.7869,27592.063,53632.2892,41607.2309,36388.278,38792.9678,5909.6217,50398.3051,44526.1896,55987.9839,-122.264,-1051.9624,25508.2101
55906.6683,27597.3827,53630.7693,41618.8985,36406.6511,38797.8852,5908.5041,50424.2331,44540.5394,55997.2823,-108.4507,-1038.9537,25515.6755
55906.8024,27602.2553,53630.7693,41623.4136,36406.8747,38796.2759,5904.9726,50430.9386,44541.9252,55999.5621,-102.9074,-1038.2831,25521.04
55888.1164,27592.9123,53626.2095,41604.1017,36375.2693,38786.4858,5899.7422,50404.1165,44522.5686,55988.4757,-119.7606,-1052.8117,25515.452
55874.4818,27586.028,53623.7508,41596.7703,36357.2985,38779.4226,5899.5634,50385.8328,44507.1906,55983.0666,-131.4729,-1062.9147,25510.2217
55886.507,27590.9007,53628.4894,41600.123,36374.0623,38784.4294,5905.4643,50404.7871,44519.3499,55989.1462,-123.1581,-1059.2043,25511.9205
55909.0376,27603.6412,53634.6138,41615.4563,36401.8679,38796.9464,5910.337,50438.3594,44539.1983,55999.3833,-105.1873,-1042.3958,25513.5745
55916.9948,27612.8501,53637.8771,41622.5195,36411.0768,38802.6685,5914.7626,50442.5168,44539.7794,56004.3901,-103.4439,-1036.7632,25511.5628
55898.4876,27606.8151,53636.1784,41612.6847,36398.1575,38794.9795,5913.1533,50428.6587,44529.1847,55999.9645,-111.7587,-1047.2238,25504.1867
55881.1873,27594.7452,53631.4845,41603.1629,36372.8106,38792.6102,5913.9132,50407.7822,44517.4724,55986.7322,-122.4428,-1061.4395,25496.9895
55882.7519,27597.4274,53627.9976,41603.4311,36377.9068,38794.3089,5914.1815,50419.0922,44525.6084,55985.9276,-118.0619,-1057.9973,25495.2013
55903.4944,27603.3282,53635.1949,41615.814,36403.9689,38795.4265,5917.9813,50448.06,44548.5413,55999.8751,-95.0396,-1038.909,25504.5891
55913.955,27607.9327,53639.7099,41621.3125,36410.4509,38798.6898,5918.3389,50448.7306,44547.0214,56004.2113,-89.2729,-1036.8526,25506.4219
55896.9676,27603.2835,53638.1006,41606.7839,36384.0759,38782.9095,5909.9793,50421.3274,44532.761,55992.499,-111.4905,-1054.0187,25496.3636
55887.9375,27598.7685,53638.0559,41600.4807,36363.4676,38777.0534,5907.923,50395.0417,44516.8912,55983.7818,-129.953,-1067.1169,25492.4297
55897.8617,27603.5517,53640.9616,41609.332,36372.9,38783.4013,5911.6781,50402.9542,44520.6463,55984.4971,-117.8384,-1062.1101,25494.6649
55907.2047,27609.0503,53639.3076,41617.5127,36393.5083,38787.6928,5909.8899,50432.1456,44534.0127,55986.2405,-105.5896,-1052.3647,25496.6766
55908.2329,27608.5138,53632.6468,41619.122,36397.8893,38792.6102,5903.8997,50445.2437,44531.4646,55984.0947,-107.2437,-1057.7738,25491.8933
55889.2339,27602.2553,53630.814,41610.0472,36382.4219,38788.9892,5898.0882,50418.511,44521.1381,55982.0831,-119.3583,-1069.3073,25485.1878
55873.7665,27598.5897,53629.9646,41602.8053,36371.3801,38783.0883,5897.6859,50395.2652,44509.6046,55977.3445,-134.021,-1076.7281,25482.282
55874.7947,27599.7519,53625.2707,41601.1959,36378.6221,38780.8084,5897.0153,50401.5237,44513.8961,55980.4291,-131.0706,-1076.6387,25483.3996
55895.1795,27603.7753,53623.4826,41609.8237,36395.967,38783.1777,5896.5683,50420.4333,44525.3849,55984.5418,-113.368,-1064.3452,25488.4958
55896.6994,27599.5284,53623.0803,41614.1599,36396.1011,38782.3731,5896.8812,50430.1786,44529.7658,55990.532,-108.6742,-1060.8137,25487.6465
55876.8958,27589.1125,53622.1862,41605.3981,36377.6833,38776.2487,5897.5965,50414.443,44523.9544,55986.6875,-119.85,-1067.1616,25487.0206
55863.6189,27579.3672,53621.5156,41596.9938,36355.9127,38770.5266,5898.5353,50387.8444,44512.0186,55981.636,-124.678,-1070.0673,25489.1664
55876.9405,27581.7364,53626.2095,41607.3203,36360.6066,38776.0699,5902.6033,50410.3303,44519.8864,55991.5155,-111.8481,-1058.355,25496.3189
55894.9113,27582.4517,53627.5506,41621.0443,36384.7911,38784.6082,5905.5537,50440.9969,44529.4976,55993.9742,-95.4419,-1041.8147,25500.6999
55891.8715,27586.922,53626.3883,41626.5428,36392.6142,38786.5752,5903.7656,50451.9492,44537.1866,56002.2444,-96.2019,-1041.01,25507.0925
55874.9288,27589.4701,53622.5885,41618.2727,36376.3869,38787.3799,5903.4079,50441.7121,44534.2809,55996.1647,-113.8151,-1049.0566,25506.7348
55867.6869,27590.4983,53622.7673,41610.2707,36356.1362,38789.7044,5905.1514,50427.3176,44531.2858,55990.4873,-124.7674,-1055.9857,25504.142
55876.3593,27597.8297,53626.7906,41615.7246,36365.8369,38786.9328,5909.4876,50438.2253,44546.3061,55995.0024,-117.749,-1051.4706,25507.8524
55896.2524,27607.0833,53630.4116,41624.0841,36393.5977,38787.7375,5910.1582,50456.5537,44559.7172,56001.7973,-105.4108,-1040.9653,25509.6853
55903.3155,27608.335,53629.6964,41626.5875,36397.4422,38784.9212,5906.3137,50457.3137,44551.5364,56000.8585,-107.4225,-1045.391,25505.3043
55889.681,27599.8861,53631.708,41613.0424,36370.039,38775.3546,5900.5469,50427.0047,44536.4267,55996.1647,-127.1814,-1061.1266,25496.3636
55879.4886,27598.6344,53633.0044,41601.2406,36346.0779,38770.1243,5897.1494,50396.8745,44521.2722,55990.0403,-142.9617,-1076.2811,25489.6581
55882.3943,27594.8346,53629.4729,41603.3417,36360.8301,38766.1457,5899.8317,50402.0154,44515.0137,55986.1511,-132.1435,-1072.7048,25488.1829
55903.1814,27606.4128,53629.6517,41615.0093,36391.6755,38774.3264,5907.2077,50432.8161,44527.0389,55988.2522,-112.474,-1057.4162,25491.8933
55915.8325,27612.4924,53630.2328,41624.4417,36399.4092,38783.3118,5912.3933,50446.7636,44534.2362,55991.6049,-101.5663,-1050.4425,25494.5755
55903.1367,27606.0104,53630.6798,41612.8188,36378.2644,38782.8648,5911.0969,50436.1689,44520.244,55986.3299,-110.5964,-1059.9643,25490.3734
55892.2738,27602.5683,53633.0491,41604.1017,36361.4559,38782.6413,5908.0571,50410.1515,44517.2042,55983.0666,-118.3301,-1067.6086,25487.9594
55896.7888,27608.7821,53639.1735,41611.2542,36382.0195,38790.4644,5907.5654,50419.5392,44531.1964,55990.3532,-107.1095,-1055.4492,25494.3073
55918.5147,27611.956,53638.7712,41620.8655,36400.8397,38801.0144,5907.163,50451.5022,44541.1205,55995.6729,-92.6256,-1042.5299,25500.2528
55928.0366,27613.2971,53639.7547,41632.0413,36405.1312,38807.0941,5911.8122,50463.8404,44540.4947,55997.0587,-85.6966,-1041.4124,25504.7679
55911.5857,27607.3068,53636.3572,41624.2182,36376.074,38799.271,5907.5654,50441.891,44535.5773,55987.1346,-101.5216,-1057.7291,25497.9283
55888.1611,27590.6771,53632.6915,41606.2474,36352.9176,38791.1797,5896.6577,50416.097,44529.0506,55982.9772,-126.2426,-1075.6105,25492.5191
55896.9229,27585.2233,53628.4447,41607.7673,36358.2373,38793.1913,5888.5217,50421.3274,44531.8669,55982.843,-124.9909,-1074.5376,25490.284
55910.8704,27593.717,53626.433,41615.8587,36379.6949,38795.4712,5888.2982,50440.9075,44537.276,55987.7157,-116.4973,-1064.4794,25490.8651
55914.9384,27595.1475,53622.5885,41615.1881,36383.7183,38790.0174,5886.2865,50442.3827,44540.3159,55997.1035,-114.128,-1064.2558,25493.4132
55882.7519,27576.3273,53614.8548,41594.9821,36351.8894,38774.9076,5878.9998,50420.1651,44520.0652,55980.7867,-135.3174,-1084.5065,25481.1645
55860.2214,27570.7841,53612.8879,41587.0696,36339.8194,38769.4091,5880.6986,50402.5966,44513.2256,55968.8061,-146.6721,-1091.1226,25476.9623
55869.2515,27573.3769,53611.2338,41591.3612,36344.111,38772.7171,5883.0231,50414.9348,44511.3033,55966.258,-137.8655,-1080.3044,25480.1363
55890.7092,27587.682,53615.9277,41603.7887,36376.2528,38781.4343,5890.8015,50435.6325,44519.1264,55976.361,-118.7325,-1065.1499,25487.6465
55887.3564,27598.4108,53620.5769,41603.9228,36390.1556,38780.8532,5893.9755,50434.8725,44521.8533,55975.7352,-111.4011,-1059.562,25491.5357
55871.129,27592.6441,53624.5555,41595.4292,36377.0127,38772.4936,5895.9872,50408.5422,44506.2518,55975.0646,-125.8403,-1068.0109,25489.4793
55856.0193,27592.957,53625.1366,41588.7684,36359.3549,38771.3313,5903.4079,50387.7103,44500.5745,55975.6011,-130.8471,-1071.8107,25491.0886
55862.233,27597.6509,53628.3553,41594.8033,36368.4744,38776.204,5907.2524,50396.7404,44492.6172,55977.9257,-119.0007,-1067.0274,25494.7096
55886.6858,27607.4857,53631.7974,41614.0705,36401.1526,38778.3051,5916.9084,50406.0388,44499.6804,55987.224,-97.096,-1048.8331,25506.1984
55883.9589,27612.2689,53630.2328,41613.6682,36401.5549,38773.5218,5917.2213,50395.1758,44498.1158,55986.7322,-94.0561,-1047.0003,25507.8524
55853.4712,27601.3166,53625.0919,41605.8004,36381.036,38767.8891,5912.9745,50363.2575,44483.7213,55976.1822,-109.1212,-1057.9526,25502.8009
55835.5898,27597.2486,53621.6944,41598.3349,36363.1546,38763.24,5915.0755,50330.3558,44467.9409,55968.5379,-121.3253,-1067.7874,25499.7164
55847.4362,27603.2388,53621.8286,41597.262,36369.0108,38764.8493,5916.4613,50331.9204,44472.1878,55966.4816,-117.0784,-1061.5736,25497.6153
55859.3273,27609.0503,53626.6565,41600.5701,36388.0992,38770.8396,5919.9035,50348.7289,44478.178,55969.1191,-104.8744,-1053.8399,25501.5939
55858.165,27617.9463,53632.6021,41612.7294,36398.6492,38776.7404,5923.6139,50350.9194,44475.0935,55975.3776,-101.164,-1048.9225,25500.834
55848.0173,27620.0026,53636.3125,41610.0472,36383.0924,38777.6345,5925.2679,50328.5676,44462.4871,55973.9023,-112.0269,-1056.0304,25500.4764
55835.9474,27614.7276,53636.3572,41601.4194,36363.0652,38776.4722,5926.609,50303.8466,44442.2364,55963.5758,-119.5818,-1062.0207,25498.1965
55838.0485,27615.9346,53637.743,41605.6216,36373.1235,38777.1875,5926.9667,50299.1974,44444.6951,55963.7547,-114.4409,-1055.6281,25499.0906
55861.339,27620.3603,53641.0064,41620.4631,36390.6473,38785.1447,5932.644,50314.3966,44464.5882,55972.0695,-97.0066,-1037.2996,25504.8573
55873.6771,27627.4234,53640.9616,41621.9383,36390.5132,38790.5985,5936.0415,50317.8835,44474.3335,55977.4339,-92.4021,-1032.9187,25508.523
55857.0027,27623.8918,53639.3523,41614.2046,36375.3587,38788.1398,5932.9122,50296.694,44464.8117,55971.3542,-101.9686,-1042.977,25509.1041
55845.1116,27617.1416,53639.2629,41608.0803,36345.2286,38783.6695,5928.0396,50264.0158,44449.0761,55962.9053,-114.4409,-1057.1033,25506.1984
55841.9377,27614.1465,53638.5924,41612.3718,36346.1673,38782.1943,5927.1902,50266.2957,44450.8642,55963.0841,-107.1095,-1053.2588,25505.4832
55857.8968,27618.885,53635.3737,41625.1123,36373.8388,38782.4625,5928.3972,50282.8807,44462.7106,55967.2862,-88.3341,-1040.6971,25509.3277
55863.0824,27616.5158,53631.7974,41630.3873,36377.1915,38779.2438,5926.5643,50281.8972,44459.3579,55966.3922,-90.1669,-1039.2666,25505.7514
55838.719,27601.7189,53629.3834,41613.1318,36346.972,38767.4421,5918.4283,50253.0634,44440.5377,55962.6818,-110.3729,-1056.6115,25496.4083
55815.4732,27586.475,53627.3271,41596.7256,36312.3715,38750.723,5908.8171,50221.4134,44427.6184,55953.5176,-126.7344,-1077.0857,25487.7806
55827.0961,27593.1358,53625.7178,41597.6197,36317.6912,38750.4548,5901.7539,50222.1286,44431.15,55949.226,-120.7441,-1073.2412,25485.3666
55848.822,27596.131,53617.09,41600.9277,36337.4501,38748.6666,5897.8647,50233.2598,44437.0955,55944.6663,-110.4623,-1061.976,25482.3714
55845.3798,27590.2301,53608.8198,41597.8432,36333.0692,38741.827,5895.0037,50228.2977,44429.0936,55946.9014,-109.9259,-1063.9876,25481.1645
55831.5217,27584.6422,53610.5633,41593.0152,36321.2228,38741.2012,5897.6859,50209.9246,44424.4444,55949.7178,-120.9676,-1071.3637,25482.8185
55814.8921,27583.1223,53614.9889,41586.7567,36303.8778,38741.4247,5899.3399,50193.0267,44416.3978,55946.5885,-132.1435,-1084.0148,25480.9409
55821.1952,27581.3341,53616.5982,41588.9919,36312.3715,38741.8717,5896.3448,50197.9887,44423.148,55950.7906,-124.8121,-1076.5046,25481.7903
55852.8453,27589.1125,53619.5487,41600.6148,36337.7184,38747.9961,5898.4458,50213.9032,44433.0275,55958.1667,-104.5614,-1059.4279,25487.1994
55867.6869,27595.9969,53625.4495,41605.9345,36345.1391,38749.0243,5902.5139,50226.1966,44440.8506,55962.1006,-97.096,-1051.6495,25496.3636
55860.9366,27593.5382,53628.4,41593.954,36322.1616,38744.6433,5905.4196,50216.0043,44431.8205,55959.2843,-110.5964,-1059.249,25496.2742
55846.0951,27585.4468,53630.9481,41586.0415,36301.285,38744.6433,5904.3467,50201.6544,44425.5173,55957.1832,-124.0969,-1066.3569,25494.9331
55859.9532,27592.957,53635.8207,41598.8714,36318.2724,38750.3207,5909.0853,50215.1549,44433.9216,55964.4252,-110.0153,-1053.1247,25503.7844
55886.1941,27601.2272,53633.4515,41605.4875,36347.9108,38757.2944,5912.2592,50243.6757,44454.4405,55972.5165,-92.4468,-1034.8856,25513.5745
55893.5702,27606.3234,53632.1104,41603.2076,36356.1809,38764.0893,5915.5673,50259.9478,44466.1975,55977.5233,-84.1767,-1033.1422,25514.245
55887.5799,27612.9842,53639.0394,41604.8169,36344.3345,38767.7997,5921.0211,50256.595,44456.6756,55974.0812,-92.1786,-1041.2335,25514.558
55878.1475,27612.8054,53640.2017,41603.3417,36323.145,38762.2118,5921.1105,50245.8662,44449.1655,55970.8178,-103.9803,-1051.9177,25507.9865
55885.0765,27616.5605,53642.5263,41614.2046,36335.5279,38768.4256,5925.4915,50264.2393,44454.8875,55973.1424,-100.5381,-1046.0168,25507.9418
55904.7461,27617.3651,53642.5263,41618.8538,36358.9078,38774.5947,5927.8607,50290.3461,44467.7621,55983.4689,-89.9434,-1035.3774,25513.0827
55903.405,27609.5867,53637.9665,41612.5506,36355.3762,38767.1292,5924.955,50288.2451,44469.8632,55987.7604,-86.6354,-1035.8691,25510.3111
55884.2272,27603.1047,53640.2911,41609.9131,36345.8991,38764.7152,5925.5809,50264.0605,44455.111,55979.1774,-99.3758,-1044.4969,25504.902
55865.6305,27596.5333,53643.2415,41606.918,36329.7611,38757.0709,5925.1338,50243.631,44441.2082,55968.8061,-114.9327,-1054.287,25500.8787
55865.8093,27599.6625,53638.9947,41607.0521,36329.6717,38755.5063,5919.68,50252.1247,44442.8176,55966.2133,-115.335,-1053.9293,25497.1236
55879.3992,27606.0998,53637.4301,41618.3174,36355.2868,38768.3362,5919.233,50285.2499,44462.6659,55973.5894,-98.75,-1038.9984,25503.1139
55884.1825,27605.8316,53634.0326,41616.4845,36365.5686,38768.3362,5913.5556,50290.212,44465.4822,55973.5,-96.2019,-1039.4007,25502.4433
55873.6771,27606.9045,53635.7313,41607.365,36351.6659,38765.1622,5909.7558,50269.9167,44454.4405,55969.5661,-111.4905,-1060.8584,25495.6931
55849.6714,27603.2388,53635.0608,41595.5186,36332.0857,38763.3741,5906.0901,50243.8545,44439.3307,55963.5758,-132.0541,-1080.5279,25489.3899
55849.582,27604.1329,53632.8256,41599.3184,36341.1605,38760.2448,5906.1795,50255.4774,44442.7729,55962.9947,-127.852,-1072.973,25486.1712
55870.1009,27612.8948,53627.9082,41611.5671,36359.0866,38758.9037,5902.2456,50288.111,44449.5678,55963.7547,-110.4176,-1064.3899,25482.595
55867.7763,27611.7325,53625.0919,41611.4777,36352.2023,38755.0592,5896.8812,50287.9769,44443.6669,55956.1551,-114.9774,-1074.2247,25475.8447
55857.0474,27604.1329,53619.2358,41600.5701,36331.5493,38753.3605,5890.6227,50263.1664,44434.7262,55946.4544,-133.4846,-1088.3957,25468.4687
55850.4313,27594.5663,53608.5963,41588.7237,36310.3598,38745.001,5882.4867,50235.7185,44420.1976,55937.2008,-151.4107,-1102.5667,25460.0644
55863.0824,27601.8977,53605.5565,41594.1775,36324.352,38754.3887,5882.2632,50252.9293,44423.148,55935.9491,-146.1804,-1099.3481,25463.596
55884.6742,27604.8928,53604.1707,41602.6264,36354.5716,38763.9999,5884.4537,50286.6358,44442.5493,55950.2542,-126.4662,-1083.2548,25471.4191
55887.1776,27600.7354,53604.8859,41604.4593,36359.0866,38766.0116,5883.7831,50286.9934,44447.2432,55950.7906,-124.0522,-1076.8622,25473.7884
55870.7714,27588.9784,53609.4904,41601.0618,36340.0429,38764.447,5882.7549,50283.5512,44443.0411,55951.2377,-130.0424,-1079.9915,25476.3365
55857.3604,27585.1339,53610.5633,41598.7372,36325.4696,38763.5976,5891.1145,50277.3821,44436.5144,55950.9248,-137.2844,-1084.0148,25480.8068
55860.9366,27590.0513,53613.8266,41600.9724,36335.3491,38771.0184,5895.406,50289.6309,44446.0809,55957.8091,-124.1416,-1071.1402,25491.0886
55884.9871,27603.2388,53620.3086,41620.9996,36367.1333,38785.2341,5903.9444,50310.2392,44473.2159,55967.2862,-100.8958,-1052.2306,25503.7397
55890.6645,27606.234,53619.4146,41622.4301,36373.8835,38782.4178,5906.3584,50310.9992,44476.524,55967.778,-99.0629,-1048.8331,25503.2927
55883.7801,27602.6577,53620.0851,41609.5555,36358.8184,38769.4091,5900.1446,50290.7932,44463.3365,55969.0297,-111.714,-1057.1927,25497.5259
55872.3807,27601.4954,53620.711,41600.4807,36342.1887,38761.0942,5901.5751,50273.7164,44448.7184,55968.8956,-122.9793,-1071.0508,25495.5143
55874.3477,27606.7704,53620.6216,41607.0521,36348.5813,38766.548,5904.1232,50287.2616,44461.9507,55975.914,-115.335,-1063.3618,25496.5425
55893.4361,27614.5041,53622.9014,41615.6799,36376.074,38768.068,5906.3584,50315.9612,44475.6299,55980.2502,-101.6557,-1049.3696,25499.627
55906.8024,27619.8685,53627.6847,41610.1813,36381.7513,38766.1457,5908.4594,50324.1867,44478.8039,55977.6574,-96.6042,-1049.459,25498.1071
55895.1348,27615.3088,53626.9248,41598.5584,36370.5307,38761.0942,5910.4264,50312.2956,44471.3384,55972.8295,-108.7636,-1056.4327,25491.938
55873.0066,27610.1232,53623.7508,41582.7781,36346.7038,38750.4995,5907.923,50285.4288,44460.2519,55962.9947,-128.0308,-1069.352,25486.4842
55890.9774,27618.2145,53629.2493,41592.7023,36357.522,38754.4781,5909.6217,50295.5317,44464.8564,55967.2415,-119.4924,-1058.5785,25491.8039
55911.9433,27630.2844,53634.0326,41601.6877,36385.0147,38767.1739,5916.5508,50324.3208,44486.7611,55983.0219,-100.6722,-1039.0878,25501.0128
55911.8986,27638.3311,53635.8654,41607.9462,36396.7717,38772.5383,5920.5294,50341.4422,44491.2761,55987.671,-96.783,-1032.2481,25503.6056
55892.1397,27633.1007,53633.7197,41592.747,36371.0225,38764.2235,5919.1436,50327.3159,44479.8321,55979.6244,-112.2504,-1047.805,25501.5492
55874.9735,27623.5789,53632.468,41578.0842,36343.2616,38754.2993,5913.958,50307.0205,44466.1975,55974.0365,-128.4331,-1060.4113,25497.213
55885.3,27632.2514,53635.1502,41585.9073,36361.3218,38762.4353,5914.6285,50313.9943,44477.6416,55979.1774,-115.4244,-1050.3531,25501.281
55904.9249,27632.0726,53637.6983,41596.5021,36384.5676,38770.7502,5915.612,50334.0214,44487.4763,55985.7041,-94.9055,-1037.6573,25505.4384
55906.2213,27634.0842,53638.6818,41605.8898,36392.3013,38773.3877,5922.0493,50337.8212,44487.7893,55987.4028,-88.8258,-1036.6291,25508.5677
55884.406,27625.9929,53635.0608,41592.6129,36369.1002,38760.9601,5921.0211,50312.5638,44475.5852,55982.3066,-110.6858,-1057.595,25499.8058
55869.2962,27617.991,53630.2328,41580.7664,36344.6921,38755.4169,5911.6334,50291.1508,44465.0352,55975.154,-127.3155,-1072.4813,25493.5473
55874.0348,27613.8335,53630.4563,41582.644,36354.2587,38757.2497,5906.269,50290.1673,44464.3646,55972.9189,-125.8403,-1068.7709,25493.8602
55881.8579,27614.1912,53629.5623,41592.1211,36367.178,38757.5179,5904.9726,50311.4909,44474.6017,55973.3659,-114.2621,-1058.1762,25494.8884
55881.6344,27609.4526,53626.433,41594.4904,36366.865,38750.1866,5902.0668,50309.2557,44468.5668,55970.5943,-118.5536,-1060.5007,25490.9098
55864.2,27605.474,53623.2144,41584.1192,36353.4987,38743.3469,5903.4526,50293.9224,44460.8331,55965.5875,-131.0706,-1064.3005,25487.3782
55847.0339,27595.5945,53620.4427,41575.4914,36334.5891,38743.7046,5905.509,50273.2694,44453.4123,55955.3057,-141.263,-1071.4531,25484.3384
55861.3837,27598.6791,53621.5603,41584.3874,36348.5813,38751.8853,5910.337,50285.5182,44460.7884,55961.5642,-129.1484,-1066.7145,25486.2607
55890.0386,27612.4924,53629.607,41600.3913,36378.9797,38767.4421,5917.0872,50315.6036,44484.5259,55984.05,-108.3612,-1052.9011,25497.4812
55891.6032,27612.8501,53634.4796,41607.1862,36387.4733,38772.1807,5922.4516,50317.4812,44488.1916,55978.9985,-104.6956,-1044.7651,25501.9069
55872.2913,27604.8928,53634.9267,41601.4194,36370.6648,38765.3857,5923.748,50293.6542,44476.7475,55971.1754,-111.4905,-1052.2753,25499.8505
55861.9648,27598.5003,53636.089,41593.954,36358.8184,38761.1836,5926.2961,50278.1868,44474.7359,55970.8178,-119.9394,-1060.009,25499.0906
55871.7996,27606.4128,53636.5807,41596.055,36373.5706,38768.3809,5930.4088,50294.9506,44479.7426,55976.2716,-109.2553,-1051.7389,25504.7679
55893.9278,27610.1679,53639.8888,41614.0705,36398.2916,38782.239,5932.8228,50323.7396,44487.4316,55983.156,-84.4449,-1032.8293,25513.4851
55897.6829,27614.37,53642.4816,41620.329,36400.8844,38786.8881,5932.4205,50331.1604,44487.1634,55984.1841,-79.2593,-1030.46,25516.1226
55875.1076,27610.2573,53640.6487,41606.3368,36375.4034,38775.3993,5927.816,50312.6085,44475.764,55976.6293,-98.9735,-1038.9984,25507.316
55858.7909,27603.6859,53635.6866,41600.0783,36360.8301,38765.654,5925.8044,50291.8214,44465.0352,55969.6555,-108.5848,-1051.4706,25500.4764
55867.0163,27602.0318,53635.4184,41595.9209,36366.9991,38768.1127,5924.5974,50300.2256,44468.9244,55970.3708,-100.5828,-1049.2802,25502.8903
55884.853,27604.714,53636.089,41601.4642,36388.5462,38769.4985,5923.2563,50318.8223,44480.9049,55975.0646,-90.2563,-1039.8477,25504.455
55891.1562,27607.7092,53633.6303,41610.4496,36394.5365,38771.7336,5923.5245,50317.2129,44482.2907,55976.7187,-88.6023,-1038.0149,25504.2315
55880.2933,27601.3166,53632.6915,41600.436,36375.4034,38765.341,5920.4847,50300.8515,44468.835,55971.086,-105.679,-1050.4425,25503.9185
55872.3807,27598.0979,53636.8936,41596.8597,36354.3928,38762.7482,5922.9434,50290.3908,44467.181,55972.6059,-117.1678,-1058.4444,25504.3656
55880.3827,27604.5352,53637.2066,41595.5186,36360.6513,38762.9718,5923.0328,50295.9341,44479.1168,55985.3017,-111.4458,-1053.8399,25504.6785
55900.9463,27615.3088,53638.2347,41604.1464,36389.8873,38768.0233,5922.094,50316.0506,44493.4219,55990.9344,-95.9784,-1040.9653,25508.3889
55909.887,27615.3982,53636.8936,41600.436,36388.3674,38763.5529,5920.5741,50322.3091,44499.9039,55994.3765,-101.2087,-1041.5465,25507.0031
55898.6217,27607.7986,53637.4301,41591.0482,36368.7426,38755.5063,5918.5624,50309.971,44491.1867,55988.8333,-118.8666,-1057.2374,25498.6882
55883.8248,27596.4439,53633.0491,41579.9171,36356.0915,38751.2147,5911.0522,50288.111,44477.6416,55981.6808,-129.1037,-1069.7991,25493.9049
55886.1941,27597.7403,53631.1269,41581.2135,36365.0322,38752.9582,5906.0454,50294.5036,44476.1217,55981.4572,-125.9297,-1066.8933,25493.1897
55894.6878,27602.0765,53633.0938,41590.5565,36379.6502,38757.4285,5906.269,50307.2441,44489.6221,55990.6214,-116.6761,-1055.3151,25495.4696
55890.3515,27600.3778,53630.814,41586.8014,36374.1964,38752.2429,5903.5867,50309.0322,44492.8855,55989.2356,-118.5536,-1058.8914,25489.7028
55869.5644,27593.0464,53622.1862,41571.5575,36348.2684,38740.5306,5900.234,50289.7203,44478.8933,55976.1375,-136.6585,-1074.4929,25481.7903
55862.7695,27582.9881,53619.504,41569.7247,36335.3938,38735.5238,5898.3117,50274.2082,44464.4541,55969.9684,-146.6274,-1082.316,25476.7388
55877.5216,27585.9833,53620.0851,41578.4866,36351.7106,38738.4295,5900.1446,50278.8126,44471.1596,55971.1754,-134.9598,-1077.6222,25478.3481
55897.4147,27595.6392,53620.4427,41587.6508,36372.5871,38744.3304,5900.5022,50316.0506,44480.9943,55976.7634,-123.471,-1066.938,25484.6066
55898.8452,27597.2933,53623.125,41589.3942,36374.7329,38745.6715,5904.6149,50320.2528,44490.1139,55976.4057,-122.5322,-1063.0935,25488.0488
55882.2602,27599.6178,53624.6449,41579.6936,36356.8962,38747.3255,5903.0503,50298.214,44484.3471,55971.6225,-131.8753,-1071.7213,25486.1712
55865.8987,27592.7335,53627.64,41567.9812,36339.9535,38746.8785,5903.5867,50291.8214,44482.246,55977.7468,-145.5098,-1079.0974,25486.2607
55877.6557,27599.439,53631.5739,41574.9103,36353.1858,38751.1253,5905.509,50307.7805,44487.1187,55982.2172,-141.263,-1074.94,25490.6416
55903.3602,27613.5206,53636.3572,41591.9423,36387.7863,38765.2516,5910.2923,50331.5628,44504.9107,55990.6662,-117.6596,-1056.7009,25499.0458
55910.0211,27617.4098,53642.6604,41602.3135,36396.6376,38768.4256,5917.5342,50343.6774,44518.8582,55996.7905,-102.6839,-1041.6806,25505.9749
55902.645,27621.4331,53647.6672,41607.0968,36390.2003,38775.6228,5924.7315,50339.5647,44507.28,55997.1035,-101.8792,-1042.5746,25509.7747
55892.0503,27615.3535,53649.5,41601.4642,36376.1187,38780.5402,5923.2116,50329.3723,44495.2548,55988.2075,-104.1144,-1052.1412,25510.0876
55898.0852,27615.3088,53646.5496,41609.6002,36385.6852,38786.6646,5923.3904,50333.6638,44503.9272,55988.7886,-96.9172,-1045.838,25512.3675
55919.1853,27619.0192,53644.985,41628.7333,36411.1662,38794.0854,5929.0677,50359.5918,44518.3665,55992.2755,-79.9298,-1028.493,25516.4355
55926.6955,27623.8024,53640.604,41625.8276,36414.6978,38788.9445,5930.4982,50375.551,44521.2722,55993.4825,-76.4877,-1027.7778,25518.0448
55902.2874,27616.8734,53637.6089,41612.0589,36390.4238,38783.446,5926.609,50358.6531,44505.7154,55985.9723,-95.5313,-1045.078,25511.3393
55883.2437,27608.4691,53636.089,41597.0832,36364.2722,38775.9358,5920.3506,50330.5346,44489.6221,55975.9587,-111.0435,-1054.7787,25504.4103
55885.5236,27603.8647,53633.8538,41587.5614,36369.6814,38770.6608,5916.0143,50335.5414,44496.6406,55976.5399,-110.1494,-1050.2636,25501.9963
55903.1814,27607.3515,53632.2892,41597.7091,36388.1886,38773.9688,5912.3039,50351.277,44511.0798,55980.5632,-99.3758,-1042.7535,25502.0857
55910.0211,27611.3302,53634.3902,41606.9627,36398.5151,38774.5053,5915.6567,50353.2887,44513.315,55980.3843,-101.1193,-1039.5348,25505.0808
55898.3982,27612.9395,53637.0724,41604.2358,36386.9369,38772.6724,5917.6236,50340.9952,44513.9855,55987.3581,-111.9822,-1048.5649,25504.1867
55877.5216,27601.853,53633.8091,41584.9686,36360.6066,38764.2235,5912.6616,50322.9797,44499.4569,55980.5632,-131.2941,-1070.9614,25496.3636
55894.3748,27604.3564,53633.5409,41593.641,36370.6648,38767.8444,5913.958,50333.8426,44504.9107,55983.603,-120.8782,-1065.7758,25495.9166
55912.5692,27608.8268,53630.814,41603.2523,36392.6142,38778.4839,5913.2427,50354.1827,44523.9991,55988.9227,-105.0085,-1048.699,25498.5988
55904.5672,27612.0454,53627.8635,41600.3466,36396.2352,38771.5101,5907.2524,50355.1662,44524.2673,55983.0666,-106.3943,-1052.2753,25497.9283
55895.2242,27606.0998,53628.3106,41592.7023,36374.867,38762.3459,5905.5984,50340.5482,44510.0516,55974.7964,-126.1532,-1066.2228,25490.2393
55882.0814,27597.8297,53627.1483,41582.197,36344.6474,38762.8824,5902.1115,50316.5424,44496.0147,55967.1968,-141.9783,-1075.6552,25483.042
55889.7704,27595.7286,53624.4214,41580.5429,36355.0633,38761.2283,5897.6859,50323.2032,44500.1274,55968.672,-136.1221,-1071.4978,25485.6348
55913.7315,27602.6577,53625.4048,41592.3893,36385.0147,38768.4256,5900.5916,50349.2206,44514.969,55977.8363,-117.5255,-1056.7009,25491.8933
55912.3456,27603.2388,53627.4612,41588.4554,36389.8873,38765.1175,5901.4857,50349.4889,44516.5783,55981.7255,-112.6528,-1057.7291,25490.3287
55899.0687,27600.0649,53628.3106,41580.0959,36367.4909,38762.1224,5901.441,50334.8708,44508.5764,55981.9043,-122.577,-1065.9099,25487.3335
55886.7753,27601.2272,53625.8519,41575.8491,36344.558,38761.1836,5902.648,50324.8572,44497.1323,55981.8149,-133.6187,-1074.0906,25488.6299
55892.6761,27601.853,53628.6235,41584.4768,36354.214,38764.0893,5905.3302,50328.0312,44510.6328,55986.3746,-122.6664,-1062.5124,25496.0954
55911.5857,27600.4225,53630.4116,41600.7936,36383.8971,38765.654,5903.8997,50348.103,44528.3353,55996.2541,-103.9803,-1048.3414,25498.7329
55910.6916,27598.0532,53624.4661,41594.9374,36383.8971,38765.5646,5903.5867,50354.5851,44524.8038,55994.3765,-106.0367,-1052.6329,25498.8223
55893.3914,27595.371,53624.332,41587.7849,36360.1595,38763.8658,5901.6645,50345.9126,44512.7338,55995.0471,-123.8734,-1067.9662,25493.145
55883.7354,27591.1242,53627.9976,41586.6226,36345.3627,38766.101,5903.6314,50329.1041,44507.5035,55994.3765,-131.2941,-1070.9167,25494.4861
55892.542,27598.6344,53626.6565,41592.2999,36366.0157,38777.5004,5904.5255,50337.9554,44517.1595,55999.6963,-113.368,-1058.5785,25503.2927
55915.6984,27598.1426,53626.88,41604.4593,36393.9106,38787.2905,5907.0289,50370.1419,44530.2129,56005.016,-93.5197,-1046.1062,25507.0925
55922.9851,27600.8248,53634.1667,41611.5224,36400.8844,38792.4314,5914.4497,50384.3576,44530.0788,56004.6583,-89.0046,-1038.4172,25510.4005
55907.8306,27598.3661,53634.0773,41601.4194,36384.2994,38785.5023,5913.645,50360.5753,44523.0156,55994.8683,-102.2369,-1049.6825,25507.0478
55888.9657,27598.9026,53634.3008,41593.2834,36364.8534,38780.3167,5911.1863,50345.8679,44512.2421,55990.8897,-117.0784,-1058.2209,25501.9516
55895.403,27604.7587,53634.6585,41598.3349,36379.6055,38787.4246,5913.1086,50355.9262,44519.2158,55992.1414,-112.3846,-1051.4706,25500.9234
55918.0677,27613.9677,53636.7148,41614.5176,36408.6628,38792.3867,5915.7014,50388.3362,44532.1351,55997.327,-93.8326,-1037.7467,25505.6173
55917.9783,27613.8335,53637.5195,41612.64,36403.8348,38789.7938,5916.3272,50401.8813,44531.554,55998.6681,-92.9832,-1035.5115,25506.0643
55896.8335,27608.5585,53639.0394,41598.5584,36385.7746,38784.6977,5911.544,50379.7531,44514.7455,55988.8333,-107.0201,-1050.7107,25501.8175
55877.8793,27596.0863,53636.2678,41584.7898,36365.658,38779.065,5904.8384,50353.1545,44501.245,55978.4174,-130.4448,-1067.8321,25494.799
55884.406,27592.51,53631.1716,41588.5001,36368.832,38779.1097,5898.7588,50360.1283,44506.9671,55981.9937,-133.0823,-1063.0041,25491.6251
55900.2757,27602.9706,53631.2163,41597.8879,36391.8543,38776.4722,5900.4575,50378.1885,44527.0836,55991.7837,-114.888,-1048.9225,25497.1683
55910.6022,27612.9842,53631.708,41605.6663,36403.209,38778.8415,5901.9327,50388.0233,44526.1449,55994.8236,-105.8578,-1047.2238,25500.6999
55896.5206,27601.0931,53630.8587,41593.7304,36382.7795,38773.2536,5897.1047,50373.0476,44512.3315,55995.4047,-124.0969,-1062.1995,25496.5872
55872.4254,27583.8375,53623.3485,41580.3194,36348.6707,38762.7482,5886.1971,50340.6823,44492.7067,55981.1443,-147.3427,-1083.4336,25484.9195
55875.3759,27588.0396,53616.9112,41584.6109,36348.4472,38763.0165,5884.2748,50335.4073,44498.2946,55979.3115,-141.9336,-1082.7631,25482.9079
55888.3846,27594.611,53614.9442,41592.747,36370.0837,38759.8425,5886.063,50360.2177,44506.4753,55979.6691,-127.0473,-1068.7709,25487.11
55895.1348,27594.2534,53617.0453,41593.2387,36378.2197,38758.9931,5887.5829,50372.5111,44510.4986,55979.535,-119.2242,-1067.4298,25485.6348
55881.5002,27583.8822,53618.9675,41582.8675,36359.8466,38755.2828,5884.1854,50351.9922,44506.2965,55977.6127,-131.3388,-1079.9021,25479.2869
55864.5129,27581.8259,53617.4923,41569.3671,36341.8311,38750.6336,5880.3409,50335.9437,44482.8272,55969.1638,-149.6673,-1091.1226,25476.5153
55874.75,27583.3905,53616.9559,41572.1834,36350.1459,38757.0262,5881.4585,50347.9242,44481.8884,55970.4155,-143.1406,-1078.9633,25478.5717
55899.5605,27583.0775,53617.5817,41588.0531,36380.4996,38768.2468,5886.4653,50369.6501,44504.419,55980.2055,-122.1299,-1063.4065,25483.8914
55903.4497,27591.2583,53625.4942,41595.8315,36392.4354,38774.3264,5891.6956,50382.7035,44513.6726,55984.8547,-116.542,-1059.4279,25487.0653
55891.782,27593.6276,53633.7644,41583.4039,36372.7659,38767.2186,5894.7355,50365.448,44508.7999,55993.0801,-128.6119,-1067.3851,25486.9312
55874.3477,27586.3409,53635.3737,41575.6702,36354.3481,38762.3459,5895.8977,50345.1973,44503.8378,55987.0452,-139.1172,-1073.3306,25484.5172
55883.4672,27588.2632,53634.7926,41581.5264,36369.9049,38769.5879,5899.4293,50353.9592,44515.6842,55988.2522,-127.852,-1061.3948,25491.8039
55901.7062,27596.7568,53634.882,41591.2271,36400.6609,38778.1709,5900.5916,50379.5743,44526.1449,55987.1346,-111.5799,-1047.2238,25497.2577
55905.3272,27599.6178,53636.983,41596.2785,36401.6891,38783.8483,5905.1067,50396.1593,44534.1021,55997.5505,-106.6625,-1042.5299,25504.2762
55897.0124,27595.371,53633.2726,41591.8529,36385.1041,38782.8648,5906.8054,50382.3459,44528.9165,55995.6729,-115.2903,-1052.9906,25505.4384
55879.8462,27594.5216,53634.3902,41582.5993,36368.0273,38776.2934,5907.6101,50352.8416,44517.2936,55990.2191,-127.1367,-1063.5406,25503.8291
55885.5236,27601.406,53634.9267,41581.9287,36376.074,38771.6889,5906.4478,50362.0505,44518.8135,55994.4212,-121.0123,-1057.5056,25509.6406
55906.3107,27605.3399,53633.8091,41597.262,36405.3994,38775.8464,5907.8336,50396.4275,44529.9447,56001.9314,-106.886,-1044.9439,25517.1061
55913.3291,27603.7306,53634.1667,41602.8053,36405.1312,38777.5451,5906.4925,50407.3352,44537.3207,56004.1666,-102.6392,-1044.9886,25518.2236
55902.645,27597.9638,53629.6517,41594.3116,36378.5774,38770.9737,5902.6927,50383.4635,44521.5851,55994.4659,-118.956,-1063.1382,25509.73
55882.8861,27593.2699,53629.8305,41579.6936,36348.8495,38767.3527,5895.5401,50365.8056,44509.7834,55984.6759,-140.9054,-1075.834,25499.3588
55890.4409,27589.9172,53632.5127,41580.4535,36360.4277,38775.8464,5892.2768,50366.8785,44517.0701,55984.1394,-135.0045,-1072.3472,25498.3306
55914.9384,27595.5498,53631.7974,41593.5516,36394.6259,38779.6462,5890.8463,50386.6374,44526.3684,55991.0238,-116.7655,-1061.1713,25501.9963
55912.7927,27596.8462,53630.3222,41595.608,36392.2566,38770.3925,5893.8414,50395.757,44526.5472,55990.0403,-113.7704,-1061.3501,25500.6105
55893.7937,27596.4886,53636.6254,41594.4904,36373.3917,38772.3148,5895.2719,50376.7133,44516.6677,55990.1744,-121.9064,-1066.8933,25496.766
55875.6441,27582.6305,53633.0044,41581.9734,36350.3695,38762.7929,5889.4604,50353.1098,44500.4851,55980.5185,-140.9054,-1080.662,25487.7806
55881.0085,27581.7811,53628.9364,41582.0181,36360.9642,38763.9999,5889.2816,50368.0855,44498.6522,55976.5399,-134.6469,-1078.5609,25488.0488
55901.2592,27594.0299,53628.2212,41592.2552,36393.5977,38768.9173,5893.8861,50394.237,44517.6959,55982.5748,-119.8947,-1062.1101,25489.524
55896.61,27598.1873,53627.6847,41593.1493,36400.1691,38766.101,5897.8647,50405.7258,44526.726,55992.4096,-115.9608,-1056.9245,25492.9215
55888.4293,27600.5119,53628.3553,41592.0317,36387.1157,38766.2351,5904.7937,50399.3332,44517.1595,55987.0005,-129.6401,-1065.1946,25491.2227
55870.5926,27595.9522,53630.9481,41581.3029,36364.0934,38761.9436,5898.4458,50382.8824,44505.8495,55974.5729,-148.8626,-1081.5114,25481.4774
55879.4886,27596.8462,53629.6964,41589.9307,36376.4763,38764.0893,5897.6412,50390.4819,44513.0914,55974.4835,-137.642,-1077.8457,25484.3831
55903.852,27599.0814,53625.8519,41600.7042,36398.6492,38769.1855,5895.8083,50417.4829,44527.7095,55979.0432,-123.024,-1070.2908,25486.7077
55906.8918,27598.1873,53626.4777,41602.7606,36395.967,38774.5053,5897.8647,50423.2049,44535.3091,55983.3348,-119.0007,-1065.2393,25489.2111
55890.5751,27593.0911,53629.9199,41596.0997,36379.1585,38771.8678,5899.2505,50406.2623,44527.173,55984.2736,-127.8073,-1070.0226,25491.0439
55873.6771,27588.129,53629.7858,41581.437,36357.2538,38762.3459,5895.9872,50381.6307,44514.1196,55979.3115,-144.124,-1078.9186,25490.0157
55879.3545,27585.8492,53628.087,41588.0531,36360.4724,38762.5247,5896.8812,50383.0165,44526.0555,55977.2998,-136.3903,-1073.2412,25492.4297
55897.2359,27593.5829,53633.2726,41604.9063,36393.7765,38773.1642,5901.9774,50407.1563,44538.1254,55986.2852,-114.9774,-1052.9459,25501.8175
55901.6615,27596.7121,53634.9267,41604.8169,36398.9621,38774.8182,5900.1446,50417.1699,44535.8008,55987.8051,-112.0716,-1050.3978,25503.3821
55898.5323,27590.096,53635.8654,41603.9228,36387.6969,38779.6462,5900.1893,50393.1642,44522.5686,55986.0617,-119.8947,-1057.3268,25505.0808
55883.9142,27580.4847,53631.5292,41588.9472,36359.3996,38776.651,5895.5401,50371.1253,44513.5385,55977.0763,-134.1552,-1070.3355,25502.5774
55889.5469,27583.0775,53629.3834,41593.7304,36367.8932,38775.9805,5895.5401,50388.6938,44526.726,55973.9023,-133.7528,-1069.4414,25498.6435
55911.6304,27592.957,53631.9315,41605.4875,36387.2051,38780.8979,5896.2107,50416.1865,44539.2877,55975.7799,-119.3583,-1059.6514,25497.7494
55911.2281,27592.7335,53631.4845,41604.1464,36379.2032,38776.7404,5891.2039,50417.304,44531.7328,55974.3047,-120.2971,-1063.0041,25491.2227
55901.6615,27587.1009,53632.6915,41604.4593,36367.3121,38777.5898,5891.6956,50400.2273,44522.6133,55979.1774,-131.0259,-1069.5755,25489.2111
55884.4507,27574.8521,53627.4165,41594.5798,36343.6192,38773.03,5882.2185,50377.3391,44504.5084,55964.6487,-149.5779,-1084.7747,25482.0138
55897.2359,27584.7316,53625.8519,41593.8199,36349.2072,38774.4159,5878.374,50391.2419,44508.2635,55966.7051,-144.6605,-1081.869,25481.7903
55923.1192,27592.3312,53626.7906,41605.8898,36376.968,38782.8648,5880.9668,50413.996,44522.7921,55978.328,-124.5886,-1070.0673,25483.5784
55927.3213,27590.4536,53626.3436,41608.7061,36381.9748,38781.9707,5880.8327,50415.6947,44525.1614,55977.0763,-124.678,-1070.1567,25482.1926
55904.9696,27586.475,53627.5953,41599.1843,36368.832,38773.0747,5876.8988,50403.0883,44515.9078,55970.6837,-138.2232,-1083.6571,25479.2869
55890.7092,27583.8375,53624.332,41584.6109,36346.1673,38769.9455,5874.5295,50381.1836,44500.5298,55964.4699,-147.1639,-1097.4705,25479.9128
55895.1795,27586.8326,53621.9627,41585.952,36350.2353,38769.3197,5874.6636,50378.0097,44503.7484,55966.3922,-141.6653,-1088.3957,25480.8068
55906.3554,27596.0863,53622.5438,41596.9491,36372.0059,38771.5995,5880.6986,50401.3896,44509.0681,55969.7002,-121.5488,-1078.6504,25489.2558
55905.5507,27601.9871,53626.9248,41599.4078,36376.6998,38770.7055,5887.0465,50398.6627,44514.0749,55973.6341,-116.1397,-1072.3919,25493.6367
55888.6528,27594.8346,53632.468,41589.126,36363.3782,38767.755,5891.1145,50380.2001,44508.7999,55975.8693,-128.8801,-1077.9351,25493.4579
55862.7695,27583.9716,53632.9597,41575.5808,36339.9088,38761.0495,5892.1874,50358.4743,44495.1206,55973.9918,-139.5196,-1089.6921,25489.6134
55870.9949,27593.1358,53630.9034,41580.23,36356.4491,38768.2021,5896.2107,50361.0671,44490.0692,55976.9422,-134.1999,-1078.9186,25492.2062
55887.9822,27604.0882,53635.0608,41591.4059,36387.2051,38775.6675,5900.5916,50372.4664,44499.9933,55981.189,-119.6712,-1065.1052,25498.5541
55886.3282,27607.4409,53638.2794,41587.8296,36387.4733,38771.1525,5904.6149,50370.0525,44502.2285,55987.3581,-118.5536,-1061.1266,25503.7844
55867.1504,27605.0717,53637.743,41587.7849,36380.4102,38759.5296,5908.37,50348.0136,44489.935,55982.6642,-126.9132,-1069.0838,25502.488
55851.0572,27605.1164,53633.1832,41577.4137,36360.5171,38749.1584,5907.4759,50315.4695,44471.6066,55975.6011,-141.1289,-1086.1605,25495.8719
55854.1417,27603.2835,53630.6798,41575.9832,36364.6299,38751.7959,5907.7442,50307.1547,44469.7291,55970.8625,-135.3621,-1079.1868,25497.7942
55865.5858,27608.9162,53630.054,41588.366,36381.3043,38756.3109,5909.6664,50318.107,44481.2179,55973.3212,-120.5206,-1064.7923,25503.8291
55857.9862,27606.0104,53632.7362,41594.848,36385.4617,38754.2099,5914.6285,50313.279,44478.3121,55974.1706,-115.2009,-1061.6183,25502.8456
55840.5966,27603.1047,53632.0657,41583.5828,36374.4199,38746.4762,5914.1815,50280.109,44463.2471,55968.2697,-126.4662,-1070.559,25499.0458
55826.8726,27601.4507,53628.8023,41571.6916,36353.0517,38745.001,5914.1815,50252.2588,44446.3938,55959.0608,-137.955,-1085.2665,25493.1897
55830.583,27599.8861,53626.7012,41574.4185,36360.1595,38749.4713,5914.0474,50247.7884,44446.4833,55957.7644,-132.0988,-1085.7135,25495.5143
55847.4362,27605.3399,53626.2989,41589.7965,36375.9845,38751.93,5913.1086,50258.6514,44454.5299,55960.8936,-117.2125,-1074.7612,25497.4365
55851.4595,27616.1581,53629.7411,41595.9656,36378.8009,38756.3556,5915.2991,50265.9827,44455.871,55960.7148,-112.161,-1069.1732,25493.9049
55833.9357,27614.5935,53628.7576,41587.3379,36364.004,38748.9796,5912.4827,50246.492,44441.7447,55952.3553,-126.2426,-1082.316,25487.4676
55825.0844,27607.3515,53631.9315,41579.3806,36342.6358,38742.7211,5909.0853,50223.1121,44430.0324,55949.8966,-137.7761,-1088.8427,25487.9147
55831.9241,27610.2126,53635.4631,41581.6605,36342.0546,38746.2527,5907.7889,50220.1617,44432.8934,55950.8801,-131.5624,-1078.1586,25490.9545
55851.4148,27617.991,53638.503,41598.0667,36362.6182,38751.0359,5909.7111,50241.6641,44441.9235,55955.4845,-112.6081,-1070.2014,25495.5143
55846.8103,27615.4429,53636.6254,41600.883,36364.764,38747.4149,5910.4264,50236.7467,44443.0411,55963.3076,-109.7918,-1072.973,25495.6931
55830.7618,27602.4789,53634.882,41588.9472,36345.2286,38740.7094,5911.1863,50207.9129,44429.0489,55956.2892,-122.9793,-1083.2548,25492.5191
55814.6238,27596.2204,53633.3621,41576.9666,36325.2908,38739.1001,5905.7325,50185.5165,44413.5368,55949.986,-138.0444,-1093.0449,25487.5124
55827.8561,27597.1591,53634.4796,41583.5381,36331.594,38744.0622,5906.2243,50187.2152,44416.3531,55950.3436,-129.9083,-1084.5512,25490.284
55851.3254,27600.6907,53632.7809,41598.0667,36355.6892,38745.895,5906.716,50209.5222,44428.6019,55956.5127,-113.7257,-1072.7048,25494.352
55853.1582,27599.3496,53630.9481,41597.262,36348.5813,38742.0952,5907.163,50218.3288,44429.3171,55959.4184,-110.8646,-1074.3141,25493.5473
55838.4061,27592.7782,53629.7411,41585.0133,36325.6037,38738.2954,5907.1183,50188.6904,44411.2122,55955.0822,-121.9064,-1088.7086,25490.8204
55821.7317,27588.9784,53625.6731,41572.1834,36305.666,38724.2138,5904.2126,50157.3533,44397.3541,55949.0472,-137.195,-1099.9739,25485.9924
55830.9853,27588.0843,53622.0968,41571.781,36311.3433,38726.6278,5901.2175,50163.5224,44407.2783,55948.5555,-133.3505,-1092.3296,25484.7407
55852.7559,27591.0795,53624.2425,41583.4039,36340.5347,38737.0437,5903.5867,50191.4173,44434.4133,55958.882,-114.3068,-1073.5989,25492.3403
55858.7015,27595.1475,53627.5506,41588.9025,36347.8214,38741.7376,5908.1018,50201.2968,44432.6252,55963.3523,-108.8977,-1071.9448,25496.0507
55856.1534,27589.3807,53632.8256,41581.0347,36329.2694,38734.4956,5909.2641,50182.8343,44423.7739,55959.5972,-126.4662,-1081.5561,25490.9992
55846.8997,27585.3574,53630.8587,41571.1552,36304.8613,38731.6346,5902.5586,50152.9276,44409.3794,55949.8072,-142.023,-1092.7767,25486.2607
55856.6898,27591.2136,53631.708,41581.0794,36317.1548,38739.0554,5905.1067,50156.1016,44414.2073,55947.7061,-126.332,-1082.7631,25493.9049
55874.6159,27596.3992,53636.1784,41589.7965,36339.4618,38741.6035,5909.8452,50181.5826,44432.8934,55965.9898,-109.2553,-1067.7874,25502.8009
55885.8812,27600.0202,53637.8324,41599.7654,36350.7718,38750.0972,5915.5673,50196.5582,44435.7097,55974.5282,-97.7218,-1060.8137,25507.8971
55867.0163,27600.7354,53635.8654,41589.7071,36337.0478,38747.7726,5914.1368,50183.5048,44427.7078,55966.8392,-107.4225,-1068.905,25503.7844
55849.7608,27594.9687,53634.2561,41577.9948,36311.4327,38742.0058,5907.6995,50164.0588,44416.979,55955.0375,-125.5721,-1081.869,25496.9001
55864.7364,27598.9473,53632.8256,41578.8889,36315.0537,38744.688,5903.8103,50181.8955,44426.1879,55955.6186,-125.4827,-1080.3491,25495.4249
55886.9094,27605.8316,53630.4116,41583.9851,36342.9487,38750.723,5902.4245,50212.2492,44437.4084,55964.3358,-114.575,-1071.319,25497.9283
55886.4623,27602.3448,53629.0705,41585.2815,36352.3364,38748.8008,5903.0056,50215.289,44442.0129,55963.4417,-114.0386,-1069.3073,25497.213
55869.5644,27591.5712,53630.0987,41577.1008,36336.7796,38736.6414,5901.3516,50200.4474,44426.6796,55956.915,-124.7674,-1079.9915,25491.0886
55849.0902,27583.3905,53628.2212,41565.3437,36314.4726,38724.8397,5900.0999,50181.0908,44418.8118,55950.8353,-139.2066,-1090.6309,25485.7242
55862.546,27582.8987,53628.5341,41569.1435,36322.2957,38730.6064,5900.7704,50194.2784,44428.0654,55955.6633,-135.7645,-1084.6406,25490.9992
55884.4954,27588.0843,53627.3271,41578.0842,36345.005,38737.312,5900.9939,50212.7856,44442.9964,55962.6371,-119.1795,-1070.4696,25493.9944
55888.6975,27590.0066,53632.7362,41584.9239,36349.5648,38741.5141,5904.8831,50212.6515,44446.2597,55963.8888,-116.0502,-1065.4181,25496.4978
55874.8841,27587.6373,53632.3786,41578.3077,36332.2198,38741.3353,5905.7772,50201.0733,44440.1801,55960.2678,-124.678,-1073.6436,25493.5473
55860.6684,27588.2185,53627.9082,41568.3389,36313.8467,38736.7755,5901.888,50183.8624,44424.1762,55950.6118,-137.4185,-1090.9885,25485.7689
55867.9104,27586.922,53622.2756,41566.2378,36315.3219,38734.5403,5896.7918,50198.2123,44425.6961,55944.6216,-134.2893,-1089.111,25483.5784
55886.5964,27594.2534,53626.6118,41579.6041,36346.972,38744.8668,5899.2952,50227.5378,44445.321,55961.1619,-115.6032,-1071.0061,25491.2227
55883.7801,27602.7918,53626.2095,41583.6275,36359.7572,38745.7609,5899.2058,50238.803,44450.9089,55962.9947,-112.5187,-1066.6698,25490.6863
55861.2496,27601.1825,53627.193,41572.7198,36332.9351,38742.6317,5899.5187,50226.5096,44446.528,55959.0608,-125.2145,-1079.0974,25486.7524
55851.7724,27601.3166,53624.2425,41568.8306,36315.5007,38743.1681,5900.9045,50211.8468,44434.8603,55954.7246,-134.9598,-1091.5697,25485.5901
55869.6985,27609.9443,53626.2095,41579.0677,36339.6406,38751.483,5900.9492,50219.357,44442.1023,55960.2231,-125.0356,-1084.3724,25487.1994
55894.196,27624.7859,53630.4563,41600.8383,36373.1235,38761.0942,5905.2855,50254.0022,44463.113,55972.9189,-107.5119,-1065.284,25496.7213
55902.7344,27630.1056,53629.9199,41605.8004,36378.4879,38766.9504,5906.4031,50265.6698,44457.3462,55970.6837,-106.886,-1060.5901,25496.5872
55888.5634,27619.4215,53631.3504,41600.5254,36362.2606,38768.0233,5900.681,50251.32,44454.1723,55964.5593,-120.9676,-1070.7378,25493.4579
55884.1825,27620.2261,53635.2843,41598.2455,36351.7106,38770.8843,5906.269,50244.5251,44454.6193,55966.3028,-124.7674,-1076.4152,25493.1003
55895.6265,27623.5342,53636.4913,41603.297,36359.489,38779.1097,5909.2194,50257.3103,44463.5153,55968.0909,-115.2903,-1070.9614,25497.5259
55918.8724,27629.4351,53638.9947,41613.9811,36388.8592,38792.029,5912.0804,50283.1936,44475.4064,55976.4057,-100.3146,-1054.3317,25505.9302
55925.0861,27634.8442,53642.3922,41616.8422,36392.9719,38798.6451,5912.7957,50295.2635,44484.3918,55981.4125,-95.9784,-1050.6213,25510.4005
55917.0395,27628.8986,53644.5379,41609.0637,36370.3966,38790.5985,5910.8734,50276.6669,44473.4395,55975.6458,-108.7189,-1064.7923,25507.5395
55903.3155,27620.6285,53643.9121,41594.1328,36345.0497,38778.3945,5907.4759,50254.494,44461.9954,55971.3095,-121.1464,-1076.2364,25502.9351
55906.266,27616.6052,53638.3241,41594.5798,36349.6989,38779.065,5904.749,50261.7806,44462.7106,55966.4816,-118.1066,-1070.0673,25502.8456
55922.4039,27621.7908,53638.95,41602.9841,36371.7377,38783.133,5909.3535,50286.1887,44474.6464,55978.5515,-105.0979,-1052.6329,25508.6571
55928.4389,27625.9035,53639.3523,41606.5603,36381.6172,38784.34,5912.9745,50284.6688,44478.6251,55982.2619,-100.7169,-1049.3696,25510.5793
55904.2096,27615.2641,53633.5856,41595.2504,36360.1595,38776.9639,5909.0853,50262.2277,44460.2519,55969.5661,-118.196,-1063.9876,25501.9069
55886.9988,27599.5731,53629.5623,41581.437,36336.0643,38763.7317,5901.4857,50242.1558,44450.9983,55964.0676,-134.4681,-1075.4317,25495.9613
55895.3583,27605.921,53630.0093,41582.644,36349.2966,38759.172,5902.2009,50253.4658,44460.6543,55971.3095,-126.1532,-1067.4745,25499.6717
55910.781,27617.9463,53633.4068,41591.4059,36384.9252,38760.5578,5908.1912,50278.7232,44467.6727,55974.4388,-108.8977,-1053.974,25504.4103
55913.195,27624.5177,53637.6089,41596.1891,36392.3013,38766.548,5914.6285,50290.7932,44479.0721,55979.6244,-101.2534,-1051.2918,25508.8806
55900.7227,27618.6168,53634.7479,41587.2484,36369.7708,38761.4518,5911.4099,50267.2344,44475.1829,55978.0598,-113.5021,-1060.3219,25503.1139
55890.2174,27614.9958,53631.4845,41577.369,36354.7951,38751.2147,5906.3584,50244.4357,44458.3744,55973.6341,-132.1435,-1076.8622,25491.7145
55893.0784,27617.7675,53633.8091,41578.6207,36359.2654,38749.7395,5907.4759,50261.2889,44470.489,55976.1375,-127.8967,-1073.5989,25493.6814
55909.127,27624.2495,53635.8207,41588.366,36389.3509,38763.8658,5913.1086,50285.2947,44492.1702,55984.363,-105.0979,-1056.5221,25502.7115
55918.9171,27622.3272,53632.3339,41592.9705,36391.9437,38765.1175,5915.2991,50292.8495,44486.8952,55987.7157,-101.7451,-1053.7058,25504.5444
55904.6566,27612.8054,53631.0375,41590.6906,36359.4443,38757.6967,5913.2874,50276.041,44473.3948,55981.189,-116.7208,-1063.9876,25499.9399
55880.2038,27603.7753,53629.1599,41576.6984,36333.248,38744.8668,5902.648,50247.8778,44457.6591,55972.2483,-135.541,-1078.9633,25491.7592
55882.0814,27598.6344,53624.2872,41577.369,36346.6591,38743.794,5897.373,50246.0003,44451.3112,55968.1356,-132.0541,-1079.455,25486.7524
55899.6052,27606.0998,53625.7625,41584.4321,36368.9214,38748.7113,5901.3069,50270.8107,44467.9409,55979.0432,-115.8267,-1064.9264,25492.2062
55900.9463,27607.5751,53630.501,41588.679,36375.0458,38753.9417,5907.5207,50287.5745,44477.4181,55985.4358,-108.8977,-1056.9245,25496.5872
55892.2291,27601.5401,53629.8752,41586.0415,36356.7173,38754.6122,5904.4808,50260.7971,44459.6261,55974.707,-129.1484,-1066.3122,25492.4744
55878.1922,27601.7636,53622.4097,41576.3408,36326.0061,38747.7726,5900.0105,50241.8429,44449.0314,55964.6487,-146.8956,-1082.0478,25486.3948
55883.8248,27608.7821,53623.8402,41577.9054,36337.8525,38753.8522,5898.0882,50245.1062,44460.0284,55961.3407,-136.9715,-1078.2033,25488.4958
55901.438,27613.5206,53629.1152,41588.7684,36366.7756,38762.5247,5901.3069,50268.8885,44478.3121,55967.2415,-116.7655,-1060.9031,25495.0225
55903.6285,27613.2971,53632.4233,41597.3514,36372.5871,38769.1855,5904.4808,50277.6951,44478.5804,55970.5943,-110.1494,-1054.0634,25496.4083
55882.8413,27609.3185,53631.4398,41589.6177,36353.007,38768.7832,5903.4973,50258.8302,44467.5833,55969.6555,-126.332,-1063.8088,25492.385
55859.1485,27602.2553,53630.2328,41574.2844,36337.4949,38756.9815,5901.6198,50237.8196,44459.3579,55966.3475,-139.4302,-1074.9847,25491.2227
55859.372,27598.992,53632.1104,41577.9948,36348.179,38757.4285,5902.648,50242.5134,44464.4094,55968.1356,-130.3107,-1069.352,25493.1897
55884.5401,27609.9443,53639.6205,41592.6576,36368.832,38770.4372,5907.3865,50272.5542,44484.973,55980.3396,-112.3846,-1049.2802,25502.3539
55894.6878,27623.0425,53646.3261,41604.504,36382.7795,38776.6063,5914.9414,50288.558,44492.9749,55986.0617,-102.9968,-1042.7982,25509.9982
55875.7782,27610.8384,53642.0792,41592.8364,36364.6746,38769.3197,5915.9696,50271.2131,44482.559,55976.9869,-117.2125,-1055.941,25506.4219
55863.3059,27595.7286,53636.4913,41580.8558,36340.9817,38762.8824,5913.0639,50247.5649,44466.5104,55962.1453,-132.7246,-1068.8156,25497.3471
55876.8511,27600.646,53637.6536,41585.7285,36340.8476,38764.2235,5911.6334,50258.5173,44479.1168,55975.1987,-126.645,-1062.6465,25500.2528
55898.1299,27610.1232,53638.4135,41597.8432,36361.9924,38769.6773,5915.1649,50287.7533,44491.902,55983.8712,-111.267,-1048.9672,25504.9914
55902.8685,27607.3515,53635.9102,41596.3233,36369.3684,38768.1127,5913.8685,50294.2801,44491.7679,55982.1725,-110.2835,-1051.3812,25503.5609
55887.8034,27601.6742,53632.1998,41586.8908,36353.7222,38757.652,5907.923,50265.2675,44476.2111,55969.5661,-132.1882,-1065.0158,25494.4861
55873.4536,27599.5731,53630.1881,41580.3641,36335.215,38749.5607,5902.8268,50250.2471,44456.318,55966.0345,-146.3592,-1078.8292,25486.9312
55877.924,27601.9424,53628.7129,41577.5478,36339.1489,38758.5014,5900.9939,50260.9313,44461.593,55969.5661,-139.3855,-1078.5162,25488.1829
55897.2359,27604.8928,53628.5788,41595.8315,36369.1002,38764.4917,5905.9113,50291.8214,44488.1916,55973.053,-121.9958,-1063.5853,25493.145
55900.9463,27602.5236,53628.9811,41597.3961,36371.1119,38760.2001,5906.9395,50302.8631,44489.7562,55974.707,-123.6945,-1060.5454,25490.5522
55885.5236,27600.4672,53630.8587,41588.7237,36357.4773,38762.6141,5907.923,50278.8126,44477.4181,55969.9237,-131.2941,-1066.3569,25490.731
55875.1523,27596.7568,53629.1599,41579.0677,36339.5959,38759.9319,5906.3584,50251.8117,44465.3928,55963.3076,-144.2134,-1075.0294,25489.1217
55878.7286,27596.6227,53623.6614,41576.162,36339.4618,38757.8309,5904.1679,50262.2724,44470.7125,55965.9898,-140.2795,-1069.2179,25490.9098
55896.5206,27602.3895,53621.0686,41586.2203,36355.2421,38759.5296,5906.0901,50285.0711,44485.5988,55971.3989,-122.5322,-1058.355,25495.6931
55901.9744,27605.5634,53621.2921,41587.7849,36363.0205,38758.5014,5904.7043,50291.1508,44497.1323,55974.0365,-118.9113,-1061.3054,25496.8107
55886.06,27600.3778,53619.8616,41581.9734,36351.9341,38756.0874,5902.4245,50274.0294,44490.5162,55971.6225,-128.6119,-1073.8671,25491.8486
55865.0047,27586.3409,53616.8218,41568.6518,36328.6436,38748.7113,5897.0153,50254.3598,44473.8418,55970.4602,-145.0628,-1085.8923,25485.7242
55866.5693,27581.7811,53616.7324,41566.1484,36340.4006,38751.8406,5894.6908,50267.9497,44477.3734,55971.6225,-138.9384,-1081.6902,25489.077
55889.2787,27583.5246,53615.3913,41576.2961,36364.0487,38754.9251,5897.6412,50295.6212,44491.142,55978.6409,-122.1746,-1066.3122,25493.7261
55894.0172,27583.6587,53616.5088,41580.9005,36372.0506,38751.0359,5901.3963,50302.9525,44493.5113,55984.0053,-119.2242,-1067.5192,25493.592
55888.1611,27587.6373,53621.7839,41575.3573,36357.075,38745.7609,5897.4177,50290.1226,44484.7941,55974.7964,-129.3719,-1078.1139,25489.077
55874.75,27589.1125,53623.7061,41564.8967,36342.0546,38742.3635,5896.2107,50266.8768,44475.6299,55972.6954,-145.5545,-1088.6639,25484.1596
55884.0036,27589.3807,53623.1697,41568.9647,36347.7319,38748.1749,5897.8647,50283.9088,44485.3306,55973.8576,-140.0113,-1081.7796,25488.5405
55904.2096,27600.7801,53628.3553,41592.434,36373.8388,38759.172,5905.6878,50318.7776,44498.0264,55984.8994,-116.7655,-1062.0207,25497.1236
55902.6897,27605.474,53628.2659,41597.3067,36379.9632,38765.4305,5908.1465,50330.2664,44502.7202,55989.6827,-109.3894,-1056.4327,25499.9846
55888.7422,27599.8414,53623.8849,41584.7898,36357.7008,38759.6637,5906.4031,50311.6697,44490.8291,55979.7138,-124.3204,-1065.5969,25496.2295
55877.0746,27598.5003,53622.4544,41578.7995,36345.6756,38758.859,5906.7607,50291.9555,44480.4579,55976.0481,-139.7431,-1076.2811,25491.7592
55884.7189,27598.992,53618.7887,41581.7499,36358.3267,38759.8872,5903.0056,50303.3996,44485.1518,55976.6293,-130.6683,-1070.0226,25492.6085
55906.6683,27604.4458,53615.6595,41587.3826,36372.4083,38758.9484,5902.1562,50325.0808,44491.3208,55978.4621,-121.8617,-1063.1382,25487.8253
55908.9482,27604.2223,53622.9908,41586.4885,36378.175,38758.412,5900.6363,50323.5608,44502.4967,55979.1774,-120.8782,-1065.5969,25486.2159
55885.0765,27600.5119,53624.1978,41577.369,36355.8233,38756.4898,5895.0037,50300.0468,44491.2314,55971.3542,-136.5244,-1079.7679,25482.4609
55869.922,27586.6091,53619.1911,41571.6916,36334.455,38751.0806,5890.9357,50285.0264,44477.2393,55960.1784,-152.5283,-1094.0284,25477.2753
55875.7335,27585.5809,53624.1084,41572.541,36353.2305,38756.8921,5895.6742,50302.9525,44487.5211,55973.1424,-145.2416,-1085.8923,25484.2937
55895.8054,27590.2748,53628.2212,41581.5264,36379.7396,38761.273,5897.5518,50332.7698,44499.9039,55981.3678,-130.5342,-1068.905,25486.8418
55895.0007,27592.1971,53623.9743,41587.1143,36381.4384,38760.1107,5897.9094,50344.8844,44495.2101,55976.6293,-132.6352,-1069.2179,25482.282
55874.0348,27585.3574,53620.5322,41579.4253,36359.8466,38750.2313,5893.6626,50325.3937,44485.42,55966.9286,-146.2698,-1084.3277,25476.6494
55863.6189,27578.6519,53624.7343,41573.6139,36338.9254,38749.516,5895.0931,50299.421,44485.5541,55968.0462,-151.2766,-1090.1839,25477.9905
55870.235,27580.8424,53624.019,41577.4137,36347.9108,38756.6239,5895.2272,50310.9992,44492.8855,55971.0413,-142.3359,-1082.5396,25479.9575
55890.2174,27592.063,53623.7508,41591.2271,36376.8786,38766.0116,5898.4905,50342.6492,44505.4024,55977.1657,-124.5439,-1062.3783,25483.8467
55896.3418,27593.6723,53625.6731,41598.2902,36385.1488,38769.9902,5897.06,50351.724,44503.8378,55980.1608,-121.5488,-1061.6183,25487.8253
55879.8462,27585.2233,53625.1813,41594.6245,36364.8981,38759.3955,5893.2602,50328.5676,44488.281,55973.7235,-133.2611,-1075.2082,25484.249
55864.5576,27577.9814,53620.6216,41582.197,36345.7203,38752.69,5888.2982,50305.5006,44479.6532,55966.8392,-142.5594,-1087.0099,25479.7786
55871.129,27578.2496,53621.1133,41582.2417,36355.5104,38753.584,5887.6276,50317.6153,44490.5162,55968.4038,-138.9831,-1080.8408,25484.2937
55884.1825,27586.5197,53622.6779,41590.8247,36379.7396,38762.6588,5890.578,50331.2051,44499.2334,55974.26,-126.8238,-1068.5921,25488.9429
55892.3632,27587.1456,53623.7955,41600.0336,36383.1818,38769.275,5893.6626,50336.2566,44502.9885,55976.2269,-120.7888,-1063.9429,25489.6134
55880.8744,27577.4449,53623.7061,41594.5351,36360.0701,38761.8542,5888.3876,50320.1187,44495.97,55971.7119,-130.3107,-1074.8506,25483.5337
55861.6072,27575.478,53624.779,41582.4205,36342.7699,38752.0641,5885.8842,50292.9389,44482.9613,55969.1191,-141.2183,-1082.0925,25481.835
55871.7996,27577.5343,53624.1978,41580.8111,36354.1692,38751.7065,5888.8346,50310.2392,44490.0244,55978.1045,-139.6537,-1073.733,25486.5736
55887.8034,27577.2661,53622.9461,41588.9472,36379.1138,38760.5131,5890.3992,50337.3295,44507.28,55979.8032,-129.1931,-1063.7641,25490.3734
55897.2806,27579.0542,53627.7741,41596.5021,36383.8524,38767.0398,5894.6013,50343.0516,44510.7222,55979.9373,-120.8782,-1061.8865,25491.178
55888.474,27576.2379,53629.6964,41593.1493,36370.9331,38763.7764,5893.1261,50339.2518,44498.2499,55973.0083,-132.6352,-1074.7612,25487.1994
55866.5693,27569.2642,53627.9976,41577.9948,36344.7368,38757.8309,5889.7287,50327.1818,44490.0692,55964.6487,-144.3923,-1084.7747,25484.696
55869.8326,27575.7015,53628.1765,41579.2912,36350.9059,38759.8872,5888.3429,50324.6784,44497.937,55965.1852,-135.4963,-1079.7679,25485.9477
55890.9774,27583.167,53629.0705,41593.954,36378.4879,38766.2798,5890.2204,50348.6395,44504.1507,55970.2814,-116.989,-1064.1217,25488.9876
55903.4944,27585.0892,53632.0657,41600.0336,36384.657,38773.343,5893.7073,50356.7308,44505.8048,55972.1589,-115.6032,-1058.5785,25489.6134
55894.1066,27583.4799,53633.8538,41594.9374,36366.0157,38774.3264,5895.1825,50348.3713,44501.5579,55972.6954,-130.266,-1067.8321,25489.2558
55881.5002,27579.993,53633.8091,41585.1474,36341.6076,38767.3527,5892.2768,50336.5248,44488.4151,55968.8061,-145.0628,-1078.7845,25485.2772
55887.3117,27587.5926,53633.7197,41593.5516,36353.9457,38776.0699,5894.3778,50340.9058,44495.7465,55973.0977,-136.435,-1073.3753,25487.4229
55909.0376,27593.6276,53634.9267,41604.0123,36384.7911,38783.5354,5892.545,50363.5705,44512.7338,55979.2668,-120.6994,-1058.9808,25491.5357
55913.955,27592.4653,53634.8373,41600.123,36395.207,38781.1214,5887.1806,50365.5374,44519.1711,55981.7702,-116.4079,-1060.769,25490.5522
55886.7753,27582.3176,53630.9481,41590.4224,36366.9097,38774.1029,5884.0513,50350.6511,44504.7319,55968.5826,-134.0657,-1077.3987,25484.696
55874.4818,27578.9201,53624.1978,41583.8063,36342.5463,38770.1243,5880.6539,50326.556,44490.2927,55961.6983,-147.9685,-1089.2004,25477.767
55879.0863,27581.5129,53623.2144,41590.6906,36360.6513,38772.7171,5882.1738,50330.3558,44501.9156,55974.5729,-141.9783,-1081.1985,25479.1528
55898.8005,27593.3594,53627.9082,41603.9228,36383.4947,38781.032,5884.3195,50357.4014,44526.7707,55980.9655,-122.3087,-1063.0935,25486.5736
55904.2096,27594.164,53630.9034,41611.2542,36388.0098,38783.5801,5887.1806,50367.9961,44523.8203,55979.4903,-116.0949,-1059.0702,25488.7193
55888.2058,27585.0892,53626.8353,41601.5536,36373.3917,38782.5519,5884.0066,50350.0253,44510.7222,55974.0812,-127.6284,-1070.4249,25484.9643
55861.6072,27570.0688,53618.0288,41583.4934,36347.5531,38771.376,5877.0329,50325.6619,44494.4501,55966.7051,-150.3825,-1085.5347,25477.3647
55873.543,27573.1534,53620.0851,41589.6177,36359.4443,38776.9639,5881.0115,50340.0564,44498.9651,55971.9354,-140.056,-1078.2033,25479.5551
55893.6149,27581.3341,53619.8616,41596.3233,36378.5326,38783.4013,5883.1125,50360.62,44513.6279,55977.7021,-121.1017,-1064.3005,25483.6231
55897.1912,27582.0941,53623.2144,41599.0949,36383.0477,38781.6578,5882.1291,50363.6599,44518.0982,55978.5068,-124.4545,-1066.0887,25482.4609
55882.5284,27578.6072,53620.6663,41589.6624,36367.0439,38769.9455,5877.7928,50345.8232,44500.2615,55971.9354,-145.331,-1081.5561,25476.6941
55866.4352,27570.6053,53620.1745,41581.437,36349.1625,38764.134,5875.513,50331.6969,44488.728,55967.1968,-156.4175,-1090.765,25475.7553
55875.0182,27572.7063,53621.2921,41584.8792,36357.7455,38766.6821,5878.4634,50349.0418,44495.2995,55969.2085,-147.1639,-1084.1042,25478.0799
55894.7325,27571.7676,53622.4097,41593.954,36380.5443,38775.3546,5876.0941,50365.9844,44511.8397,55972.9636,-134.9151,-1068.7262,25480.4939
55895.9395,27582.7646,53627.9082,41602.6264,36384.5676,38774.5053,5877.167,50372.8241,44519.3946,55978.6409,-131.0259,-1065.1052,25483.5784
55878.7286,27577.7131,53629.8752,41593.5516,36361.4112,38766.6821,5875.3788,50359.9048,44509.694,55976.6293,-140.3242,-1075.387,25482.3714
55873.7218,27571.4993,53635.0608,41581.7499,36348.0896,38768.4703,5881.235,50348.103,44505.7601,55978.8644,-144.7946,-1076.3705,25486.2159
55883.7354,27570.6947,53635.6419,41580.0959,36360.7407,38773.8794,5884.6325,50361.7376,44520.7804,55980.4291,-134.334,-1066.044,25489.4793
55906.1319,27580.3059,53637.1171,41600.6595,36388.1439,38782.686,5889.684,50384.8046,44542.0593,55989.3698,-113.4127,-1047.1344,25495.6484
55905.953,27582.2729,53639.1288,41603.2076,36393.8212,38783.6695,5891.2933,50384.7152,44543.1322,55998.534,-108.7189,-1047.4473,25497.8836
55886.2835,27572.1699,53632.021,41588.9472,36365.8369,38771.2866,5882.2185,50368.7114,44522.0768,55986.1064,-125.6615,-1063.4512,25489.4793
55870.3244,27564.5256,53628.7129,41581.7499,36338.076,38766.8163,5878.5975,50357.5355,44508.9787,55975.2434,-138.2232,-1070.3802,25487.6912
55884.0036,27574.7627,53631.5739,41589.0366,36351.6659,38773.79,5882.889,50371.8406,44512.2421,55980.2055,-128.8354,-1059.6067,25494.7096
55902.1533,27582.9434,53631.0822,41597.2173,36380.4102,38775.1758,5883.4255,50393.1195,44529.4082,55982.8877,-116.0055,-1050.5319,25497.0789
55902.3321,27579.8142,53628.4,41604.1017,36386.4452,38776.8298,5882.4867,50398.7968,44531.554,55979.1327,-118.2854,-1053.0353,25492.6533
55882.3943,27573.511,53628.5341,41595.8762,36361.0089,38769.722,5881.5032,50386.9057,44519.9311,55973.5,-129.9977,-1067.1616,25487.6018
55870.4585,27570.9182,53630.3669,41591.4059,36346.3014,38768.4703,5884.0066,50361.827,44507.8611,55974.4388,-146.091,-1080.9302,25485.4113
55886.82,27578.5178,53632.5127,41597.9326,36364.7193,38776.651,5889.4157,50366.9679,44514.6114,55980.1161,-138.4914,-1073.8224,25489.077
55904.299,27582.8093,53631.708,41606.2027,36382.9136,38782.5519,5888.9687,50376.4898,44530.4364,55989.0121,-124.4545,-1058.802,25494.2179
55900.0522,27582.6752,53628.7129,41604.7722,36378.2197,38782.0154,5886.2865,50380.6472,44535.8008,55988.1628,-125.3486,-1060.9478,25490.3734
55878.5051,27575.6121,53628.0423,41592.747,36360.7407,38770.4819,5886.7335,50364.9563,44519.484,55982.5748,-137.0162,-1072.3025,25486.0371
55866.7928,27565.6879,53624.9131,41578.263,36335.4385,38761.3624,5884.9454,50343.3198,44503.3908,55971.4884,-150.919,-1085.9817,25480.8068
55873.4089,27563.1398,53620.1298,41576.6984,36341.9652,38760.6472,5880.788,50341.934,44505.4919,55971.1754,-148.0579,-1083.7913,25478.1246
55890.2621,27571.6335,53621.3368,41584.6556,36364.6299,38766.2351,5879.4916,50357.6696,44514.7455,55975.3329,-132.1882,-1074.0012,25483.6231
55893.749,27576.8191,53621.3368,41594.7586,36370.1284,38764.2235,5881.0562,50369.6054,44509.9622,55976.5399,-127.6284,-1071.1849,25483.489
55872.7384,27571.8123,53622.0074,41589.9754,36356.9409,38762.3906,5879.3575,50355.5238,44505.626,55973.6341,-139.8772,-1080.1703,25479.7339
55853.1582,27568.4595,53620.0851,41578.4419,36337.5396,38756.4003,5877.7481,50337.1507,44500.5745,55969.8343,-155.6128,-1090.7203,25475.9341
55869.6538,27579.6354,53621.9627,41586.712,36349.4754,38768.2468,5882.5761,50364.0175,44510.6328,55971.2201,-148.1473,-1080.7514,25477.0964
55888.027,27586.6538,53626.1201,41596.0103,36370.7095,38777.7686,5888.2982,50405.2341,44528.7824,55975.9587,-129.8189,-1069.8438,25480.7174
55888.3399,27588.4867,53626.2542,41602.9841,36381.6619,38781.7472,5891.9638,50417.3934,44535.175,55980.1161,-124.1416,-1065.1052,25481.2539
55871.9784,27587.8608,53624.9578,41595.4739,36367.4462,38774.1923,5892.7685,50400.3167,44526.0108,55978.7303,-138.5808,-1072.0789,25479.7786
55862.9036,27586.475,53625.1366,41592.4788,36353.8116,38770.6161,5895.4954,50381.0048,44516.2207,55973.9918,-147.745,-1079.7679,25480.9409
55870.682,27579.9483,53624.9578,41594.7586,36353.2305,38770.3925,5895.3166,50390.2584,44518.59,55974.9305,-136.3903,-1075.0294,25481.2539
55897.0571,27583.7928,53628.4447,41609.9578,36375.0458,38776.0699,5899.6975,50416.9911,44534.8173,55982.2619,-117.749,-1056.4327,25490.731
55901.3486,27578.6519,53627.0142,41608.2591,36378.4879,38773.5218,5894.4672,50417.1699,44532.8504,55975.1093,-118.643,-1053.3482,25489.7028
55889.9939,27577.4896,53628.3553,41599.4972,36363.4229,38771.1525,5891.3827,50399.0203,44522.2557,55975.8693,-125.3933,-1060.5007,25488.5852
55875.2418,27573.9133,53635.1502,41598.3349,36350.0118,38772.3595,5895.5401,50384.1341,44514.7455,55975.467,-132.367,-1069.1285,25490.5969
55882.4837,27579.3672,53631.7974,41603.2523,36366.8203,38771.7336,5895.1825,50390.7055,44518.9029,55976.9869,-127.3155,-1062.1101,25493.1003
55906.3107,27589.5596,53626.7459,41619.1667,36391.0496,38777.5004,5894.5566,50413.1466,44529.2741,55982.3066,-108.8083,-1049.906,25497.0342
55909.3058,27586.475,53622.8567,41618.7197,36390.0214,38778.8862,5889.8628,50423.9202,44528.5589,55980.5632,-103.6674,-1053.0353,25494.352
55888.921,27583.167,53621.6944,41602.537,36365.7922,38774.2817,5885.5712,50404.5188,44515.1478,55970.9072,-122.8005,-1068.145,25486.7077
55867.5528,27575.8803,53619.4146,41582.5546,36337.5843,38765.7881,5878.7316,50381.4518,44502.9438,55968.4932,-138.3573,-1081.6455,25480.9409
55880.8744,27578.0708,53619.9957,41588.3213,36340.6688,38774.0135,5878.8657,50392.583,44506.9671,55972.1589,-135.228,-1077.6669,25482.6844
55893.7043,27581.7811,53619.8616,41597.3514,36364.3616,38780.272,5878.8657,50410.7326,44517.0254,55971.846,-125.4827,-1069.2179,25483.2655
55898.3982,27580.8871,53618.744,41597.7985,36367.1333,38780.9873,5881.2797,50408.6316,44525.966,55973.0083,-122.3981,-1066.5804,25480.7174
55882.6625,27580.9765,53617.4923,41586.3544,36351.4423,38780.0038,5879.6257,50399.9591,44514.8796,55970.0578,-135.4069,-1073.6883,25476.6941
55865.2282,27575.0756,53617.4923,41575.9832,36332.2198,38775.2205,5876.4517,50385.8775,44498.6969,55965.8557,-148.3709,-1089.9603,25469.631
55869.3856,27573.1534,53613.6925,41579.5147,36332.4434,38772.4042,5873.9483,50388.3809,44503.4355,55963.3523,-143.6323,-1088.4404,25467.0382
55887.8034,27577.1767,53617.9841,41588.7684,36360.6513,38774.9076,5875.6471,50407.4693,44512.4656,55971.9801,-128.3884,-1076.1023,25471.285
55892.6314,27572.5275,53618.8334,41587.8296,36370.486,38771.0184,5878.1505,50405.9494,44515.0584,55969.8343,-129.953,-1072.526,25471.8661
55868.4021,27566.0455,53619.9957,41582.644,36350.593,38762.7482,5883.6043,50380.4684,44493.8689,55968.7167,-141.6653,-1080.7514,25472.8496
55844.5305,27561.9775,53621.5603,41570.7082,36326.8554,38759.0826,5885.4818,50346.8513,44478.178,55965.9451,-149.6226,-1089.8262,25472.2685
55840.7754,27559.2059,53618.5652,41568.6518,36338.7465,38755.3722,5883.9172,50338.4918,44481.1732,55962.95,-148.1473,-1085.5794,25473.7437
55856.2428,27568.3254,53615.6148,41576.7878,36366.2839,38758.7696,5884.5878,50362.4529,44489.5774,55968.0015,-131.7859,-1073.4648,25476.3365
55855.2593,27572.6169,53613.8713,41576.6984,36365.7922,38755.7745,5883.0231,50355.3897,44482.4696,55963.6205,-135.7198,-1072.1684,25475.2636
55829.4207,27566.4926,53614.8101,41564.092,36343.0828,38745.2245,5888.8346,50325.796,44462.5765,55961.4748,-146.9404,-1085.5794,25472.1791
55817.4402,27563.7656,53615.1677,41557.4312,36326.2743,38742.5423,5894.959,50295.2188,44443.4881,55957.6303,-157.3116,-1090.005,25474.5483
55833.8463,27577.0873,53620.1745,41570.9317,36345.765,38752.1535,5907.2524,50293.2519,44454.0828,55965.2299,-140.9054,-1077.6669,25483.7573
55854.9464,27596.2651,53622.2756,41586.8014,36374.5987,38754.8804,5915.2991,50320.6551,44470.3996,55971.7119,-117.3019,-1060.3219,25488.6299
55859.372,27606.9939,53623.0356,41593.9987,36379.829,38756.758,5920.3506,50325.2596,44464.4541,55970.639,-111.4458,-1055.8963,25487.9147
55852.7112,27617.3204,53629.9199,41590.0201,36369.9943,38759.4849,5924.955,50295.3529,44447.8691,55967.2862,-121.1911,-1061.0819,25489.8816
55841.4906,27620.0026,53633.8985,41584.5662,36360.2042,38761.6754,5930.0512,50271.5707,44439.733,55962.9053,-125.2592,-1069.0838,25489.3452
55854.7676,27625.9035,53640.0676,41593.954,36371.7824,38772.2701,5936.3544,50275.147,44458.1956,55968.4932,-110.4623,-1058.9361,25495.2461
55871.889,27633.0113,53642.9733,41605.6663,36392.7931,38776.7851,5935.3709,50291.0614,44461.9954,55974.3047,-101.9239,-1046.2403,25494.4414
55869.028,27635.8724,53642.6604,41602.5817,36392.346,38777.0534,5935.1027,50280.869,44455.7816,55970.3708,-106.5731,-1048.8331,25493.7261
55852.443,27635.1571,53647.4884,41593.641,36371.4695,38772.9853,5938.9919,50263.2558,44449.7913,55972.1589,-119.4924,-1058.1315,25495.2461
55829.823,27625.68,53640.8722,41583.5381,36347.7767,38767.9338,5933.851,50245.1509,44435.9779,55959.0161,-135.7645,-1074.7612,25489.524
55827.409,27617.4545,53637.4301,41585.3262,36350.1459,38766.6821,5923.9268,50244.078,44432.044,55959.5078,-135.988,-1076.4599,25486.2607
55840.2389,27621.2096,53629.9646,41591.6294,36365.5686,38758.7249,5916.9978,50255.8351,44437.7214,55960.2678,-121.6829,-1070.2461,25483.6679
55842.2953,27610.7937,53627.4165,41588.2319,36360.696,38749.3819,5909.7111,50245.5086,44431.4182,55951.9529,-123.5604,-1077.041,25481.0303
55818.6024,27601.7636,53622.9014,41578.6207,36328.5094,38742.6764,5904.2573,50222.7545,44415.3249,55944.6663,-139.3855,-1091.6591,25475.9789
55794.9096,27587.2797,53614.8101,41565.8802,36301.1509,38731.0088,5897.1047,50190.4339,44394.5825,55932.4175,-156.0599,-1104.5784,25467.9322
55795.1331,27584.9104,53615.5254,41567.8918,36304.3249,38730.2488,5893.3049,50189.1822,44395.8342,55931.9705,-148.3709,-1095.1906,25469.7651
55806.4431,27580.44,53610.3398,41577.5031,36327.213,38734.0486,5889.5499,50199.0169,44401.6904,55932.7304,-133.1717,-1088.8427,25470.5697
55816.3673,27577.0873,53606.6294,41581.2582,36329.8953,38732.3052,5888.2535,50194.9042,44399.9916,55931.0317,-128.2543,-1087.5911,25466.7252
55802.0622,27573.5557,53603.9472,41573.6139,36310.3598,38727.3431,5885.5712,50174.5194,44392.4814,55928.0366,-138.4467,-1096.04,25462.5678
55785.7454,27570.3371,53603.0084,41564.6285,36282.5543,38718.0448,5883.0231,50152.2124,44383.1831,55925.6226,-151.0978,-1103.9972,25461.3161
55797.1448,27572.9299,53603.3213,41569.6353,36291.5844,38717.1507,5883.7831,50159.9461,44384.2113,55925.8461,-145.4651,-1099.8398,25464.043
55826.6491,27576.1038,53603.8578,41585.9073,36320.0605,38725.5549,5886.51,50176.1287,44395.3872,55930.9423,-125.885,-1086.1605,25470.1674
55839.166,27581.8259,53607.5681,41589.0813,36321.8486,38722.9174,5889.8628,50183.6389,44407.2783,55936.4408,-121.6382,-1082.8972,25471.5085
55825.2186,27578.7413,53613.916,41578.3077,36302.9391,38719.207,5895.5848,50165.5787,44397.3094,55934.0715,-132.2776,-1088.1275,25471.285
55806.6219,27569.4877,53608.9987,41567.4001,36282.1966,38716.7037,5892.992,50144.0763,44383.1384,55924.9073,-144.884,-1098.4093,25469.0051
55814.1768,27574.5839,53609.2222,41573.6139,36296.2782,38723.9009,5894.0202,50157.7556,44389.7098,55930.7635,-142.2465,-1090.2286,25468.9157
55840.5966,27584.374,53612.0385,41584.4321,36319.7476,38732.3052,5898.4905,50178.1851,44409.4688,55933.2669,-130.0871,-1078.4268,25473.2519
55846.855,27585.4468,53609.8033,41580.0065,36324.7544,38731.9475,5898.7588,50184.9353,44411.7039,55934.7421,-132.7693,-1076.5493,25473.8778
55837.4673,27582.9434,53615.123,41573.6139,36308.08,38736.0603,5904.6149,50165.7575,44404.9537,55937.0667,-133.8869,-1079.5444,25476.2918
55831.8794,27577.132,53616.0618,41565.612,36289.8409,38728.6842,5903.0503,50150.916,44398.3376,55935.1444,-143.8111,-1084.7747,25475.353
55835.5451,27577.5343,53613.916,41560.5605,36291.8973,38724.5268,5898.1329,50156.8168,44403.2103,55939.883,-140.4583,-1081.3326,25476.56
55867.1057,27590.3195,53620.6216,41582.4205,36326.9001,38739.413,5903.6314,50183.2366,44419.4824,55953.9199,-118.8219,-1063.9429,25484.3384
55873.543,27596.8462,53620.2639,41584.4321,36336.4667,38742.5423,5907.5207,50193.876,44422.5222,55955.8868,-116.4526,-1064.077,25483.8914
55857.0474,27595.7286,53618.1629,41573.9268,36320.5075,38738.3401,5905.2855,50178.2298,44415.1908,55953.1599,-127.0026,-1074.18,25480.1363
55839.0766,27587.4585,53617.0453,41560.3369,36299.631,38733.7357,5899.2505,50159.6779,44406.116,55945.4709,-140.4583,-1087.6805,25475.2189
55849.9396,27590.5877,53621.3815,41564.5391,36298.3793,38737.312,5901.441,50170.7643,44415.0567,55947.3485,-135.4963,-1082.9419,25478.3928
55866.4352,27593.4041,53626.7906,41575.3126,36325.559,38744.6433,5904.4808,50196.9159,44439.6436,55955.4398,-116.9443,-1065.2393,25484.4725
55865.9434,27587.1009,53627.5506,41577.8607,36329.6717,38742.4529,5902.335,50205.7672,44439.1519,55962.4135,-117.7043,-1066.3122,25483.2208
55850.2525,27580.9765,53626.7906,41575.2679,36313.8467,38734.585,5904.4808,50191.8197,44425.3385,55960.0443,-130.1318,-1074.9847,25480.4492
55832.1476,27574.0474,53625.2707,41561.231,36292.7914,38722.6492,5898.9823,50164.6399,44410.0499,55953.0258,-148.7732,-1085.1324,25474.9954
55837.6014,27576.6402,53625.6731,41570.8423,36300.7933,38723.588,5900.9939,50175.1453,44413.045,55957.8538,-138.7596,-1080.9302,25477.9905
55858.2991,27588.0843,53624.1978,41582.2864,36323.1897,38730.2488,5898.2223,50199.6875,44421.7622,55962.9053,-123.8734,-1071.4084,25478.1246
55867.9998,27594.6558,53621.1133,41588.9472,36332.5775,38735.9709,5895.7636,50203.3532,44416.7554,55959.4184,-124.231,-1072.4813,25476.113
55849.0008,27587.8161,53615.7936,41575.9385,36315.0537,38730.3382,5892.6344,50188.3328,44409.5135,55950.0307,-139.8772,-1083.3442,25473.8331
55823.4304,27581.6917,53611.6809,41561.231,36296.3676,38722.6492,5890.0863,50169.602,44398.9635,55947.2591,-154.0035,-1096.8,25467.2617
55829.7783,27585.4468,53613.5137,41569.5012,36313.042,38732.3946,5891.0698,50193.6525,44411.7486,55957.2726,-145.0181,-1092.1061,25469.9439
55851.8171,27597.1591,53610.7421,41592.0317,36342.0993,38743.6152,5896.5683,50214.7079,44430.6135,55963.3076,-121.1911,-1078.0692,25473.2519
55858.6121,27606.8598,53609.6692,41593.3728,36345.7203,38746.208,5896.3895,50219.2676,44421.8963,55958.7479,-119.6265,-1078.4268,25469.5415
55843.2788,27604.7587,53610.9656,41585.0133,36327.8836,38743.5257,5893.8414,50205.2754,44409.6923,55947.2591,-135.228,-1087.0546,25466.7699
55836.3944,27598.0979,53612.9773,41575.4914,36304.0566,38740.5306,5888.477,50185.2036,44399.187,55942.744,-149.4884,-1099.3034,25463.596
55853.6947,27601.0931,53613.6031,41580.3194,36317.8253,38744.688,5890.2204,50197.8993,44407.0101,55947.572,-140.8607,-1090.5862,25463.9089
55868.8045,27612.1348,53614.3184,41591.7635,36345.005,38755.9533,5892.5897,50226.6437,44427.7078,55954.3222,-123.8734,-1075.5211,25469.0945
55876.5829,27613.5206,53616.643,41594.1775,36353.1411,38765.2069,5895.8083,50241.3064,44434.9498,55964.5593,-124.5439,-1070.5143,25476.0683
55865.8987,27605.8763,53614.1843,41581.3923,36331.4599,38756.3556,5895.0037,50224.7661,44427.2161,55962.19,-137.7314,-1078.1586,25473.5202
55856.0193,27597.6509,53617.2688,41572.8092,36314.4726,38755.2828,5894.3778,50214.4843,44416.8895,55953.607,-146.4933,-1086.3841,25472.0002
55864.7811,27595.0134,53623.2591,41580.7664,36328.42,38764.447,5896.7918,50226.2414,44429.5406,55963.5758,-137.2844,-1079.3209,25478.7505
55881.8132,27601.7636,53625.5389,41594.4457,36360.2042,38766.548,5897.06,50248.3249,44447.9585,55968.5826,-116.3185,-1064.3899,25485.2772
55886.82,27602.2553,53623.4826,41596.7256,36366.7756,38758.0991,5898.0435,50260.4842,44450.4619,55968.4485,-114.128,-1062.423,25483.9361
55860.9813,27592.6441,53617.4923,41581.1688,36341.0711,38746.1632,5896.6577,50232.9022,44439.2413,55961.7877,-130.8024,-1078.8292,25475.3083
55843.994,27586.6091,53614.5419,41563.5556,36320.4181,38734.138,5892.992,50213.9479,44427.8419,55957.9879,-149.6673,-1095.3248,25471.285
55856.064,27591.9288,53612.6196,41565.2543,36327.6601,38736.0156,5895.1825,50226.1072,44434.011,55963.4864,-143.23,-1087.9487,25475.3083
55878.1475,27596.6227,53614.9442,41575.8044,36352.6046,38736.6414,5899.5634,50239.2948,44447.4667,55968.8061,-125.3039,-1072.2578,25479.9128
55885.9259,27602.3,53618.0288,41575.7149,36360.0701,38734.6298,5900.0552,50247.0732,44456.4074,55973.053,-122.3534,-1070.5143,25479.5104
55867.3292,27595.5945,53618.3864,41563.8685,36341.8758,38724.8844,5899.0717,50227.0907,44447.2879,55970.5943,-137.0609,-1084.1042,25476.56
55843.9046,27579.6801,53613.022,41549.6081,36314.0255,38715.139,5892.7238,50197.6311,44437.7214,55962.2347,-148.5497,-1098.454,25475.8447
55847.7491,27578.8307,53611.6809,41554.9725,36319.4793,38715.4967,5892.6344,50205.7672,44445.2316,55962.3688,-148.4603,-1096.5317,25474.6825
55867.8657,27581.5576,53609.2222,41563.1086,36339.3724,38714.9602,5888.5217,50225.5261,44455.3345,55967.5992,-141.3524,-1086.3841,25473.6543
55868.715,27580.6636,53613.5137,41566.1037,36349.2519,38717.2401,5891.6509,50235.4503,44461.0119,55983.1113,-137.0609,-1081.7349,25478.6164
55852.7559,27577.579,53610.2057,41556.716,36330.0741,38715.7202,5890.3545,50219.804,44445.9468,55971.5778,-148.6838,-1091.4356,25470.4356
55835.858,27574.1369,53604.7071,41545.1378,36304.5931,38710.8028,5886.3759,50198.4358,44434.011,55963.9335,-163.7489,-1104.2207,25462.5678
55844.0387,27572.8405,53603.6789,41547.82,36316.4395,38715.5861,5888.0746,50212.115,44436.0673,55965.0064,-155.2105,-1101.0021,25461.8078
55862.993,27578.9648,53604.5283,41563.8685,36351.9788,38724.1244,5889.1028,50241.7982,44452.8311,55971.3989,-136.8374,-1086.9205,25469.8098
55863.8424,27580.5742,53607.2552,41568.5624,36357.7008,38729.9359,5888.477,50246.2685,44450.4172,55977.2998,-131.0259,-1079.2315,25474.5483
55848.5985,27576.6402,53607.2105,41561.7228,36346.5697,38728.8183,5890.9357,50233.2598,44445.008,55976.4504,-140.0113,-1085.1324,25473.5649
