FC3,FCz,FC4,C5,C3,C1,Cz,C2,C4,C6,CP3,CPz,CP4
52389.0853,24923.265,51337.0782,38507.2231,33950.0159,35861.7604,4792.0346,48937.2611,44191.4499,54954.8864,-3051.9962,-3151.685,22605.9258
52388.2806,24931.9822,51345.6613,38513.0793,33947.9148,35868.6447,4797.2202,48945.5312,44187.7395,54955.7805,-3053.7844,-3150.6568,22606.5964
52373.752,24921.5215,51345.5272,38505.9714,33925.876,35863.325,4795.3874,48926.4429,44173.7473,54951.489,-3066.7484,-3164.3361,22605.4341
52369.2816,24912.8491,51342.9791,38494.1697,33912.2415,35860.9557,4793.0181,48918.1727,44169.6793,54948.4491,-3076.0467,-3174.0367,22598.7285
52377.3283,24912.1785,51340.5651,38496.7625,33920.7351,35861.671,4793.4651,48921.9725,44177.5918,54945.7669,-3070.0117,-3165.0066,22596.3145
52381.441,24904.713,51335.8265,38498.9083,33940.047,35855.4125,4791.3641,48925.7723,44185.1914,54943.7553,-3060.3558,-3158.4352,22596.6275
52374.0649,24900.4662,51333.189,38490.3252,33935.8896,35848.5729,4786.849,48922.5984,44176.7424,54939.5084,-3072.1575,-3170.6393,22592.47
52360.0727,24896.2194,51328.4057,38478.2553,33909.8722,35838.0675,4782.5128,48897.2962,44154.6589,54932.5794,-3088.966,-3185.302,22584.2446
52352.6073,24891.8384,51328.7634,38474.0978,33901.9597,35835.4747,4782.021,48891.1271,44149.4286,54931.6853,-3086.8649,-3184.9891,22585.6751
52359.0446,24891.0785,51327.7352,38480.5351,33915.5048,35836.5923,4777.953,48913.8365,44154.2566,54934.6358,-3074.5715,-3171.5333,22587.5974
52370.7569,24901.405,51325.7682,38494.0356,33930.5699,35845.1754,4776.5225,48931.8073,44163.7337,54936.3792,-3065.2285,-3158.3011,22589.2067
52363.4702,24900.9132,51325.5447,38497.3437,33923.5067,35843.4319,4774.6897,48919.1115,44159.3975,54933.1158,-3070.727,-3165.0513,22586.8821
52341.9231,24884.1047,51316.2017,38479.4623,33895.9247,35835.4747,4765.7043,48891.3953,44143.483,54925.6504,-3089.5025,-3185.7938,22583.5294
52334.6364,24875.6111,51312.7148,38473.5167,33886.6264,35837.397,4762.3068,48885.0474,44140.9349,54927.4832,-3095.001,-3189.5489,22582.0094
52346.0358,24879.3215,51307.5739,38479.4623,33904.4183,35843.119,4763.3797,48905.7004,44153.6307,54931.6853,-3083.0652,-3179.8035,22583.127
52356.72,24877.5333,51300.4214,38483.2621,33916.8012,35838.4699,4759.4011,48915.9375,44157.1623,54932.1324,-3072.6492,-3171.3545,22583.9317
52354.1272,24870.2019,51301.1813,38476.9142,33907.19,35836.9499,4756.5401,48903.8676,44150.9038,54930.8807,-3076.1361,-3178.4624,22584.3787
52336.067,24860.8142,51298.2756,38462.4749,33881.7984,35830.6915,4751.2203,48879.4595,44132.1731,54920.2412,-3093.1681,-3194.5556,22579.0143
52324.7123,24855.8074,51297.6944,38453.9813,33870.6225,35824.2095,4749.7451,48866.7637,44121.2654,54910.183,-3105.7745,-3200.5906,22574.8122
52334.9941,24853.0805,51297.7391,38459.1222,33887.1181,35823.0472,4750.5051,48884.1981,44129.8038,54911.9264,-3093.7493,-3189.3253,22573.9628
52338.3021,24855.0028,51297.3815,38461.4915,33902.362,35822.1531,4750.371,48898.3691,44133.2459,54912.2393,-3088.3849,-3181.9046,22575.6615
52331.0602,24851.65,51293.9841,38459.2116,33901.915,35816.6993,4750.9074,48890.546,44124.5288,54908.663,-3092.4976,-3187.2243,22572.4429
52317.068,24850.5771,51294.5205,38447.3205,33887.1628,35809.8149,4748.5828,48867.2107,44113.7552,54902.7175,-3102.8688,-3199.9648,22568.5537
52305.4898,24856.7462,51297.4709,38440.7043,33879.295,35809.7702,4750.0581,48851.341,44102.7135,54899.9906,-3107.5627,-3203.9881,22567.1679
52317.3809,24861.9765,51297.7391,38452.1931,33905.8042,35815.4476,4756.1377,48863.9921,44107.9438,54906.9196,-3092.4976,-3190.4429,22571.6382
52327.4839,24869.889,51301.7178,38463.0114,33927.2618,35819.158,4763.4691,48877.4925,44112.9059,54916.0838,-3077.1196,-3173.6344,22578.5673
52321.5383,24878.3827,51305.1599,38465.3807,33919.0811,35815.0899,4764.4526,48873.0669,44100.523,54914.7874,-3086.105,-3183.6033,22577.6285
52304.3722,24876.0581,51301.9413,38448.2592,33892.7507,35805.5681,4763.2009,48847.4965,44086.2626,54908.216,-3102.5559,-3200.9035,22570.9677
52287.4743,24876.7734,51303.4612,38436.9493,33884.8829,35803.3776,4763.1562,48825.4577,44078.0371,54907.1431,-3106.0874,-3205.3292,22569.7607
52316.7104,24890.9444,51310.6138,38459.8374,33913.1355,35816.0287,4770.264,48842.9815,44094.3092,54915.6815,-3092.14,-3189.1912,22579.7743
52331.9989,24902.5673,51312.4019,38471.7286,33931.7769,35820.4544,4777.8636,48845.4849,44108.0779,54922.2529,-3076.0467,-3178.4624,22586.4798
52314.3858,24902.3438,51312.1337,38464.3525,33921.1822,35814.6876,4776.4778,48834.4878,44097.1255,54915.8156,-3080.5171,-3185.3467,22583.127
52292.1681,24901.3603,51313.3854,38451.5226,33902.8537,35808.5185,4773.7956,48812.6725,44081.8369,54909.7806,-3095.8056,-3198.1319,22579.1931
52281.5287,24905.2495,51308.6021,38443.476,33888.5486,35804.6293,4770.3087,48791.3489,44065.1178,54903.2986,-3105.1934,-3205.1504,22575.0804
52293.0175,24914.9501,51310.9714,38455.3224,33902.9431,35810.7984,4771.5604,48807.5316,44074.1032,54908.3501,-3089.2789,-3188.923,22578.7014
52312.0165,24925.0531,51321.432,38476.8695,33925.5631,35823.226,4780.1435,48826.3518,44089.5259,54918.7213,-3072.6492,-3175.9143,22587.6868
52306.1156,24925.0084,51321.7002,38474.7684,33918.2317,35821.3037,4780.367,48816.8299,44083.9827,54920.9565,-3077.7454,-3184.4974,22590.2796
52297.7561,24916.9171,51317.5428,38461.8938,33895.1647,35815.4476,4778.0871,48788.3091,44064.0897,54909.6465,-3094.7775,-3198.8919,22587.0162
52289.0836,24916.4253,51316.7828,38459.7927,33880.9043,35817.5933,4776.6119,48766.0915,44059.7087,54904.5503,-3097.6385,-3203.094,22586.0327
52303.1205,24922.5944,51317.1852,38473.7402,33906.2959,35820.812,4779.6518,48780.5754,44075.4443,54906.8302,-3079.8465,-3189.4594,22592.6042
52313.0447,24929.6129,51317.3193,38483.3515,33926.5019,35822.2872,4780.9035,48791.9748,44080.4511,54908.7971,-3070.727,-3181.9046,22595.1076
52309.4684,24928.3612,51314.7712,38477.3612,33911.5709,35821.259,4779.8306,48786.8786,44071.6445,54906.5173,-3075.6891,-3187.6266,22590.816
52295.5656,24924.4273,51316.9616,38469.5381,33889.8003,35818.1298,4777.953,48767.7008,44061.9886,54902.8963,-3084.451,-3199.6965,22586.6586
52289.7989,24921.9239,51315.8888,38461.5362,33876.7916,35820.1861,4778.6683,48756.5249,44055.5513,54903.8798,-3092.5423,-3207.4749,22583.7082
52307.4567,24929.5682,51316.604,38469.9851,33890.6944,35824.7459,4781.5293,48769.936,44063.6873,54909.87,-3081.5899,-3194.3768,22587.2844
52327.0816,24942.4428,51322.9072,38485.4525,33921.4057,35834.3571,4786.1338,48779.8154,44074.1032,54913.044,-3068.5365,-3181.1446,22591.7548
52329.6297,24945.572,51324.1142,38482.9044,33923.5961,35830.5573,4789.9783,48777.0438,44079.9147,54910.4512,-3072.2022,-3178.2836,22591.3525
52316.1292,24942.1299,51325.0083,38475.1707,33903.6137,35825.8188,4789.9783,48755.8097,44073.6115,54904.7738,-3087.6249,-3191.1135,22587.8656
52313.0447,24937.436,51323.8907,38469.4934,33889.5321,35818.4874,4787.0278,48737.1683,44062.5697,54898.6942,-3094.9116,-3195.4497,22585.988
52330.479,24941.5487,51326.26,38478.7917,33910.051,35824.3436,4791.8558,48749.3277,44077.8136,54907.4113,-3077.8348,-3180.474,22591.8442
52343.4877,24941.6381,51325.4553,38482.368,33926.3231,35831.2726,4791.1406,48760.2353,44077.0984,54909.9594,-3069.2965,-3177.2107,22593.5876
52335.1729,24941.1017,51327.3776,38478.9705,33915.6836,35832.4349,4790.4253,48764.0798,44080.8088,54912.8205,-3070.5482,-3181.5022,22594.8393
52317.7385,24936.1396,51327.0646,38470.4322,33889.5321,35828.7245,4786.3126,48738.7776,44068.8282,54910.4512,-3084.451,-3193.4381,22592.6042
52311.9718,24934.2173,51324.6953,38461.4468,33874.1988,35821.0802,4781.4846,48730.3287,44064.492,54904.5056,-3090.933,-3193.2145,22589.5643
52340.582,24946.3767,51332.2949,38473.2038,33897.981,35828.6351,4788.4583,48749.1041,44082.731,54913.4463,-3075.7338,-3178.1048,22593.0959
52358.4634,24947.8519,51333.636,38480.2222,33916.086,35831.4514,4790.7829,48768.9525,44080.7641,54914.6533,-3067.5083,-3174.6179,22595.1523
52359.3128,24949.7741,51338.6428,38483.575,33910.3192,35834.983,4795.4768,48761.8893,44083.6698,54916.8438,-3069.52,-3175.2884,22596.5828
52345.7676,24944.8568,51339.7604,38479.9093,33892.0802,35827.9645,4795.1639,48736.6766,44077.6348,54913.6698,-3077.1196,-3185.2126,22595.5546
52347.5558,24946.2426,51343.9626,38477.9871,33889.7556,35830.9597,4796.6391,48741.1469,44080.8982,54912.7758,-3078.3266,-3187.2243,22596.3145
52360.9221,24955.1386,51341.5486,38485.1396,33906.6535,35837.1735,4794.1357,48766.0915,44096.6785,54915.2792,-3066.1225,-3175.7802,22600.2038
52372.7238,24960.4583,51340.7439,38490.9064,33925.2502,35837.7546,4794.4039,48781.8271,44097.4832,54917.1567,-3057.1818,-3165.9901,22600.6508
52368.4323,24952.0987,51343.4708,38484.7373,33915.2366,35843.2084,4797.5779,48772.9758,44096.455,54923.3258,-3062.5463,-3170.5052,22597.5662
52350.9085,24939.8947,51339.3134,38468.2864,33888.2804,35835.8324,4792.7052,48756.2567,44086.7543,54919.8389,-3081.5452,-3189.3253,22592.8277
52343.3089,24936.3631,51335.3795,38462.8773,33881.7537,35825.4164,4793.2416,48743.248,44087.4249,54914.0275,-3089.5025,-3194.4662,22589.9667
52358.8657,24936.0949,51335.9159,38476.2436,33908.4864,35825.8635,4794.1804,48753.6192,44095.7844,54922.7893,-3076.5384,-3179.8035,22593.4982
52380.6363,24938.7771,51341.6827,38490.7275,33925.6972,35831.0491,4799.0531,48767.4326,44107.765,54935.1722,-3057.003,-3161.4751,22599.6673
52375.6742,24936.5419,51342.1744,38485.989,33915.2813,35829.8868,4798.159,48766.9408,44098.2878,54931.5512,-3060.8922,-3168.0018,22599.8908
52362.0844,24936.0949,51342.4426,38485.6313,33900.7527,35832.122,4797.4885,48757.0614,44088.4531,54925.1139,-3074.2139,-3178.2836,22596.851
52356.7647,24935.8267,51342.1744,38483.3515,33889.7556,35834.7148,4796.2815,48745.2149,44085.3685,54916.0391,-3072.8728,-3177.9259,22594.8393
52373.1709,24945.3932,51345.3037,38491.6216,33912.0179,35847.5894,4798.4272,48769.8913,44096.902,54923.6834,-3058.0312,-3167.3312,22598.7732
52377.7753,24948.7907,51342.4426,38499.4,33925.9654,35849.3328,4799.9471,48795.2381,44110.1342,54928.2432,-3053.2032,-3164.7831,22599.265
52374.5567,24954.1104,51344.3649,38496.8072,33923.5067,35851.5233,4804.1046,48792.7794,44111.2965,54931.3724,-3055.1255,-3167.1971,22600.1143
52360.2068,24952.1881,51343.8284,38486.5701,33904.0607,35845.4436,4801.8694,48778.0273,44098.6902,54922.9681,-3072.5151,-3178.0601,22596.5828
52361.1456,24957.1502,51349.2376,38496.8966,33900.1715,35852.015,4804.7304,48783.6152,44096.0974,54922.834,-3072.5151,-3180.0717,22596.404
52372.8579,24957.6867,51347.807,38501.8587,33916.98,35858.6311,4802.8529,48799.172,44105.6192,54928.4667,-3060.4899,-3166.7501,22599.0862
52384.0785,24959.9665,51348.9246,38509.3242,33935.4426,35867.7953,4804.4175,48808.8727,44115.0069,54931.6406,-3050.074,-3156.96,22601.5896
52391.0969,24965.5992,51355.5408,38508.8772,33933.9674,35876.5572,4809.469,48813.8795,44122.0254,54929.6737,-3049.0458,-3159.2399,22603.0201
52377.5965,24958.4466,51355.3172,38499.4894,33911.6156,35875.5738,4804.5516,48803.5977,44107.9885,54922.9234,-3063.798,-3173.2321,22598.2368
52376.6577,24951.3835,51354.7808,38494.572,33898.6069,35873.9197,4802.0035,48803.6871,44105.351,54919.3025,-3069.1624,-3175.8696,22596.1804
52396.372,24955.0045,51353.7526,38502.7975,33922.1209,35876.6913,4801.7353,48829.6598,44115.8116,54922.2082,-3058.8359,-3165.9454,22599.4885
52406.9667,24959.6089,51352.9927,38513.9287,33943.0869,35881.5193,4802.8976,48845.4401,44132.1284,54932.6688,-3045.693,-3155.1719,22604.0035
52394.4497,24956.122,51349.2376,38508.8325,33934.0568,35874.8138,4799.6342,48839.2711,44125.8699,54928.2432,-3050.6104,-3159.9551,22601.0978
52377.4177,24952.6799,51348.0753,38500.2941,33917.6506,35864.8449,4801.0647,48823.1778,44105.2169,54919.7048,-3069.2518,-3173.6791,22595.4205
52362.2632,24951.5623,51345.9295,38490.9958,33907.9499,35861.671,4799.0084,48813.7901,44102.9817,54916.5756,-3075.4656,-3181.5022,22591.2631
52376.1213,24959.296,51346.4212,38498.1036,33929.2735,35865.1131,4801.7353,48830.9562,44122.7406,54929.4055,-3060.0429,-3166.303,22597.298
52386.1349,24964.3475,51346.5106,38499.8024,33947.736,35863.7273,4800.9753,48843.9649,44131.0108,54940.626,-3054.0079,-3159.0611,22602.4836
52386.3137,24962.0229,51349.5058,38498.2377,33943.3998,35859.5252,4801.5565,48845.306,44135.2576,54939.419,-3056.7795,-3160.8045,22604.093
52376.0319,24955.7644,51351.741,38494.4379,33929.2288,35852.4621,4803.9705,48826.7988,44127.658,54938.8379,-3066.9272,-3171.9804,22603.1542
52365.3924,24955.4068,51350.1763,38487.7324,33919.0811,35849.4222,4804.641,48820.8085,44124.0817,54935.9322,-3072.9622,-3176.3613,22601.9472
52382.5139,24963.2746,51352.3221,38496.9413,33940.8517,35854.429,4807.9044,48843.2497,44136.7775,54943.6212,-3059.0147,-3161.9668,22607.0881
52398.9201,24970.606,51354.2891,38500.5623,33961.4153,35863.5932,4812.2406,48862.1593,44152.8708,54953.3218,-3047.7047,-3148.9581,22613.5254
52391.7675,24973.7352,51355.7643,38497.0307,33953.5028,35856.8877,4815.7722,48858.583,44152.6473,54955.1547,-3049.2246,-3149.718,22615.2688
52370.0416,24965.9121,51357.3289,38484.0667,33928.2006,35852.1044,4814.9675,48838.7346,44140.7114,54949.4773,-3062.5015,-3161.9668,22612.4972
52365.6607,24965.1521,51357.3736,38482.0551,33923.2385,35858.6758,4810.8995,48830.1963,44135.5258,54942.3248,-3069.6541,-3168.9405,22609.5915
52385.9113,24967.1191,51353.3056,38487.2854,33938.2142,35856.843,4809.5584,48839.8522,44140.622,54945.007,-3060.3558,-3159.4187,22610.6197
52395.5673,24964.7051,51351.5621,38494.3038,33956.0956,35858.2735,4807.6361,48852.6821,44152.2449,54948.8068,-3048.9117,-3151.8638,22607.8033
52388.2359,24957.7314,51351.2939,38489.1629,33949.3454,35857.5135,4807.4573,48850.5363,44139.2809,54945.007,-3060.3558,-3162.0115,22603.6012
52378.4906,24953.3951,51347.7176,38479.954,33930.7934,35852.6856,4808.5749,48827.0223,44126.8533,54935.9769,-3071.8893,-3173.9473,22599.5779
52372.545,24949.5059,51340.878,38471.7733,33919.1705,35847.3212,4803.7916,48801.8095,44122.5171,54930.6571,-3078.0137,-3182.0387,22592.9618
52384.3467,24954.8256,51342.1297,38476.5565,33940.0023,35848.8858,4804.8645,48816.517,44132.2625,54937.7203,-3066.5249,-3170.4605,22595.6887
52395.3885,24954.2892,51341.9956,38484.782,33955.6038,35846.5612,4803.434,48831.895,44141.2479,54938.1673,-3058.9253,-3164.649,22596.851
52384.3467,24947.2708,51342.2191,38483.3068,33946.7973,35842.8061,4804.4622,48824.6977,44136.7328,54934.904,-3063.0827,-3168.3147,22593.0959
52358.1952,24941.5934,51340.6992,38472.2203,33920.9586,35837.3523,4801.5118,48796.5792,44122.5171,54930.2101,-3080.3829,-3178.4624,22589.609
52349.478,24932.9209,51338.7769,38469.6275,33911.705,35840.3027,4799.813,48785.5375,44118.0915,54928.422,-3083.691,-3184.9891,22587.7315
52360.5645,24939.0006,51342.9791,38473.0697,33929.8993,35842.5826,4797.7567,48805.7435,44130.4296,54929.9866,-3071.5764,-3173.4556,22592.9618
52371.6062,24944.5885,51342.1297,38485.7208,33946.7973,35848.5281,4797.9802,48829.0787,44136.7775,54932.1771,-3060.624,-3163.3973,22597.5662
52367.4935,24940.0288,51340.9227,38482.368,33943.8021,35851.6127,4797.0861,48824.4295,44135.6599,54935.1722,-3061.4734,-3169.0747,22598.8179
52350.3721,24931.6245,51339.0005,38467.3923,33919.6622,35844.2366,4795.745,48797.6074,44120.3266,54926.9021,-3074.8844,-3184.1844,22593.0512
52343.443,24926.0366,51342.4426,38468.0182,33914.4766,35841.9567,4797.3096,48787.3703,44113.3529,54927.3938,-3078.416,-3186.7325,22592.2912
52366.5994,24933.0997,51349.1482,38491.264,33939.8682,35850.9421,4801.1094,48815.4441,44128.4627,54937.6309,-3063.485,-3171.578,22597.0745
52380.0105,24942.9345,51356.1219,38499.4447,33955.3356,35860.4193,4805.1775,48839.1817,44149.6521,54941.2072,-3046.6765,-3158.8376,22600.7849
52366.2418,24937.2125,51352.4115,38487.4195,33944.3833,35854.876,4800.2154,48825.2342,44142.1419,54932.8029,-3058.6571,-3164.8725,22596.5381
52343.1301,24933.6362,51346.3318,38472.6226,33920.4669,35846.4271,4796.192,48802.9718,44126.451,54924.5328,-3077.8348,-3180.2058,22591.5313
52339.4197,24933.4574,51341.2356,38469.6722,33910.4533,35842.0461,4793.0181,48799.1273,44121.5783,54922.1188,-3087.8037,-3188.2077,22588.4914
52356.3176,24936.5419,51342.3979,38479.9987,33929.05,35843.8343,4794.0016,48821.8367,44134.5423,54930.523,-3074.9738,-3176.8978,22592.3806
52373.5285,24944.4097,51348.5223,38492.1134,33950.6418,35853.5796,4801.5118,48841.0592,44147.7299,54938.972,-3057.7183,-3164.1573,22598.7732
52371.9639,24944.0521,51348.7905,38489.9676,33941.7458,35853.0879,4800.8412,48834.8454,44140.7561,54935.5745,-3062.9486,-3167.9571,22597.7451
52356.9882,24936.4525,51341.9956,38472.9803,33916.2201,35842.0461,4793.2416,48809.6327,44121.2654,54925.5162,-3086.6414,-3188.6548,22588.715
52353.1437,24932.0716,51341.6827,38474.5449,33908.4417,35839.498,4790.917,48807.2634,44111.2965,54919.7942,-3091.7376,-3193.3486,22585.0493
52373.8861,24946.1979,51344.8119,38487.9559,33935.8896,35845.4436,4797.0861,48824.7871,44135.4811,54925.3821,-3074.0798,-3179.4906,22589.4749
52390.8734,24956.9714,51346.2424,38494.5273,33956.2297,35844.9966,4799.3213,48840.7016,44146.0758,54929.7631,-3064.5579,-3171.0863,22589.3855
52392.2592,24955.4068,51345.1248,38490.1017,33947.8254,35846.5612,4795.745,48829.0787,44137.0457,54929.5843,-3072.7386,-3179.4459,22585.2728
52374.512,24942.7557,51344.0967,38477.3165,33921.1822,35840.5262,4792.4817,48809.8562,44124.6629,54924.5328,-3087.2673,-3193.2145,22584.9599
52366.0183,24942.8451,51344.7672,38471.5945,33920.6457,35840.8839,4793.9122,48805.6093,44126.9428,54927.5279,-3089.9495,-3189.0124,22590.4584
52379.3399,24950.8917,51348.9246,38484.4691,33941.9246,35845.8906,4799.0531,48829.4363,44148.1769,54934.5464,-3071.0846,-3170.8628,22595.7334
52388.37,24953.3951,51347.0471,38493.6333,33953.8604,35849.8693,4800.8859,48848.48,44161.6327,54938.7932,-3058.4335,-3161.2515,22597.0745
52385.062,24948.2989,51340.1181,38488.85,33947.4678,35844.7731,4797.0861,48851.0281,44155.1059,54940.7154,-3066.7037,-3169.0747,22595.5993
52373.8414,24943.471,51340.6545,38487.196,33933.0286,35839.8557,4796.6391,48838.5558,44139.4597,54938.7932,-3080.1147,-3184.4079,22592.8277
52366.8677,24938.3748,51345.8401,38479.7752,33924.9372,35838.9616,4797.1755,48825.9494,44136.7328,54937.6756,-3084.0933,-3187.8501,22592.2018
52381.7539,24943.5604,51348.3882,38491.3981,33945.1432,35848.4387,4800.0813,48844.1885,44149.2945,54942.9506,-3065.5861,-3174.9755,22596.8957
52390.784,24956.882,51347.1812,38500.7858,33958.1966,35852.6856,4802.8529,48860.9523,44157.8329,54945.1858,-3053.2926,-3162.5926,22597.5662
52391.8122,24954.021,51344.0967,38498.4612,33949.3454,35845.2201,4796.2368,48850.3128,44152.8708,54940.3131,-3064.6473,-3171.6228,22589.0726
52372.2768,24945.8402,51337.3911,38482.1445,33928.7817,35838.3358,4790.2912,48832.2079,44138.3868,54929.4502,-3082.5734,-3191.6946,22580.0425
52359.4469,24943.6051,51332.9208,38471.3262,33914.879,35832.9713,4789.3524,48820.138,44130.6978,54923.1917,-3093.3917,-3198.4001,22576.0639
52370.8463,24947.2708,51335.6477,38479.1046,33930.6593,35833.6419,4788.2795,48845.619,44141.5161,54931.6853,-3086.2838,-3188.3419,22580.4001
52375.5848,24945.1697,51334.1725,38483.7091,33948.0042,35834.2677,4785.5973,48867.9707,44148.3557,54935.4404,-3075.9573,-3179.3565,22580.9366
52374.5567,24938.7771,51332.9208,38480.4904,33943.7574,35836.1453,4784.1668,48850.8046,44137.8504,54929.3607,-3080.7406,-3184.855,22575.1698
52364.856,24932.8762,51335.8265,38471.8627,33918.3658,35833.5972,4784.8821,48832.2973,44135.1235,54926.0974,-3096.9232,-3194.9133,22571.6382
52362.442,24936.4078,51341.1015,38472.7567,33907.9499,35834.8936,4788.5478,48834.3984,44143.8407,54931.1936,-3097.9514,-3192.9463,22575.9745
52378.0435,24943.158,51342.1297,38484.4244,33930.704,35840.0792,4792.3923,48854.8279,44151.932,54933.3394,-3084.451,-3183.3798,22582.4118
52387.5654,24946.779,51342.9791,38491.5322,33945.0538,35837.7546,4791.3194,48866.6743,44155.1507,54935.0381,-3082.484,-3181.0552,22581.0707
52381.3516,24938.5983,51341.638,38487.8218,33941.8352,35838.7381,4790.7382,48855.0514,44156.0894,54936.7368,-3085.2556,-3186.5537,22578.9696
52361.8162,24930.954,51338.1958,38478.6129,33916.98,35835.9218,4791.8111,48833.5043,44141.0691,54931.4618,-3098.2196,-3198.4895,22576.1086
52355.1106,24926.7966,51336.6312,38472.8014,33904.8654,35832.7031,4788.816,48828.1846,44136.2411,54928.2432,-3106.2663,-3199.5624,22574.0522
52374.0649,24933.055,51338.5981,38481.9657,33927.3959,35839.3192,4790.47,48853.7997,44148.1322,54931.2383,-3090.4859,-3184.095,22577.3156
52395.2991,24945.9743,51342.085,38500.607,33956.1403,35849.4222,4795.9685,48876.5091,44168.5617,54938.7038,-3070.4141,-3173.3215,22586.3904
52391.8122,24940.9229,51342.3532,38499.0424,33955.3356,35846.5612,4796.2815,48871.6811,44163.8678,54938.3014,-3072.4257,-3182.0387,22587.4186
52375.0931,24928.8976,51344.6778,38483.4856,33932.3133,35842.0014,4791.23,48849.9105,44150.3674,54932.7582,-3088.7425,-3198.579,22582.4565
52369.1922,24923.1309,51344.1414,38475.4837,33922.0315,35840.5262,4788.6372,48842.1768,44152.5578,54933.8311,-3096.3421,-3199.7412,22582.3224
52382.4245,24936.5419,51346.4212,38486.436,33945.8585,35847.947,4794.3592,48869.5353,44175.0437,54944.7387,-3081.0088,-3183.7374,22588.6256
52390.2029,24937.9277,51344.1414,38491.4428,33952.9216,35845.7118,4793.4651,48888.8025,44171.7356,54947.3763,-3077.209,-3177.8812,22586.6586
52385.0173,24932.4292,51342.2191,38489.2076,33941.6116,35843.7896,4788.5925,48872.8434,44164.7619,54941.2966,-3084.2721,-3181.8151,22580.0872
52359.0893,24925.9025,51344.7672,38480.0434,33928.5582,35844.4601,4785.9997,48857.5995,44155.4189,54930.9254,-3094.8669,-3192.3205,22576.3321
52345.9911,24916.4253,51343.6943,38475.3495,33919.2152,35834.983,4782.4234,48854.3361,44148.2216,54928.869,-3100.3654,-3199.4283,22571.37
52361.8162,24919.2864,51341.5933,38485.1843,33937.8119,35839.3639,4782.2446,48863.6792,44153.7648,54932.8923,-3083.1546,-3190.2194,22573.1581
52373.6626,24918.884,51335.2901,38486.0337,33949.5689,35836.8158,4777.059,48880.5324,44162.5267,54932.6688,-3076.6279,-3181.5022,22572.6217
52360.7433,24912.715,51326.4835,38475.5731,33932.7604,35828.3669,4771.1134,48868.7754,44154.346,54921.627,-3088.966,-3192.4993,22566.7208
52344.3818,24907.3952,51324.6953,38461.2232,33911.8838,35821.6166,4768.8782,48846.513,44140.4879,54917.7378,-3105.5957,-3208.7266,22562.4293
52347.064,24907.7976,51326.9752,38460.2398,33902.7643,35822.7342,4771.2475,48846.3342,44134.14,54917.2908,-3110.2896,-3212.437,22562.921
52364.0513,24914.6372,51328.9422,38476.2883,33927.9771,35831.8985,4774.5556,48862.8745,44150.0992,54921.94,-3093.5705,-3198.0425,22570.7889
52377.5071,24922.4156,51332.9655,38487.4642,33943.1316,35842.6273,4781.3505,48884.7792,44159.8445,54931.9088,-3079.2654,-3184.2291,22576.645
52377.6412,24923.5779,51334.5301,38485.5866,33934.5485,35842.0461,4784.435,48884.7792,44161.7221,54935.0381,-3076.9855,-3182.7092,22577.6732
52370.2651,24918.9287,51338.9111,38480.4904,33915.4601,35839.7216,4781.3058,48873.5139,44156.2235,54931.5065,-3087.9378,-3193.1251,22577.4497
52369.1028,24917.4088,51344.8119,38479.3729,33911.3474,35842.9849,4785.7314,48872.3516,44156.1341,54935.9322,-3091.4247,-3190.3088,22583.6635
52380.0999,24921.0298,51346.7789,38486.2572,33934.772,35849.3775,4789.1289,48892.3788,44171.9145,54942.7718,-3076.1808,-3179.267,22588.6703
52390.0688,24932.4292,51348.0306,38489.0735,33944.0256,35846.0695,4789.3524,48908.0697,44189.3041,54950.729,-3070.1011,-3174.5732,22586.3904
52386.7607,24930.8646,51348.7011,38487.7771,33933.4756,35844.1919,4787.5643,48900.5148,44176.5189,54947.108,-3080.3829,-3182.1728,22581.1601
52378.3118,24922.7732,51347.5835,38483.6197,33924.5349,35840.1686,4786.2679,48884.2875,44163.1526,54937.6756,-3091.4247,-3195.0474,22576.4215
52369.6393,24921.7451,51343.739,38472.1756,33915.2366,35837.6205,4783.8539,48874.8997,44152.2449,54933.0711,-3098.309,-3199.3836,22575.3933
52384.2573,24933.1445,51344.0967,38484.022,33941.0752,35848.6623,4786.5808,48895.2398,44164.5831,54940.1343,-3078.9971,-3184.2738,22580.8918
52398.1601,24937.1678,51343.5602,38496.8072,33958.5543,35851.2104,4786.2679,48911.1543,44176.4742,54945.1411,-3069.6094,-3173.0086,22583.2164
52389.3982,24933.5468,51342.3979,38492.8733,33945.0091,35847.6788,4785.3291,48901.2301,44177.7259,54945.4987,-3075.7785,-3175.6908,22585.2728
52379.1611,24926.7071,51345.2142,38479.9093,33921.0033,35843.8343,4785.4185,48885.6286,44163.4208,54937.2733,-3089.9942,-3187.0455,22583.5741
52375.7637,24930.0152,51349.5058,38476.3777,33911.5262,35846.1142,4785.8208,48876.6879,44159.1293,54930.9254,-3097.6832,-3190.89,22582.9035
52384.4808,24937.883,51351.2492,38487.4195,33929.9887,35855.6807,4790.7829,48888.8919,44175.8037,54942.9506,-3084.8086,-3176.2272,22588.6256
52403.3457,24948.4777,51355.1831,38501.9034,33947.8254,35868.2424,4799.0978,48909.0979,44189.17,54952.7854,-3071.3081,-3163.4867,22594.2582
52402.7646,24947.9413,51354.9149,38498.193,33940.8964,35862.2521,4796.0132,48901.4983,44188.41,54950.0138,-3075.1973,-3168.7617,22592.1124
52378.1329,24938.3301,51351.1151,38480.7587,33916.6671,35851.1657,4790.023,48875.7044,44173.1215,54939.419,-3091.9164,-3182.7092,22585.9433
52364.3196,24927.4224,51346.0189,38469.5828,33900.0374,35844.5048,4786.4914,48870.6976,44166.2371,54936.7368,-3098.5773,-3188.9677,22582.8141
52378.3118,24938.7324,51349.9081,38482.2786,33925.1608,35854.2502,4789.7995,48903.2865,44184.2526,54945.6775,-3080.7406,-3174.4838,22590.0114
52388.6383,24939.0006,51345.8401,38480.4457,33942.8186,35853.8032,4788.9948,48922.8219,44194.1321,54952.1148,-3071.8446,-3166.616,22592.023
52386.4031,24932.8762,51339.9392,38480.2669,33930.7934,35851.568,4786.7596,48915.5799,44187.203,54953.0983,-3079.3548,-3172.2486,22590.5031
52365.2583,24918.1688,51334.3066,38472.6673,33909.4698,35845.1754,4784.1668,48890.5907,44171.7803,54942.1459,-3097.6385,-3191.6499,22586.5692
52352.0261,24908.9599,51323.4437,38462.6985,33889.8897,35840.1239,4779.2047,48879.236,44163.5549,54931.9088,-3104.2099,-3199.473,22581.4283
52375.3166,24920.1357,51327.3776,38485.0502,33922.4339,35852.1491,4787.8325,48904.7617,44178.5306,54937.9438,-3085.0321,-3183.8715,22584.334
52392.6616,24925.4555,51330.8197,38499.4894,33937.9013,35855.9042,4792.2134,48921.8831,44192.9698,54947.108,-3074.0798,-3169.3429,22588.3573
52384.9279,24919.197,51328.9422,38497.0754,33932.358,35849.6904,4790.6041,48911.9142,44194.2662,54943.3529,-3075.1973,-3173.9026,22587.1056
52364.6325,24918.9734,51332.3396,38488.9841,33910.498,35848.5281,4787.5643,48889.8754,44174.4179,54935.3957,-3089.1895,-3189.7724,22581.3389
52368.03,24925.4555,51339.8498,38489.7441,33911.7497,35851.1209,4789.8889,48894.0775,44169.2322,54934.4569,-3095.8056,-3191.2923,22582.5012
52385.4643,24935.5137,51344.5437,38497.8801,33932.5368,35858.05,4795.9685,48912.5848,44192.344,54943.3529,-3081.9476,-3178.373,22587.5527
52392.6169,24942.8004,51347.1812,38506.5973,33948.9877,35864.1297,4796.952,48928.5886,44196.9037,54951.3102,-3068.5812,-3167.4206,22591.7101
52395.0756,24941.6828,51349.2376,38508.5195,33940.8517,35864.6661,4800.2601,48925.1465,44190.1088,54950.729,-3071.5764,-3166.7501,22593.2747
52382.2904,24937.2125,51347.4941,38499.4447,33921.2716,35859.9722,4800.0365,48914.1494,44183.2244,54947.6445,-3084.898,-3180.5634,22586.4798
52373.752,24936.7654,51345.2142,38492.6498,33914.3872,35855.7254,4800.9306,48910.4837,44184.655,54948.6727,-3091.4694,-3186.8219,22588.8491
52396.8637,24950.0871,51347.6282,38503.468,33932.2239,35865.0684,4805.9374,48925.5041,44205.308,54956.6746,-3074.0798,-3175.8249,22597.8792
52408.5313,24954.7809,51346.7789,38507.5361,33951.4464,35869.7623,4805.8927,48942.7596,44213.7569,54960.385,-3063.8874,-3165.3196,22602.886
52393.198,24943.6945,51344.1414,38503.5127,33945.1879,35863.5038,4800.9306,48931.1814,44206.515,54955.6911,-3071.5317,-3168.4488,22600.8296
52369.6393,24930.5516,51342.7109,38489.2523,33922.4786,35855.0549,4796.5944,48910.5731,44188.5442,54956.764,-3088.6978,-3182.0387,22595.644
52367.4935,24924.7849,51341.1462,38482.368,33915.326,35848.7517,4793.8228,48907.131,44179.3799,54954.2606,-3093.347,-3186.509,22592.5595
52389.3535,24927.0201,51344.3649,38489.4311,33931.1063,35850.5845,4794.8062,48930.0191,44188.9912,54960.6532,-3083.6016,-3177.3448,22595.8675
52395.2097,24932.5186,51346.4212,38500.8305,33950.0159,35850.5845,4796.2368,48944.9501,44193.6404,54963.2907,-3074.2139,-3171.2204,22596.6722
52383.2738,24929.9258,51344.8566,38497.9248,33945.5903,35839.5427,4793.0628,48943.9219,44190.6452,54959.8932,-3081.5899,-3175.1543,22590.369
52365.7948,24926.126,51343.5602,38482.7256,33921.4951,35833.9995,4788.5478,48925.6829,44185.102,54952.9195,-3098.9349,-3184.7209,22584.7811
52359.3575,24919.4652,51338.7322,38476.9142,33914.119,35836.4582,4786.2232,48914.7305,44183.448,54949.4773,-3096.2527,-3187.0008,22583.3505
52379.6529,24929.8811,51340.1181,38501.4117,33939.4659,35855.5019,4792.5711,48940.3903,44198.513,54955.4229,-3074.5715,-3170.7734,22590.1902
52395.4332,24939.2241,51338.8216,38511.5147,33959.8507,35855.0549,4793.4651,48959.0317,44199.8094,54952.7854,-3063.5744,-3160.134,22591.3972
52396.1484,24936.676,51332.6079,38505.6585,33946.2608,35848.6623,4787.8325,48952.9073,44189.3488,54946.7504,-3075.7785,-3164.6043,22585.3622
52377.9094,24927.9588,51330.5962,38495.5108,33925.6525,35844.6836,4785.1056,48931.1367,44168.7405,54937.8097,-3094.5092,-3182.1728,22580.0872
52372.6344,24925.8131,51332.1608,38487.9559,33914.566,35842.0014,4785.2844,48918.1727,44171.6462,54938.8379,-3098.0855,-3186.956,22579.1931
52382.1115,24934.7538,51332.9655,38491.5322,33930.9722,35841.5991,4783.4516,48931.2708,44178.8435,54947.0186,-3085.658,-3174.4838,22583.6635
52400.4847,24941.1017,51333.4125,38494.2591,33945.7244,35841.5991,4782.1105,48939.2281,44182.3751,54947.4657,-3075.242,-3169.5217,22589.0279
52397.6684,24936.9442,51334.0384,38495.2873,33939.2871,35838.2463,4783.541,48929.438,44177.8153,54940.2684,-3076.6726,-3176.2719,22587.1503
52379.6976,24928.7635,51334.0831,38483.2621,33913.5826,35832.569,4781.2611,48908.6509,44167.31,54930.7466,-3092.4529,-3187.6266,22578.2096
52373.5732,24930.1493,51338.017,38482.8597,33906.6088,35838.2016,4781.4399,48906.8627,44167.2206,54935.3063,-3095.3139,-3189.3253,22574.4098
52388.8171,24934.8432,51340.3416,38498.9083,33932.5815,35854.0267,4782.6022,48927.471,44178.8435,54941.0284,-3078.8183,-3173.0533,22581.6518
52408.7101,24939.537,51337.4358,38513.3475,33950.8206,35859.2123,4782.0657,48944.5478,44184.6102,54938.8826,-3068.1789,-3164.7384,22585.6751
52405.9832,24936.3184,51334.7536,38512.8111,33939.7341,35864.6661,4780.1435,48929.2592,44182.9562,54938.1673,-3074.8844,-3172.3827,22583.6635
52392.6616,24928.6294,51334.1725,38502.9763,33918.1423,35859.3911,4779.8753,48906.7733,44168.6064,54934.7699,-3085.5685,-3183.1115,22579.4166
52387.3419,24919.3311,51332.0714,38492.1134,33903.8372,35855.4125,4779.4282,48905.4769,44171.6462,54936.0663,-3093.3917,-3186.8666,22579.6849
52395.5226,24917.23,51332.4738,38499.1318,33915.9966,35855.9936,4776.2543,48923.4477,44176.653,54940.4919,-3084.6298,-3175.2437,22582.0094
52408.1737,24922.2368,51333.0996,38508.7878,33936.4707,35860.1511,4776.4778,48942.6255,44182.8221,54943.2635,-3074.7503,-3165.4984,22585.6304
52389.8005,24917.7665,51328.8975,38498.6848,33920.8245,35851.2551,4778.8471,48942.4467,44180.8999,54942.1906,-3081.5899,-3170.5499,22585.8986
52362.442,24910.0327,51328.2269,38482.6809,33898.5622,35843.5214,4776.3884,48926.3088,44168.7405,54936.0663,-3094.2857,-3185.0785,22582.0988
52362.1291,24911.5974,51331.4009,38474.9025,33897.5787,35844.6389,4776.9248,48919.1562,44161.4091,54931.9983,-3102.0194,-3186.3302,22583.4399
52377.0154,24918.3476,51337.2123,38483.7538,33915.4601,35846.0695,4781.8869,48933.5954,44177.5024,54941.9671,-3087.9378,-3170.8181,22591.4866
52376.8365,24918.6158,51338.7322,38487.643,33934.6826,35845.533,4784.1221,48939.8539,44180.1399,54943.9788,-3081.7688,-3168.3147,22592.8277
52360.1174,24918.3029,51339.8051,38477.7635,33934.9061,35843.2084,4786.0891,48925.9958,44165.8348,54942.1012,-3085.4791,-3176.6742,22589.2961
52342.236,24918.2582,51342.8003,38467.3923,33910.1404,35840.3027,4786.5361,48907.3545,44150.7697,54934.0546,-3098.8902,-3188.7889,22585.2728
52334.7706,24916.4253,51339.4475,38455.3224,33894.226,35827.7857,4781.574,48885.0027,44140.622,54927.7514,-3108.0544,-3197.059,22579.9084
52348.271,24923.4885,51339.2687,38460.8209,33915.326,35832.8819,4785.2397,48902.2583,44147.9981,54931.9983,-3093.347,-3186.6431,22581.7412
52348.0475,24932.4292,51337.7488,38468.0182,33934.5038,35829.1268,4787.1619,48915.5352,44147.2828,54935.351,-3088.966,-3180.2058,22582.9929
52340.7161,24936.0502,51330.9538,38472.9356,33929.7652,35824.6118,4788.4583,48897.6538,44130.832,54929.4055,-3091.9611,-3183.8268,22577.6285
52333.9212,24944.4544,51333.8149,38467.9735,33916.3542,35824.5224,4793.3757,48867.4343,44113.2635,54923.1917,-3098.622,-3194.8239,22576.1086
52334.1894,24944.7227,51334.3513,38470.1192,33906.6088,35825.327,4795.0298,48850.2234,44104.144,54921.5376,-3100.723,-3195.852,22574.6781
52346.3935,24940.8782,51328.4504,38479.8646,33924.9372,35827.4281,4797.1755,48862.204,44107.4073,54921.4482,-3087.1332,-3183.3798,22579.4166
52350.238,24946.4214,51330.4621,38481.8763,33941.3881,35827.4281,4799.5001,48859.477,44112.0565,54922.7446,-3078.9971,-3176.2272,22582.4565
52346.617,24951.1153,51333.5019,38484.3796,33938.1695,35834.2677,4803.7916,48849.0164,44118.5832,54922.4317,-3080.6065,-3177.1213,22586.6586
52329.4508,24951.8305,51334.9324,38477.4059,33921.5398,35834.1336,4803.7469,48822.999,44105.3957,54915.6815,-3090.7542,-3190.0406,22584.7363
52322.9241,24956.6585,51338.6875,38473.0697,33913.4485,35834.536,4803.7022,48808.068,44106.0662,54913.9827,-3090.6647,-3189.8171,22586.8821
52340.1797,24960.2348,51342.2191,38487.0172,33931.2404,35841.8226,4807.8597,48832.655,44117.3315,54924.3093,-3073.3198,-3177.0766,22592.0677
52344.1583,24960.3689,51339.3134,38491.9792,33941.3881,35845.8459,4806.3397,48847.2283,44121.1313,54923.1023,-3062.5015,-3171.578,22595.0181
52333.2953,24954.5127,51338.4193,38479.3282,33925.0714,35839.3639,4801.78,48828.5422,44114.1129,54915.6815,-3075.7785,-3178.2389,22592.0677
52317.515,24946.6896,51340.431,38472.3097,33906.9664,35831.6749,4801.78,48798.4568,44101.5065,54907.6349,-3092.8552,-3187.5372,22590.5925
52312.1953,24945.6167,51343.4708,38469.1805,33893.1978,35829.8868,4800.4389,48774.5851,44100.1654,54904.9079,-3096.3868,-3189.9065,22589.3855
52322.6559,24948.0307,51341.1015,38473.1144,33906.877,35835.743,4799.0978,48778.2061,44105.4404,54906.3832,-3085.8368,-3179.1776,22593.7217
52338.3021,24955.6303,51339.9392,38483.9326,33933.2968,35837.5758,4804.6857,48794.3441,44105.4404,54908.7077,-3073.2304,-3171.4439,22594.3476
52329.4061,24952.8587,51338.1511,38484.6479,33923.2385,35833.2396,4803.2999,48781.9612,44090.7776,54902.4045,-3076.5384,-3176.1378,22591.9783
52309.379,24940.3417,51334.7089,38469.2699,33893.2872,35826.847,4800.0813,48747.316,44070.974,54897.9342,-3091.7376,-3188.8336,22584.1552
52307.6802,24932.4292,51332.742,38462.5643,33881.7984,35826.4446,4797.7567,48732.4297,44066.2801,54896.459,-3093.8834,-3195.8073,22580.0872
52328.825,24937.7936,51330.7303,38472.1756,33901.7361,35827.3387,4799.0531,48744.0079,44075.7573,54903.8351,-3076.8961,-3184.9891,22584.9152
52340.9843,24943.3815,51325.6341,38477.0036,33911.1239,35825.9976,4798.3378,48750.9817,44090.6435,54910.4512,-3063.1274,-3174.1261,22588.1338
52327.5733,24933.5468,51324.1589,38469.0464,33899.948,35823.8518,4794.7615,48738.4647,44086.0838,54911.9264,-3067.1507,-3180.027,22585.7645
52316.1292,24924.1143,51327.1093,38462.3855,33880.0102,35815.2241,4793.3757,48723.1761,44071.734,54906.2043,-3084.4063,-3195.3603,22582.0094
52313.2235,24914.1902,51322.3261,38451.0309,33864.7664,35809.1891,4783.5857,48715.9342,44065.2519,54895.3414,-3098.9349,-3205.5974,22576.7344
52324.6229,24917.677,51321.3426,38458.7646,33884.0336,35809.9937,4779.7412,48726.3054,44083.3569,54902.7622,-3093.4811,-3193.6616,22581.1601
52336.3352,24914.9054,51322.4155,38465.023,33901.4679,35812.4077,4782.4234,48734.6649,44094.0857,54907.0984,-3083.6463,-3185.6596,22582.5012
52327.9309,24907.1717,51322.192,38458.8987,33884.8382,35810.6643,4781.7528,48728.7194,44084.6533,54901.8681,-3090.8883,-3197.2826,22578.1202
52311.1671,24900.5109,51319.3309,38448.0357,33863.0676,35802.26,4778.4001,48706.4123,44067.6212,54897.7554,-3102.9135,-3209.6654,22573.1134
52312.6423,24905.7859,51318.258,38441.1514,33853.3223,35799.6672,4774.5109,48701.8973,44063.1062,54892.7486,-3105.5957,-3211.9453,22574.1863
52333.2059,24912.9385,51319.5544,38448.3039,33877.8645,35805.5234,4778.8471,48725.6348,44070.6164,54894.3132,-3093.347,-3201.9317,22577.0921
52350.5956,24918.1241,51322.4155,38451.2097,33900.708,35812.2736,4784.748,48741.0128,44078.8418,54900.0353,-3081.4558,-3189.7277,22581.7859
52344.9183,24925.679,51327.1093,38455.68,33899.7245,35817.3698,4788.5478,48741.1469,44086.1732,54906.6961,-3080.8747,-3185.4361,22585.541
52325.1593,24924.5614,51327.3776,38447.4546,33873.9753,35825.1929,4793.331,48729.5687,44077.5454,54904.7291,-3089.3236,-3192.0075,22587.955
52327.7074,24924.6061,51329.3892,38447.544,33872.0977,35831.1832,4796.7732,48729.3452,44085.4579,54907.2325,-3088.7425,-3187.6713,22592.0677
52341.4314,24925.1872,51330.4174,38456.5294,33894.3601,35826.3105,4798.919,48739.3141,44096.902,54914.6086,-3077.656,-3174.7073,22594.9734
52350.8191,24929.8811,51334.9771,38460.3739,33912.465,35831.0938,4802.5399,48762.9175,44107.0497,54921.627,-3066.4802,-3163.442,22601.8131
52353.099,24930.6411,51341.2356,38467.2582,33914.4319,35830.4679,4808.0832,48766.0468,44108.7931,54922.387,-3067.5083,-3164.5149,22603.9141
52334.8153,24923.1309,51337.3017,38457.8258,33894.8071,35820.6332,4804.7751,48743.9632,44095.5609,54916.5756,-3084.4957,-3180.0717,22597.7451
52322.79,24921.3427,51331.982,38456.887,33886.224,35822.2425,4803.2999,48731.4463,44088.7213,54911.0323,-3092.0506,-3185.7491,22595.5099
52346.5723,24924.472,51327.8693,38465.0677,33901.5573,35830.4232,4804.7304,48732.4297,44100.97,54919.8389,-3076.762,-3178.9541,22598.5944
52357.8376,24924.159,51320.5826,38466.4983,33913.5826,35829.6633,4800.0365,48745.662,44103.6969,54920.8671,-3066.9272,-3168.6276,22597.5215
52352.4284,24923.3544,51314.95,38463.9502,33912.2415,35827.3834,4797.2202,48751.0264,44097.7961,54914.0275,-3069.2965,-3176.4507,22593.23
52331.3731,24916.6489,51309.6303,38454.8306,33893.1978,35824.2989,4790.023,48744.6338,44081.8369,54901.3764,-3087.8931,-3192.544,22582.7247
52319.9737,24911.508,51304.7576,38452.9978,33886.6711,35819.605,4789.6653,48728.6299,44078.1265,54900.6611,-3094.4645,-3198.6237,22578.8802
52329.6297,24912.0891,51299.6614,38459.4798,33899.6798,35823.2707,4790.5594,48740.9234,44084.1615,54905.3997,-3084.9427,-3191.5605,22579.4613
52338.3021,24909.7198,51292.2853,38459.8821,33904.4183,35814.2406,4784.748,48753.7533,44082.1499,54903.7457,-3081.8135,-3194.7345,22571.6382
52329.7638,24903.3272,51286.4739,38453.9813,33892.259,35808.1162,4774.1532,48742.6221,44071.7787,54891.0946,-3096.1633,-3206.7597,22561.3117
52310.0495,24899.6168,51284.7751,38440.4361,33865.6604,35799.4884,4764.4973,48721.1198,44057.5182,54882.9585,-3120.8843,-3228.4856,22551.2087
52307.5014,24897.024,51286.0715,38429.5285,33856.675,35800.8295,4759.0435,48717.4988,44055.1043,54879.0693,-3124.8182,-3233.5371,22549.2865
52312.8659,24896.577,51284.5516,38432.9259,33866.5545,35801.5001,4754.5731,48731.8933,44072.7621,54883.7185,-3110.1108,-3222.6741,22555.8579
52326.7239,24901.0921,51286.8315,38445.6217,33890.9626,35813.1677,4758.5964,48750.8476,44091.8952,54894.4026,-3091.5141,-3206.715,22564.2622
52328.7356,24899.6615,51291.1677,38448.9298,33892.5272,35822.5554,4766.1066,48753.3957,44093.4151,54897.3531,-3091.9611,-3203.1834,22574.7675
52317.2915,24893.2689,51292.2406,38436.5469,33869.5943,35817.0569,4769.37,48743.5609,44079.87,54889.1276,-3107.8309,-3214.6275,22575.7509
52302.0029,24879.3215,51286.6974,38425.1475,33858.3291,35812.5418,4765.6149,48733.2791,44071.421,54878.8458,-3117.1292,-3217.712,22572.7558
52316.0845,24881.0202,51284.2387,38434.8035,33875.8975,35820.812,4766.9113,48751.6522,44091.4482,54885.909,-3098.9796,-3200.68,22574.0522
52331.9542,24880.8414,51286.9209,38438.6033,33889.9791,35822.6448,4769.9511,48769.8466,44095.6503,54891.0052,-3089.7707,-3194.5556,22572.7111
52324.7123,24869.1738,51284.194,38429.8861,33882.0666,35815.1346,4765.9725,48760.4141,44085.8603,54890.4687,-3101.7065,-3202.4235,22567.6596
52307.2779,24867.6986,51283.5234,38422.51,33865.1687,35807.8927,4765.1231,48746.109,44069.8117,54883.8526,-3116.0116,-3213.3758,22560.1941
52301.3324,24861.8871,51278.6061,38412.72,33855.9151,35802.3942,4762.8433,48740.5658,44063.3744,54873.1238,-3122.136,-3216.058,22554.5168
52318.2303,24870.2914,51280.7965,38422.6888,33873.5282,35803.8247,4764.4973,48758.7154,44077.0537,54877.46,-3106.4451,-3202.8258,22556.9308
52327.1263,24876.9522,51281.7353,38432.0766,33894.673,35805.2552,4764.8549,48773.7805,44085.145,54886.7136,-3094.9116,-3197.9531,22559.8812
52310.3625,24867.788,51273.7334,38426.1757,33885.1511,35797.7003,4758.7305,48753.7533,44075.3996,54883.2715,-3103.5393,-3209.4419,22553.0863
52293.4198,24866.6704,51277.0861,38417.3244,33866.6439,35790.9501,4761.6363,48742.488,44067.6659,54880.4104,-3116.1457,-3222.7635,22553.9356
52300.1254,24871.4983,51280.4836,38417.3244,33863.6935,35790.8607,4764.3185,48745.349,44068.2024,54879.0693,-3118.1574,-3220.9754,22554.4274
52320.8678,24885.7141,51284.641,38432.3895,33890.2473,35802.4836,4769.8617,48766.2703,44082.0605,54889.7535,-3105.1487,-3206.6703,22558.1825
52336.8716,24894.5653,51285.5351,38445.3982,33906.6982,35809.1891,4771.3369,48783.1682,44092.834,54898.56,-3091.6482,-3195.5838,22564.128
52337.5422,24899.6615,51293.9394,38447.7675,33906.5641,35818.1298,4778.1765,48788.175,44094.3092,54903.7457,-3087.4014,-3188.7442,22574.231
52321.9854,24896.6664,51297.9627,38437.7986,33892.4378,35811.6478,4781.574,48763.8116,44092.387,54904.0586,-3095.9398,-3194.1086,22577.405
52312.9553,24895.3253,51299.5273,38435.6081,33886.8499,35812.0054,4786.4467,48751.8311,44086.799,54906.0702,-3102.0641,-3195.3156,22582.2777
52326.858,24899.1698,51299.2144,38439.8997,33903.7925,35818.5768,4787.1172,48774.9875,44099.0031,54911.8817,-3087.9378,-3188.0289,22590.1902
52337.9892,24898.8122,51300.2872,38446.8287,33914.7002,35819.1133,4785.0162,48788.8455,44109.2402,54918.5425,-3077.2537,-3175.4673,22595.5099
52326.9922,24891.302,51299.4379,38443.476,33905.6253,35815.4476,4781.7975,48780.039,44104.9486,54917.3802,-3084.8086,-3181.2787,22590.6372
52313.4917,24877.1757,51294.6993,38424.1194,33876.881,35803.5564,4772.9015,48753.6192,44086.7543,54906.5173,-3106.758,-3203.0493,22579.2378
52305.4004,24872.3477,51292.4641,38420.5878,33870.2202,35800.7848,4772.3204,48743.6056,44075.7126,54898.3812,-3112.8824,-3211.543,22574.1416
52306.205,24867.0727,51284.1046,38423.717,33880.4573,35802.0812,4771.1581,48751.1605,44080.5852,54899.5882,-3103.7629,-3203.1834,22571.9959
52324.6229,24869.7549,51283.3446,38432.5236,33897.3999,35806.0598,4773.2592,48763.8563,44087.559,54904.8185,-3091.2906,-3196.2097,22572.5323
52314.6093,24865.374,51280.5283,38429.5285,33885.8664,35798.6838,4768.9676,48751.3393,44079.423,54898.8283,-3103.1817,-3207.3408,22566.4526
52286.6696,24850.9347,51276.1921,38413.8823,33862.4865,35790.1007,4762.7091,48725.5454,44061.9439,54885.2831,-3118.3362,-3225.9822,22556.0367
52286.2673,24842.7093,51271.0959,38406.8638,33857.6138,35783.5293,4755.0201,48711.6873,44048.4881,54874.3755,-3125.757,-3232.5983,22548.6159
52301.69,24845.5703,51270.1571,38415.134,33871.5613,35782.9481,4751.8462,48726.7077,44062.4803,54881.1704,-3117.0845,-3221.4224,22551.0299
52313.1341,24858.6237,51272.4817,38430.512,33888.191,35791.6206,4759.0435,48744.3656,44075.8914,54888.3229,-3102.1088,-3206.1785,22557.4672
52304.2381,24858.3555,51274.4933,38431.7189,33886.6264,35794.3922,4761.9492,48745.0361,44070.6611,54883.6738,-3105.5957,-3207.5197,22557.7801
52289.62,24850.6218,51278.2037,38422.1077,33864.8558,35790.4583,4761.5469,48725.8136,44065.5202,54880.5892,-3120.2137,-3218.5614,22555.5897
52285.0603,24846.7773,51278.6061,38416.1174,33862.7994,35791.3524,4760.6528,48717.767,44070.3034,54880.1422,-3123.2983,-3220.9754,22557.2884
52296.862,24855.4051,51279.9919,38428.7238,33888.2357,35797.2085,4759.1329,48730.731,44080.8088,54884.6573,-3110.6472,-3211.3642,22559.4342
52309.3343,24865.0163,51283.9705,38431.8531,33901.155,35801.366,4761.9492,48749.1488,44088.5872,54890.5581,-3100.276,-3203.1387,22563.681
52304.1487,24869.5314,51283.8811,38431.1825,33891.2308,35800.159,4766.8666,48742.5327,44076.8749,54888.0994,-3104.0311,-3208.0114,22561.0882
52283.138,24857.2379,51279.4107,38420.0066,33865.5263,35791.3971,4761.3233,48723.6232,44062.7486,54879.6505,-3118.4256,-3222.1824,22554.5168
52269.1458,24845.0339,51277.265,38410.9318,33853.6352,35785.0939,4753.3661,48716.2471,44054.6125,54873.839,-3125.0864,-3228.7538,22549.5547
52287.6084,24853.2146,51277.6226,38421.2583,33877.4621,35794.7946,4754.6625,48731.4463,44076.1149,54882.9585,-3103.8523,-3215.5663,22555.992
52303.4334,24856.2992,51274.3145,38433.6412,33895.1647,35795.9569,4752.6956,48740.4317,44090.5988,54891.1393,-3094.8669,-3202.9599,22564.1727
52304.4616,24853.7958,51271.23,38429.9308,33890.7838,35792.2912,4750.7286,48728.0488,44081.7028,54887.3395,-3107.8309,-3208.6372,22559.9706
52290.9611,24857.5509,51275.5215,38422.6888,33867.0462,35792.2018,4753.0532,48718.0799,44077.6348,54885.3278,-3119.9455,-3218.6508,22557.6907
52283.138,24852.0523,51270.2465,38418.442,33849.7013,35787.9102,4747.957,48711.3297,44071.421,54879.9187,-3124.8182,-3229.6479,22552.371
52296.7726,24855.2263,51270.0677,38428.8132,33866.2863,35790.1901,4750.1028,48727.3782,44082.7757,54889.6641,-3108.5014,-3216.7286,22559.7918
52306.965,24860.2778,51273.7334,38435.3399,33884.6594,35794.571,4756.6295,48745.4832,44098.109,54899.9012,-3096.208,-3203.854,22566.1397
52302.0923,24861.306,51278.0696,38430.1543,33877.5963,35794.2581,4758.4623,48751.7416,44099.5842,54899.3647,-3101.483,-3203.8093,22569.1348
52293.1516,24860.3672,51279.7236,38424.1194,33851.7576,35793.5876,4759.0882,48744.9467,44095.695,54894.6261,-3116.414,-3212.3029,22568.4196
52289.5753,24854.4216,51278.2484,38424.8346,33850.6848,35795.6886,4758.8646,48738.4647,44093.6387,54895.4755,-3121.2419,-3217.4885,22566.8103
52302.0029,24855.5392,51278.8743,38434.0435,33882.0666,35803.8694,4763.4691,48755.5861,44107.4967,54902.7175,-3102.1982,-3199.0707,22573.6052
52318.4538,24863.0047,51277.265,38440.749,33899.1433,35808.295,4764.8996,48769.2207,44113.934,54909.4677,-3087.9378,-3187.3584,22578.2096
52311.7483,24857.1038,51275.298,38434.8035,33894.673,35797.7897,4760.8316,48762.5152,44102.5794,54905.802,-3098.309,-3199.9201,22572.5323
52297.6667,24854.6898,51276.2815,38421.616,33872.5001,35789.7878,4757.9259,48744.4997,44094.2198,54904.4162,-3110.7813,-3213.4652,22569.2689
52294.6268,24853.617,51278.4272,38416.5198,33857.2115,35789.1619,4755.4672,48736.766,44092.5211,54904.2821,-3114.8046,-3215.5663,22570.4312
52306.2944,24856.3439,51277.5779,38418.5761,33873.0365,35793.0958,4754.5731,48764.7057,44096.4103,54906.4726,-3105.104,-3204.3904,22572.6217
52316.1739,24860.993,51275.9686,38416.5645,33881.5749,35795.6886,4754.8413,48779.7707,44104.2781,54911.9264,-3101.483,-3195.1368,22572.0406
52320.7337,24869.0397,51279.3213,38418.0397,33878.2221,35794.6604,4758.1494,48778.832,44103.2052,54917.9167,-3104.8357,-3200.2777,22571.6382
52303.791,24865.1952,51275.0298,38408.4731,33859.9384,35789.3854,4754.1261,48758.7154,44089.6153,54909.1548,-3123.2089,-3217.6673,22562.027
52301.0194,24864.4799,51280.3942,38416.788,33869.0579,35797.9685,4758.06,48762.3364,44092.8787,54906.3385,-3123.2536,-3218.2932,22560.3282
52323.0582,24875.477,51288.4408,38432.4789,33894.8071,35816.0287,4767.0901,48790.7678,44116.0351,54917.1567,-3102.0194,-3197.0143,22572.2641
52331.9542,24886.2505,51290.7654,38438.0221,33907.4135,35819.9626,4772.4545,48809.9009,44123.3665,54926.3656,-3090.3071,-3185.9726,22575.9745
52338.0339,24893.9842,51297.5156,38447.8569,33907.19,35815.3135,4777.4613,48812.5384,44120.8184,54927.9749,-3090.8436,-3186.4643,22572.3535
52327.3498,24888.7092,51299.6614,38440.5255,33890.8285,35815.6264,4778.7577,48794.1653,44108.7484,54923.1917,-3105.5957,-3197.7296,22567.0785
52330.9261,24890.5867,51301.3601,38444.1465,33881.3066,35823.673,4782.1999,48792.5112,44109.5978,54922.4317,-3107.2497,-3198.5343,22568.8219
52351.892,24905.1601,51306.0987,38453.4001,33911.7497,35831.2726,4786.5808,48827.8717,44132.5307,54932.49,-3086.4626,-3180.6082,22578.3437
52364.9007,24915.5313,51310.6138,38457.7811,33924.1773,35834.4465,4786.3126,48848.1224,44140.1303,54934.2781,-3078.3266,-3175.7802,22579.5954
52354.8424,24910.3904,51310.6585,38454.7859,33914.2531,35831.9879,4782.781,48838.7346,44128.9544,54929.1372,-3084.9427,-3183.8715,22577.7626
52338.3468,24901.8073,51313.2513,38449.4662,33894.9859,35826.847,4782.4234,48821.4791,44127.7474,54925.7845,-3093.6599,-3187.4925,22579.1037
52335.754,24905.6071,51316.3358,38446.0241,33885.8664,35827.6516,4784.7927,48818.6628,44134.9447,54931.1042,-3095.2692,-3185.302,22582.5459
52356.407,24916.9618,51318.5263,38458.7646,33903.3902,35837.2629,4787.2066,48841.2827,44147.3275,54940.3578,-3081.4558,-3170.9969,22591.0395
52368.8346,24921.9686,51320.0015,38473.1144,33927.1724,35847.3212,4790.7829,48861.2205,44155.7765,54943.1741,-3069.5647,-3163.7549,22596.4487
52359.6704,24923.4438,51321.2085,38468.4205,33925.2055,35845.086,4791.1406,48861.9357,44145.0924,54942.2801,-3076.1361,-3171.3098,22593.5429
52345.5888,24923.9355,51321.2532,38459.6139,33906.3853,35841.7332,4792.124,48841.1039,44142.1866,54940.4472,-3085.3897,-3178.7306,22591.3525
52347.064,24922.505,51323.6672,38464.7101,33913.7167,35846.0695,4795.745,48833.6831,44139.2362,54940.2237,-3084.0933,-3178.5965,22591.7548
52368.03,24926.6624,51324.6506,38467.7052,33935.5767,35848.5281,4798.606,48853.4868,44145.4947,54942.2354,-3074.1245,-3167.7783,22592.9618
52385.1514,24925.9025,51322.1025,38476.333,33943.9362,35853.3561,4802.7635,48865.0203,44153.5413,54942.7271,-3065.6755,-3158.1223,22594.1688
52376.7471,24922.8179,51319.5544,38473.919,33933.4756,35851.8362,4804.4622,48848.6141,44150.5462,54939.3296,-3070.0117,-3163.0397,22590.5925
52359.4469,24917.99,51318.3028,38464.3525,33917.3377,35846.0248,4800.0365,48838.6899,44140.3985,54932.5347,-3084.0486,-3176.0484,22586.301
52353.6801,24915.8442,51320.4485,38457.1552,33904.9548,35843.2084,4797.2202,48831.3586,44144.2877,54934.2334,-3091.5588,-3177.2554,22586.6586
52373.305,24918.9734,51321.1191,38470.7451,33924.7137,35848.9752,4798.4719,48850.894,44157.3858,54936.4239,-3075.555,-3165.5431,22590.5478
52390.6946,24928.3612,51323.1754,38484.4691,33939.9129,35853.6243,4803.4787,48866.0932,44170.6628,54938.6591,-3062.4121,-3160.4916,22591.8442
52385.2855,24933.7703,51323.0413,38480.5351,33936.1131,35852.1044,4804.4175,48869.2224,44163.7337,54942.7718,-3069.5647,-3165.9901,22590.369
52366.0183,24923.8014,51319.5544,38466.0959,33913.0461,35841.6885,4800.1707,48853.2633,44150.2333,54938.7485,-3090.8883,-3178.1942,22583.7082
52360.4751,24917.4535,51324.7401,38459.5692,33899.6798,35839.3192,4793.8228,48838.4664,44153.9884,54937.8544,-3099.2478,-3183.3798,22581.6965
52379.3846,24923.9355,51329.9704,38473.919,33919.1258,35848.7517,4794.8509,48862.1145,44167.7123,54945.2305,-3082.5287,-3172.5168,22585.4069
52385.7325,24926.4389,51330.2833,38478.2553,33925.876,35849.2881,4793.7334,48876.822,44173.8814,54951.8019,-3074.7056,-3171.891,22586.7927
52377.6859,24926.126,51331.2668,38471.3262,33921.4057,35846.7847,4791.7664,48871.5023,44163.4655,54949.6561,-3082.037,-3182.6198,22578.7461
52356.72,24921.5215,51325.1871,38456.127,33901.1103,35836.3688,4786.3126,48851.2963,44141.9631,54937.1392,-3105.1487,-3198.579,22571.1912
52355.1553,24924.472,51323.1754,38458.7646,33898.9645,35839.8557,4785.7314,48848.3012,44146.2994,54938.6144,-3108.5461,-3197.1037,22572.4429
52368.03,24932.7868,51321.432,38461.715,33914.7002,35840.3921,4784.1668,48862.1593,44166.5053,54947.3315,-3098.0408,-3190.4429,22572.2194
52382.3798,24943.0686,51324.4271,38472.7567,33932.5815,35844.7731,4792.9734,48882.8123,44177.6365,54953.59,-3086.8202,-3184.0503,22573.1581
52384.7044,24945.572,51328.5846,38482.3233,33932.8051,35849.8245,4801.2882,48885.9862,44168.07,54952.5172,-3087.1332,-3180.1611,22574.0522
52371.2933,24939.9841,51333.189,38474.0084,33910.3192,35845.4436,4801.5565,48868.6413,44158.2799,54945.901,-3098.8902,-3188.9677,22572.8005
52374.5567,24943.1133,51340.6098,38477.8976,33906.9664,35849.0199,4803.7916,48862.3828,44157.5646,54950.2373,-3092.3188,-3184.8103,22578.299
52393.0639,24951.0705,51345.3931,38487.9112,33929.8546,35853.982,4805.401,48880.9794,44173.2109,54959.2227,-3075.4656,-3172.2486,22586.6139
52396.4614,24957.4631,51345.4825,38489.0735,33952.3405,35854.9207,4802.2717,48906.7733,44183.8503,54963.0672,-3064.1109,-3165.409,22591.2184
52394.6732,24953.1269,51344.1414,38480.6693,33945.2773,35854.7866,4803.2105,48896.1786,44178.62,54963.9612,-3066.346,-3167.063,22593.0959
52376.0319,24946.6002,51344.499,38470.2086,33921.5845,35854.4737,4803.8363,48868.1942,44167.9806,54959.5356,-3078.5501,-3178.0154,22592.023
52365.5713,24942.3534,51340.7439,38461.8491,33913.4485,35860.0616,4805.2222,48869.4459,44164.4937,54958.1945,-3087.1332,-3179.8482,22589.8325
52387.163,24950.6682,51344.3202,38481.161,33945.8138,35873.5174,4812.5982,48898.6373,44175.0884,54963.7377,-3074.2586,-3164.3808,22597.7451
52404.0163,24954.7362,51343.4261,38491.264,33960.4765,35872.7127,4813.9393,48916.9657,44182.0174,54964.8553,-3069.2965,-3156.9153,22598.2368
52391.1417,24948.2095,51340.3416,38481.5633,33947.736,35865.4261,4810.0501,48902.75,44176.5189,54962.3966,-3073.3198,-3164.9172,22592.9618
52371.0698,24940.4311,51339.8945,38472.8909,33926.7254,35861.7604,4805.1327,48875.9726,44154.5248,54952.9195,-3086.9991,-3176.3613,22586.4798
52369.1922,24941.3252,51343.3814,38475.0366,33922.255,35862.9674,4808.4855,48874.0504,44157.1176,54951.2208,-3085.5238,-3173.5897,22588.3573
52382.4692,24950.1765,51347.4494,38488.5371,33944.3386,35867.5271,4813.1347,48893.2729,44175.0437,54960.1614,-3068.8494,-3158.2564,22593.4088
52394.405,24952.9481,51345.8401,38499.3106,33964.1869,35870.7458,4812.0618,48909.3661,44185.9514,54967.4034,-3061.831,-3152.9814,22594.7946
52392.2592,24947.8519,51345.4825,38498.9977,33964.5445,35866.7225,4808.6643,48907.7568,44183.0456,54961.9943,-3064.9602,-3161.2515,22591.576
52374.6461,24933.815,51342.7556,38483.6197,33933.2521,35855.9489,4802.0482,48888.8025,44168.6511,54951.1313,-3083.5569,-3178.4624,22582.0094
52366.1524,24929.7023,51340.8333,38475.1707,33918.9917,35852.4621,4799.9024,48882.7229,44158.0564,54952.696,-3091.2012,-3184.095,22579.1484
52385.2855,24936.8995,51343.0685,38489.61,33940.807,35858.3629,4804.194,48899.1737,44165.5219,54958.6415,-3074.795,-3169.4323,22584.9599
52394.5391,24941.8616,51342.532,38488.9394,33948.0937,35856.4854,4800.8859,48905.4322,44174.3731,54962.039,-3069.3412,-3165.6325,22587.0162
52382.4692,24928.6294,51338.1958,38479.1046,33929.6758,35845.3095,4792.5711,48895.821,44165.4325,54955.8699,-3081.724,-3178.373,22582.9035
52357.3458,24919.9122,51333.636,38463.9949,33907.19,35834.0889,4785.5526,48873.5586,44150.4121,54951.0866,-3101.7065,-3192.3205,22577.9861
52359.2681,24922.0133,51334.3066,38471.2815,33908.084,35833.9995,4786.5808,48865.8696,44146.2547,54953.7241,-3104.7016,-3195.0027,22575.9745
52378.4459,24932.0716,51336.6759,38479.5517,33926.8595,35838.7828,4787.3855,48883.8851,44157.207,54958.865,-3095.9845,-3186.3302,22574.544
52387.8783,24936.229,51332.0714,38481.8316,33934.9061,35844.1919,4786.3126,48899.0396,44167.6676,54959.1333,-3082.7522,-3178.2389,22574.4992
52382.201,24933.1892,51332.742,38481.1163,33928.1559,35843.3872,4785.8655,48894.5693,44163.3314,54951.8466,-3085.7027,-3185.2573,22572.577
52364.9454,24927.5565,51332.5632,38471.4156,33906.1618,35840.8391,4783.9433,48874.9892,44155.8212,54944.9176,-3103.0476,-3196.3438,22572.0853
52370.7569,24927.9588,51334.0384,38470.2981,33906.1618,35842.5826,4785.8655,48872.0387,44153.2284,54943.3082,-3104.9699,-3196.2991,22571.5041
52382.5139,24932.6974,51331.3115,38481.921,33929.3629,35846.4271,4789.8889,48882.2311,44166.863,54947.2868,-3086.2838,-3180.7423,22575.3486
52393.7345,24939.537,51335.6477,38489.4758,33943.7127,35851.0315,4793.7781,48896.6703,44180.4975,54953.903,-3076.1361,-3171.5333,22581.2048
52387.5654,24935.6925,51339.8945,38485.0055,33935.2638,35846.6953,4794.4039,48894.3011,44177.7259,54953.9924,-3082.6628,-3179.267,22582.0988
52373.3944,24931.4457,51341.0568,38477.7635,33914.7002,35842.0461,4795.2533,48882.9911,44161.7221,54952.6066,-3097.1467,-3188.0736,22579.6849
52375.406,24933.6362,51341.4592,38479.6858,33913.359,35846.1142,4797.2202,48890.3224,44161.4985,54954.0371,-3097.9514,-3182.9774,22584.1105
52390.0241,24942.4875,51339.6263,38485.8102,33939.9129,35855.9489,4799.1872,48925.8617,44182.1069,54959.5356,-3084.3168,-3171.0416,22590.4137
52397.0872,24944.8121,51343.4708,38488.4924,33950.8653,35861.9839,4802.1823,48940.6139,44188.2759,54966.9117,-3072.7386,-3165.1855,22593.6323
52383.2738,24941.5487,51340.5204,38481.6974,33934.2356,35856.7089,4799.7683,48925.2359,44179.6929,54961.7708,-3081.277,-3175.9143,22588.8938
52361.6821,24934.9773,51334.4407,38469.851,33906.8323,35849.6457,4794.4933,48900.9172,44164.1808,54951.3996,-3095.001,-3192.0075,22580.3554
52359.581,24924.8296,51329.4339,38467.9735,33899.2774,35848.0811,4794.6274,48892.4682,44164.9854,54946.1693,-3094.5987,-3191.7393,22576.7791
52374.5567,24924.3826,51326.4835,38473.3379,33915.7283,35844.3707,4792.3923,48902.9735,44170.4839,54945.9457,-3083.2887,-3186.0173,22575.6168
52382.3798,24919.197,51325.9917,38479.5964,33930.6593,35843.2084,4790.8276,48908.4721,44172.585,54947.6892,-3078.5054,-3179.0435,22576.8685
52378.7141,24920.6722,51327.3776,38478.1212,33925.6525,35845.3989,4794.3145,48894.3905,44170.3051,54946.7504,-3084.3616,-3180.8317,22579.3272
52364.0513,24914.369,51328.1822,38467.75,33907.3241,35843.3872,4792.8393,48876.062,44163.4655,54941.0731,-3093.347,-3188.7889,22578.5226
52355.2001,24910.5245,51325.0083,38461.0444,33898.8304,35839.7663,4788.7266,48870.9658,44156.3129,54938.0332,-3096.8785,-3190.13,22575.8404
52386.4925,24917.3641,51329.568,38474.9025,33922.7021,35850.4504,4788.9054,48891.0824,44165.4772,54945.5881,-3081.9476,-3179.1776,22580.3554
52396.8637,24923.9355,51330.9538,38484.1561,33937.8119,35854.2949,4786.1338,48908.7403,44170.7522,54950.9972,-3073.7221,-3173.7685,22581.9647
52381.9327,24918.437,51331.2668,38479.4623,33933.9226,35849.2434,4781.8422,48902.3477,44165.8348,54946.8398,-3083.4675,-3183.3798,22579.4166
52367.5829,24918.3476,51329.9257,38473.5614,33916.0413,35843.0296,4777.059,48886.3885,44152.2449,54940.9389,-3097.6385,-3195.0921,22577.852
52365.616,24912.3573,51325.4553,38469.5381,33908.7099,35848.2152,4775.4943,48879.1466,44149.8309,54940.3131,-3104.0311,-3195.0027,22576.1533
52383.9444,24918.5711,51323.1307,38482.9938,33922.6574,35857.1112,4774.8238,48900.4254,44161.1409,54943.04,-3088.5637,-3183.2904,22578.4779
52393.198,24922.3262,51320.0015,38491.6663,33932.3133,35855.6807,4772.3651,48906.7733,44162.9291,54943.3529,-3082.2158,-3182.3963,22577.5838
52379.2505,24916.4701,51315.1288,38477.9871,33920.2434,35846.5612,4768.6994,48905.3875,44154.2119,54933.7864,-3095.3139,-3194.4662,22572.7558
52362.9338,24913.6537,51320.0909,38468.0629,33897.4893,35845.4436,4769.6829,48884.958,44142.276,54926.5444,-3109.7084,-3204.1222,22569.2689
52356.407,24918.2135,51325.8129,38464.9336,33885.6876,35848.3493,4771.9181,48880.7112,44144.3324,54931.3724,-3109.172,-3202.0658,22570.9677
52377.6412,24927.6459,51332.9208,38479.194,33909.3804,35857.603,4778.0424,48901.6324,44160.4257,54940.0896,-3089.726,-3180.2505,22581.9647
52391.7675,24929.7023,51334.6195,38486.3466,33931.6875,35858.0053,4780.2329,48925.4147,44164.0913,54948.1362,-3079.1312,-3172.0251,22585.4516
52378.267,24927.2883,51336.05,38484.2902,33929.8993,35853.669,4783.4069,48915.8928,44152.2002,54947.6892,-3082.6181,-3179.0882,22584.9599
52354.0825,24921.298,51337.9723,38474.6343,33910.498,35853.669,4791.0064,48892.7364,44142.5443,54940.6707,-3093.5258,-3189.8171,22584.2446
52348.718,24925.679,51341.6827,38466.6771,33902.7196,35851.7021,4794.4486,48886.2991,44143.1701,54944.2023,-3094.4645,-3192.2758,22585.541
52362.8891,24937.0337,51346.1083,38477.7635,33930.257,35853.669,4799.9024,48902.4371,44152.8708,54949.9243,-3083.6016,-3178.373,22591.0395
52360.2515,24937.3913,51341.5486,38477.4059,33940.36,35847.6341,4800.6624,48904.8958,44152.5131,54945.454,-3075.4656,-3177.7024,22589.0726
52356.72,24939.09,51338.6428,38473.6955,33927.6642,35846.2036,4803.1211,48888.8025,44142.7231,54941.1625,-3080.9194,-3181.5916,22587.0609
52339.9115,24934.9773,51334.7983,38463.4584,33911.5262,35842.5826,4802.0035,48860.997,44126.1828,54940.626,-3091.0671,-3192.0075,22582.7694
52333.6083,24936.676,51335.2007,38453.8025,33909.7828,35838.7381,4802.9423,48838.4664,44115.3646,54937.2733,-3094.7775,-3192.7675,22580.5342
52344.6053,24947.5837,51333.0549,38462.1173,33928.6476,35843.9684,4807.9044,48850.3128,44119.1643,54937.8544,-3080.3829,-3175.6014,22584.3787
52352.1155,24950.4894,51332.2502,38462.7879,33941.7458,35846.7847,4814.1629,48858.8512,44114.9622,54938.0779,-3072.2916,-3168.3594,22588.1785
52355.6918,24952.1881,51335.7371,38470.0745,33947.1549,35848.6623,4819.8402,48846.4683,44110.0001,54935.5298,-3072.0681,-3167.51,22589.4749
52340.0903,24951.2047,51339.671,38464.8889,33935.1296,35843.9684,4819.7508,48818.7969,44098.6007,54932.2665,-3080.1594,-3179.4906,22588.1338
52328.825,24954.0657,51338.3299,38464.3525,33925.6078,35838.6934,4824.847,48797.4286,44097.1702,54928.0196,-3081.5005,-3178.82,22587.1056
52334.1894,24953.3057,51337.0782,38472.5332,33938.6165,35839.1404,4821.5836,48805.6093,44102.177,54927.662,-3071.3081,-3168.4935,22587.2397
52335.5752,24952.7246,51334.6195,38476.7354,33950.6865,35839.2745,4815.2357,48821.9708,44100.8806,54929.1372,-3068.9389,-3165.7666,22586.7033
52331.9542,24949.3718,51333.636,38473.3379,33943.3104,35833.4631,4815.5934,48814.5947,44091.8058,54929.4055,-3075.7338,-3169.8346,22585.4963
52317.4256,24943.2474,51329.8362,38463.5031,33918.2764,35825.2823,4810.8548,48776.7309,44080.4511,54924.2198,-3092.4529,-3183.9609,22580.3107
52307.725,24941.9063,51326.0365,38457.647,33913.3143,35827.0258,4810.0501,48765.6444,44070.9293,54916.1285,-3095.8951,-3190.6217,22580.5789
52317.3362,24947.3602,51326.2153,38468.2417,33923.6856,35835.3406,4811.0336,48773.8252,44074.4162,54916.665,-3080.6959,-3182.4857,22586.0327
52334.7259,24953.4845,51328.5846,38487.7324,33943.0422,35841.465,4814.6993,48783.9729,44081.3452,54920.3753,-3067.1954,-3172.338,22588.2679
52330.3896,24951.2941,51327.1093,38482.2339,33927.6642,35835.1618,4812.8217,48766.0468,44074.8185,54919.4366,-3071.3081,-3177.8365,22582.1435
52313.0,24945.3932,51328.1822,38475.886,33903.6137,35829.7527,4814.5652,48746.6902,44059.0829,54911.9264,-3084.1827,-3186.062,22581.6518
52305.5792,24938.1065,51328.3163,38470.9239,33897.3999,35825.9082,4813.09,48738.2412,44057.9653,54909.1548,-3091.3353,-3188.8336,22580.2213
52331.7307,24947.8519,51328.9422,38483.9326,33918.8129,35831.362,4818.9014,48749.6853,44071.3316,54915.4133,-3079.6677,-3177.8812,22584.8705
52349.2545,24952.5905,51330.2386,38493.4098,33928.4241,35831.1832,4824.4894,48758.6707,44075.5337,54919.3919,-3067.9107,-3168.6723,22588.715
52334.86,24952.8587,51331.0432,38487.9559,33916.3542,35826.5787,4821.3154,48743.1586,44069.5435,54922.2529,-3073.8562,-3174.5732,22585.5857
52315.3245,24947.986,51332.4738,38479.3282,33893.8236,35822.0637,4816.7557,48720.3598,44057.7418,54916.1285,-3085.7474,-3190.8005,22583.4399
52305.1769,24937.5254,51332.0714,38467.0794,33881.5749,35821.3037,4814.3864,48711.3297,44047.46,54911.9711,-3091.7376,-3195.9862,22581.6518
52326.9475,24941.8169,51331.535,38472.7567,33904.0607,35823.5836,4815.8616,48724.249,44055.9983,54919.973,-3079.4889,-3182.2622,22585.094
52339.1515,24941.4146,51331.2221,38476.8695,33916.3095,35821.6614,4815.7275,48737.7942,44063.6426,54924.6669,-3072.5598,-3174.4838,22585.6751
52332.9824,24937.3913,51330.7303,38466.6324,33902.6749,35816.7887,4811.2571,48732.5191,44063.8214,54916.1285,-3085.9709,-3180.1164,22578.5226
52323.7735,24938.5536,51333.189,38462.5643,33879.4291,35815.0452,4812.0171,48711.9555,44047.6835,54908.5736,-3098.0855,-3191.9181,22575.6168
52326.5898,24939.4923,51331.6691,38470.1639,33874.6458,35820.1861,4816.7109,48705.0712,44046.6106,54909.5571,-3096.3421,-3190.4876,22576.9579
52345.3206,24943.3368,51330.3727,38476.2436,33897.5787,35819.5603,4814.3417,48720.2257,44064.1344,54913.3569,-3083.8698,-3179.8482,22579.3272
52359.7151,24951.1153,51332.7867,38481.5633,33915.9966,35825.7741,4814.4758,48736.006,44086.9331,54922.4317,-3070.28,-3173.4556,22583.9764
52351.9814,24945.4826,51333.1443,38472.6226,33910.4533,35829.6186,4814.4311,48727.1994,44077.8583,54921.7612,-3070.7717,-3180.474,22583.3505
52336.5587,24935.782,51330.328,38457.334,33884.9723,35821.5272,4806.2503,48704.0877,44053.8526,54913.7145,-3091.6035,-3195.1368,22578.1202
52339.9115,24936.676,51334.5301,38463.1455,33887.3863,35823.2707,4809.3796,48699.0362,44057.1606,54915.0556,-3090.4412,-3189.683,22581.6071
52366.2865,24948.433,51336.0053,38473.8296,33914.879,35832.7478,4816.4874,48729.1664,44082.2393,54930.7019,-3072.4257,-3167.7336,22591.3078
52375.406,24947.4943,51335.3795,38475.3048,33923.9985,35834.9383,4818.9908,48750.8476,44088.9895,54932.1771,-3064.8708,-3165.2749,22591.9783
52367.4041,24947.3602,51336.0053,38475.5284,33916.1307,35836.3688,4818.2309,48750.4452,44084.9662,54929.4055,-3064.9155,-3167.6441,22589.5196
52345.7229,24943.0239,51333.636,38465.6936,33892.4378,35830.4679,4816.2639,48725.6795,44071.7787,54929.6737,-3081.1429,-3175.6461,22585.6751
52335.0835,24934.9326,51333.9937,38457.2446,33885.3747,35825.2376,4813.4476,48715.9342,44066.5036,54928.6902,-3088.2061,-3180.2952,22583.5741
52350.8191,24938.9112,51334.0831,38469.5828,33900.0374,35828.2775,4812.1512,48744.6338,44081.1664,54931.0148,-3074.8397,-3173.8132,22588.6256
52351.4003,24936.676,51331.5797,38471.7733,33909.1122,35821.7508,4810.3184,48748.2995,44082.9098,54929.629,-3070.8611,-3172.9192,22587.4186
52343.9795,24928.9423,51325.4553,38467.5711,33903.6584,35816.7887,4809.6925,48729.7028,44073.6115,54924.6222,-3081.0535,-3177.8812,22586.1222
52334.2341,24921.3427,51325.0977,38461.5362,33888.7274,35814.1959,4805.1327,48716.113,44063.4638,54914.9215,-3095.9398,-3191.4264,22578.7908
52326.411,24923.0415,51319.7333,38453.9813,33875.0035,35814.0171,4796.505,48706.0994,44058.5017,54910.9876,-3105.7745,-3198.6237,22571.817
52342.5937,24931.6245,51319.6439,38462.8326,33890.5156,35818.7109,4798.4272,48723.3102,44070.0799,54917.9614,-3089.9942,-3185.0785,22577.3156
52359.8939,24930.3728,51315.9782,38471.6392,33911.0792,35821.8849,4800.6624,48744.455,44083.8039,54923.5046,-3075.242,-3173.8132,22584.3787
52355.513,24930.0599,51315.397,38475.3942,33908.8887,35823.3601,4802.3164,48745.8408,44080.5852,54926.9021,-3078.0584,-3179.7588,22584.0658
52339.8221,24929.5235,51317.7216,38467.7052,33887.6098,35821.1696,4799.8577,48730.5075,44073.7009,54921.3141,-3093.9728,-3193.0804,22576.0639
52339.4644,24930.1493,51321.3426,38462.6985,33888.9956,35821.3931,4802.5399,48734.3073,44076.249,54919.8389,-3098.9349,-3194.2427,22576.198
52367.717,24942.0851,51328.674,38482.6362,33920.9586,35833.7313,4811.3912,48757.7766,44092.8787,54926.1421,-3082.5734,-3180.787,22582.5906
52385.0173,24958.3125,51333.0549,38496.539,33942.9528,35841.018,4813.3582,48772.35,44099.4948,54931.6853,-3068.9389,-3171.131,22585.2281
52381.3963,24961.9782,51334.9324,38494.9297,33930.5252,35841.2415,4810.4972,48761.7105,44094.7562,54928.4667,-3073.3198,-3178.2836,22585.5857
52372.098,24962.7382,51338.6428,38490.2358,33912.0179,35848.3046,4814.6099,48758.4919,44094.5774,54932.7582,-3081.5899,-3183.6927,22589.609
52372.7685,24963.9004,51342.3085,38488.3136,33911.4368,35853.8032,4816.8451,48755.2285,44093.8622,54933.1605,-3085.8815,-3178.1048,22591.9336
52391.3652,24966.1803,51344.5884,38490.3699,33932.1792,35864.3085,4819.9743,48782.7212,44109.1061,54940.5813,-3072.6492,-3164.3808,22598.3709
52393.7792,24963.7216,51345.7954,38496.1367,33942.5057,35873.0704,4820.2872,48803.7318,44120.5055,54945.0964,-3058.8359,-3155.2166,22600.3379
52384.302,24960.3689,51344.946,38494.2144,33928.5135,35867.7953,4816.2639,48800.1555,44114.6046,54944.3364,-3065.8096,-3161.4751,22596.091
52368.6111,24953.6186,51339.3134,38484.2455,33900.9315,35863.8614,4813.09,48775.7921,44096.5444,54936.0663,-3083.244,-3173.992,22593.9453
52355.9153,24944.6332,51333.1443,38479.9987,33894.5389,35856.0383,4808.4855,48764.3927,44101.1488,54929.8972,-3083.9592,-3174.7073,22589.7878
52368.9687,24941.9957,51337.1676,38487.5089,33917.1141,35852.1044,4813.1794,48787.728,44111.5201,54937.0944,-3066.9272,-3164.202,22592.2465
52378.0435,24942.8004,51334.2172,38494.4379,33937.5883,35850.7633,4811.5253,48810.8397,44117.8232,54943.6212,-3059.9087,-3160.4916,22593.4088
52360.9221,24939.8053,51329.7915,38484.9608,33933.8779,35843.6108,4807.9044,48797.2498,44109.9554,54942.1012,-3073.588,-3171.5333,22589.7878
52346.617,24928.8976,51325.3659,38466.0512,33903.9266,35827.5622,4800.2154,48764.9739,44096.3656,54930.4783,-3090.0836,-3188.8336,22581.6518
52345.9911,24929.1658,51330.6856,38466.3641,33900.6186,35824.1647,4802.5399,48762.0682,44095.4268,54927.215,-3087.6249,-3190.2641,22579.4613
52362.4867,24942.9792,51335.0219,38476.7801,33925.6525,35833.2396,4807.1444,48783.1682,44106.0662,54932.3559,-3072.9175,-3178.7306,22579.2825
52371.8745,24947.3602,51331.9373,38483.1727,33944.6068,35836.8158,4806.0268,48793.8523,44108.8378,54937.1392,-3062.8145,-3169.1194,22583.887
52369.1028,24941.1464,51329.7468,38474.2767,33934.772,35831.4514,4807.2338,48786.2974,44104.3228,54937.0944,-3068.9836,-3176.4507,22584.1552
52349.3886,24929.6576,51324.3377,38459.9268,33905.4018,35818.398,4804.1046,48770.83,44094.7115,54933.3841,-3089.9942,-3189.8618,22578.6567
52343.5771,24930.5069,51322.4602,38459.7033,33895.4329,35817.5039,4803.1658,48768.1031,44095.2927,54931.9088,-3092.4082,-3189.4594,22578.9696
52358.3293,24939.537,51323.6225,38470.7004,33911.0345,35831.0938,4808.9325,48791.036,44114.5152,54943.8447,-3076.0467,-3172.4274,22589.0279
52367.717,24941.4593,51326.1259,38476.9589,33925.4737,35831.9879,4807.3232,48804.2235,44121.5783,54950.1926,-3070.28,-3165.9901,22589.7431
52361.8162,24940.5652,51329.6127,38475.126,33920.1987,35829.2162,4808.3067,48799.485,44114.1129,54949.3432,-3076.8961,-3174.1709,22586.5692
52348.5839,24929.2105,51327.7799,38458.4516,33900.7974,35821.3931,4805.6692,48778.5637,44105.9768,54940.7601,-3091.5588,-3189.8618,22583.2164
52343.0854,24927.0201,51325.053,38453.7131,33898.5622,35819.7391,4804.8645,48774.8981,44094.3092,54932.8029,-3097.7726,-3196.7908,22577.9861
52358.8657,24931.7586,51327.914,38469.4934,33925.2055,35826.7576,4806.7421,48794.657,44108.7484,54937.9438,-3083.9592,-3179.1776,22583.0376
52361.7715,24932.7868,51328.0034,38480.1328,33938.393,35829.3504,4806.8762,48804.4918,44120.3266,54942.4142,-3073.6327,-3172.6956,22587.9103
52350.1486,24933.5468,51324.8295,38473.1591,33926.5466,35823.4495,4803.5681,48798.9932,44117.0633,54940.7154,-3079.0865,-3181.5916,22584.4681
52328.825,24929.2552,51321.9684,38454.5177,33897.8916,35817.0122,4799.8577,48778.6084,44100.6571,54933.3394,-3095.0904,-3196.0309,22578.299
52323.3265,24928.2718,51326.4388,38452.6402,33898.6963,35818.9344,4803.5234,48771.59,44100.1207,54935.3957,-3096.655,-3197.1484,22579.6849
52348.5392,24936.5866,51336.7206,38476.5565,33926.3678,35836.0112,4813.4923,48787.6385,44123.4559,54947.9127,-3075.1973,-3177.4789,22588.9832
52364.1407,24942.5322,51341.5486,38484.3349,33938.7059,35845.7118,4821.986,48806.8163,44133.2459,54958.2392,-3063.038,-3163.442,22596.4487
52363.5149,24944.4544,51342.5767,38475.1707,33933.4309,35842.7614,4820.0637,48805.2517,44121.623,54951.6231,-3073.1857,-3171.2651,22589.9667
52343.8901,24938.0171,51339.7604,38463.1902,33910.1404,35830.7362,4813.2688,48783.9729,44106.4239,54940.7154,-3092.2294,-3190.0853,22582.5906
52337.8998,24939.3135,51339.1793,38458.8093,33906.0724,35829.5292,4811.2571,48779.1449,44105.4851,54938.9273,-3099.1137,-3192.0969,22583.4399
52351.8026,24947.0919,51341.8615,38469.7169,33925.0267,35841.912,4814.0287,48797.0263,44115.3646,54943.7106,-3083.3781,-3179.4012,22587.1056
52368.924,24946.9578,51342.6661,38477.6741,33931.911,35848.1258,4814.9228,48811.7784,44121.3548,54947.1974,-3069.967,-3169.1641,22590.1902
52354.2613,24941.4593,51337.1676,38471.2368,33927.2171,35837.844,4809.2008,48805.5199,44105.8427,54941.3413,-3078.8183,-3177.7024,22585.7645
52332.3119,24933.2786,51331.4903,38461.5809,33910.9004,35828.2328,4803.4787,48783.4364,44094.2198,54935.8428,-3095.448,-3193.6169,22575.8851
52325.3381,24927.9141,51329.7468,38458.3622,33899.8139,35827.8304,4800.0813,48766.4938,44094.3092,54932.8923,-3101.2595,-3198.7131,22573.2923
52346.9299,24931.5351,51326.707,38468.2864,33919.4387,35833.1501,4802.7635,48783.2129,44103.2946,54938.3014,-3090.5306,-3184.6315,22575.1698
52355.0212,24931.1328,51325.6788,38476.6012,33926.2784,35835.0277,4802.8529,48795.0593,44113.9787,54940.9837,-3078.9971,-3172.9192,22578.6567
52349.8356,24927.4224,51328.2716,38471.058,33917.2035,35832.569,4803.3446,48787.2809,44110.5366,54938.3461,-3086.4626,-3181.7257,22577.6732
52336.961,24927.1095,51330.9538,38467.4817,33900.5738,35829.4845,4803.8363,48764.6163,44105.7533,54934.0546,-3098.8008,-3190.6664,22577.7626
52333.5189,24920.9851,51329.8362,38462.3855,33898.1599,35825.7741,4802.7188,48765.7785,44104.0099,54933.697,-3103.137,-3192.7228,22578.1649
52350.0144,24927.1095,51329.7468,38472.0862,33919.2599,35829.7527,4804.9539,48793.3606,44109.3296,54938.3909,-3087.0885,-3183.9162,22580.2213
52360.4304,24927.2883,51332.1608,38478.8811,33938.6165,35834.8936,4804.3728,48810.7502,44116.7057,54946.3034,-3073.7668,-3172.0251,22584.3787
52355.7812,24924.7402,51330.2833,38479.7305,33939.7788,35832.3455,4805.6692,48802.9271,44117.555,54944.0682,-3075.2867,-3172.2039,22586.1669
52340.6267,24911.1503,51328.4951,38466.4983,33914.879,35823.6283,4802.8976,48784.3305,44099.0925,54936.558,-3092.1847,-3189.1018,22585.4963
52339.6432,24910.301,51327.1987,38462.162,33907.9052,35824.2989,4802.1376,48786.6104,44110.2237,54939.9555,-3091.9164,-3187.3137,22586.1669
52350.2827,24917.7217,51325.4106,38466.4536,33926.4125,35824.6565,4801.4224,48798.5462,44122.9641,54942.5483,-3081.0535,-3178.0601,22589.8772
52357.7034,24922.6391,51324.0248,38469.4934,33939.7788,35828.6351,4800.3048,48812.7619,44125.2887,54944.247,-3074.7503,-3174.2603,22589.2961
52354.753,24922.1027,51323.9801,38469.404,33931.3298,35829.0821,4800.4389,48806.9504,44124.8417,54942.5036,-3082.7969,-3178.2389,22585.9433
52344.9183,24908.6022,51320.8956,38458.2728,33909.6934,35817.3698,4795.5215,48786.3421,44113.9787,54936.9603,-3100.1419,-3193.9745,22579.5507
52337.7657,24908.1999,51322.1473,38450.852,33901.7361,35810.8878,4792.4817,48783.9729,44107.4073,54936.2451,-3107.1603,-3200.4565,22574.8569
52350.4168,24916.5148,51322.0131,38454.3836,33915.773,35810.4408,4793.331,48796.8028,44122.6959,54935.6639,-3094.1963,-3189.3253,22573.6946
52363.0232,24921.4768,51322.9072,38467.2582,33934.1462,35819.8285,4794.5827,48808.7833,44131.8601,54939.732,-3086.6414,-3183.2457,22575.2145
52356.407,24920.3593,51323.5331,38466.543,33923.4173,35817.3698,4793.331,48802.7036,44126.451,54938.0779,-3091.0671,-3186.2855,22572.9793
52341.4761,24911.8656,51327.2434,38455.9035,33899.3222,35811.3796,4793.1969,48780.2625,44118.7173,54935.2169,-3104.1652,-3196.5673,22568.956
52349.2992,24912.4914,51330.2386,38453.2213,33898.741,35815.4476,4796.505,48779.726,44115.901,54934.4122,-3105.9086,-3199.6965,22572.577
52370.7122,24924.1143,51328.4504,38464.8889,33921.9868,35822.2425,4801.2882,48803.8659,44126.8981,54941.7436,-3090.8436,-3184.4527,22577.2262
52377.7753,24929.3,51331.4009,38471.5945,33939.1083,35824.5671,4806.1162,48825.5471,44133.7824,54946.6163,-3082.5734,-3175.8696,22577.3156
52375.9425,24931.5351,51331.5797,38467.6158,33932.6262,35827.6516,4804.9986,48830.241,44129.8485,54948.8515,-3087.9378,-3176.6742,22578.8355
52361.995,24928.0483,51334.9771,38456.887,33911.8391,35825.1929,4804.6857,48812.9854,44126.2722,54950.3714,-3102.0641,-3185.6149,22579.7743
52364.9007,24925.4107,51337.8829,38457.1552,33915.7283,35827.5622,4805.401,48809.3197,44129.8038,54948.4938,-3101.8853,-3182.7986,22577.4497
52381.5751,24931.9375,51342.3532,38471.505,33942.7739,35834.7148,4812.0171,48839.6287,44146.657,54956.5852,-3083.1099,-3165.9901,22584.8258
52387.476,24937.3466,51342.1297,38482.0551,33956.4979,35839.5427,4816.0851,48865.8696,44151.3509,54962.486,-3072.381,-3158.5693,22589.609
52380.0552,24939.3582,51344.7225,38482.5915,33950.8653,35839.4533,4817.2921,48857.0631,44145.003,54959.5803,-3072.8728,-3165.409,22590.2349
52359.5363,24932.8315,51344.2755,38466.0065,33920.3328,35832.2561,4811.0783,48837.3935,44134.8106,54953.0089,-3087.0438,-3183.8268,22584.334
52349.4333,24929.9258,51343.292,38467.0347,33904.3289,35831.9432,4812.9559,48835.6948,44144.8241,54950.6843,-3093.3022,-3187.1796,22581.4283
52365.2136,24934.3961,51345.8848,38489.5205,33932.8498,35842.5379,4817.4262,48855.0067,44156.9388,54957.6133,-3076.8067,-3169.1194,22589.2961
52380.681,24936.4972,51340.9674,38492.1581,33949.3006,35845.6224,4816.5321,48867.9707,44155.7765,54962.039,-3069.8776,-3163.7549,22590.2796
52373.752,24934.9773,51331.4009,38478.7917,33938.0354,35837.2629,4813.4476,48858.0912,44148.8475,54957.3898,-3083.244,-3173.4109,22584.7811
52356.1835,24925.5002,51329.2551,38465.336,33916.4436,35829.3056,4808.8878,48830.8221,44128.5521,54947.2868,-3102.4665,-3188.0736,22579.3719
52356.1835,24918.6605,51326.0365,38469.9404,33915.5942,35830.5573,4803.0764,48827.8717,44125.4675,54944.694,-3101.483,-3191.8734,22577.0473
52366.2865,24918.5264,51321.2532,38476.0648,33925.429,35832.8819,4798.4272,48840.9251,44133.2906,54946.4822,-3088.519,-3179.8035,22579.8637
52379.2505,24926.3942,51324.293,38480.1328,33938.6612,35829.8868,4799.4107,48855.5878,44146.0758,54953.6794,-3081.277,-3171.6675,22581.2942
52366.7336,24917.677,51314.3241,38473.3379,33926.2784,35821.0355,4792.7052,48837.1253,44135.2576,54945.0964,-3092.4976,-3187.3137,22570.9677
52350.1039,24909.988,51311.6419,38462.162,33904.3736,35815.0005,4790.2465,48817.8581,44131.4131,54938.212,-3107.3391,-3197.819,22569.0454
52350.5509,24907.6635,51319.5992,38462.0279,33899.2327,35818.398,4793.0628,48820.6297,44130.3849,54938.8826,-3108.7697,-3196.7014,22572.3088
52361.5479,24914.5031,51323.1754,38473.5167,33920.7351,35825.5059,4797.8461,48849.8658,44133.2012,54945.7669,-3093.4811,-3183.648,22576.198
52371.0251,24917.0959,51321.432,38478.9258,33934.0121,35827.5175,4796.7732,48862.4722,44143.0807,54953.8136,-3086.2838,-3175.4225,22582.0541
52370.5333,24918.3476,51320.985,38484.7373,33932.0898,35831.0044,4799.9918,48848.6588,44141.6055,54957.3898,-3088.966,-3181.1446,22581.2048
52354.753,24910.1669,51321.2979,38483.2621,33918.5894,35832.7031,4799.5001,48821.4344,44131.726,54951.8466,-3095.3586,-3192.0522,22576.198
52347.064,24910.0775,51322.6837,38477.8082,33916.98,35831.1385,4800.8412,48817.0087,44129.312,54949.1197,-3093.2128,-3193.8851,22575.4827
52366.5994,24915.8889,51327.3329,38480.2222,33934.5932,35837.6205,4803.1658,48841.6404,44144.0195,54956.1381,-3082.1711,-3179.4012,22581.3836
52385.9113,24921.9239,51332.2055,38492.8286,33949.2559,35847.947,4807.2338,48864.8862,44154.5248,54959.5356,-3071.0846,-3163.6208,22589.1173
52376.4342,24916.6489,51333.1443,38488.4477,33929.6311,35840.8391,4806.7868,48860.8629,44148.4004,54957.4345,-3075.8232,-3166.616,22588.402
52359.581,24914.4137,51333.1443,38481.3845,33909.2463,35835.6982,4801.5118,48843.652,44137.5822,54952.383,-3089.0554,-3179.8035,22584.8705
52359.6704,24912.8491,51337.3017,38483.4856,33916.9353,35836.7264,4802.0929,48850.2234,44145.8523,54954.3947,-3085.6133,-3180.6976,22587.508
52380.0999,24921.8792,51342.4873,38488.7159,33936.3813,35837.2629,4806.7421,48872.0834,44162.1691,54964.0059,-3074.7503,-3165.409,22590.6372
52396.7743,24930.1493,51345.6613,38496.6731,33951.7593,35845.086,4814.2523,48888.9813,44170.4839,54969.8174,-3067.1954,-3155.6636,22595.4205
52389.6217,24929.1211,51340.1628,38492.1134,33941.1646,35844.5495,4811.0336,48883.7957,44168.964,54964.6765,-3077.209,-3161.5198,22591.3972
52360.5645,24920.3593,51334.7536,38474.232,33913.4932,35834.6701,4800.7518,48862.4722,44150.3674,54952.8748,-3099.1584,-3182.7986,22581.026
52354.2166,24912.7597,51334.9324,38464.3078,33904.7313,35829.7527,4792.3028,48851.9669,44150.3227,54951.2655,-3109.3061,-3191.337,22575.3933
52377.82,24918.3029,51334.9771,38476.6906,33925.5184,35835.2959,4796.1473,48875.0339,44167.5335,54960.7873,-3095.0904,-3176.9425,22582.0541
52381.5751,24920.7169,51330.5068,38482.4127,33931.151,35832.9266,4795.3427,48888.9813,44175.1331,54963.4248,-3082.3499,-3170.0581,22587.4633
52368.477,24918.3476,51328.9422,38482.5021,33918.8576,35828.7245,4792.884,48872.4411,44164.8513,54960.0273,-3090.3965,-3175.9143,22584.8258
52347.9581,24909.7645,51324.3377,38464.6654,33890.292,35817.2357,4788.9054,48845.0825,44143.9301,54952.3383,-3111.8542,-3192.2311,22574.7228
52345.3653,24903.8637,51323.086,38462.1173,33891.7673,35817.8169,4788.1007,48836.2759,44138.5657,54946.661,-3115.4305,-3194.3768,22572.8899
52360.4751,24909.8092,51321.7449,38475.3942,33918.4999,35821.8402,4789.3524,48858.583,44148.2663,54948.8068,-3100.4101,-3179.1329,22576.4215
52373.2603,24911.4633,51324.7848,38483.3962,33938.6612,35828.7692,4790.023,48879.0125,44161.6327,54957.6133,-3084.138,-3170.1922,22580.6683
52367.717,24914.2349,51326.9752,38482.4127,33932.7604,35830.6915,4791.8111,48877.6714,44158.6822,54954.797,-3083.244,-3173.4556,22579.059
52347.2428,24905.0707,51319.6439,38470.4322,33914.0743,35828.7692,4787.7878,48863.3215,44148.4898,54944.2023,-3094.241,-3186.6431,22573.6946
52341.2079,24897.0687,51317.9004,38473.8743,33906.3853,35826.3999,4785.8655,48862.0251,44142.589,54941.2072,-3100.4548,-3191.5158,22573.7393
52358.1058,24908.9152,51319.0627,38485.4525,33924.0432,35832.7031,4788.1007,48882.1864,44160.1127,54950.0138,-3081.2323,-3178.7306,22583.1717
52371.4274,24920.7616,51319.5992,38490.057,33940.2258,35836.4582,4792.0793,48896.715,44174.8202,54956.9428,-3071.2634,-3170.7734,22588.9385
52367.5382,24918.7946,51323.4437,38485.5419,33928.8712,35833.9995,4793.3757,48888.4449,44163.1973,54954.4841,-3081.9029,-3178.9094,22586.1669
52362.9338,24916.1124,51329.9704,38481.3398,33914.7449,35838.291,4795.5662,48864.4838,44148.9816,54953.8136,-3096.1186,-3190.3535,22583.9317
52361.7715,24910.9715,51327.8246,38479.5964,33914.3425,35832.8372,4795.298,48861.3993,44143.8407,54955.6017,-3101.483,-3192.3205,22582.0541
52370.5333,24913.8772,51323.3542,38484.5138,33929.8546,35833.329,4794.8956,48881.8735,44157.3411,54959.625,-3087.312,-3181.5022,22581.5624
52374.0649,24910.0775,51324.2036,38489.7888,33937.3648,35835.6535,4793.5098,48906.5945,44161.588,54965.7941,-3081.9029,-3176.9425,22579.506
52366.063,24905.2942,51325.0083,38483.575,33927.3512,35832.8819,4789.0395,48903.2865,44149.1157,54962.039,-3090.2177,-3187.0455,22574.544
52355.1106,24905.0707,51329.568,38476.1095,33907.7264,35830.2891,4787.609,48883.4828,44140.9349,54958.6862,-3105.8192,-3197.059,22573.1581
52348.9416,24909.1834,51330.2833,38478.3447,33902.2726,35826.847,4784.2115,48879.7277,44145.4947,54960.2509,-3109.6637,-3197.5061,22573.337
52371.3827,24915.3972,51329.4339,38491.5322,33925.2949,35829.9762,4790.2912,48891.9318,44161.3644,54960.6979,-3094.6434,-3184.9444,22574.544
52385.6878,24928.5847,51333.2337,38500.8752,33943.6233,35837.9334,4796.0579,48910.0367,44170.9757,54968.3422,-3082.2605,-3171.0416,22579.6849
52378.8482,24926.2601,51335.3348,38491.7557,33941.254,35838.2463,4794.4486,48898.9055,44158.7269,54967.8504,-3091.1118,-3180.8764,22577.9861
52354.3954,24916.1124,51333.8596,38478.2106,33912.4203,35834.6254,4794.3145,48882.4099,44144.6453,54961.279,-3104.2099,-3194.3321,22575.6615
52352.8755,24909.7198,51334.3513,38479.2835,33902.4067,35836.0559,4791.9005,48883.1699,44145.2712,54960.7873,-3104.5228,-3191.4264,22575.438
52366.6888,24914.2796,51335.0219,38490.3252,33922.2997,35837.2629,4796.2815,48901.4089,44158.3693,54962.3072,-3089.2342,-3177.7918,22580.9813
52372.3215,24918.3476,51336.4971,38496.986,33938.1695,35839.051,4796.1026,48913.613,44166.2371,54967.8952,-3082.2605,-3167.1524,22586.7033
52366.7336,24915.8442,51334.1725,38502.5293,33935.532,35836.0559,4797.712,48907.9356,44170.5734,54966.9117,-3086.1944,-3169.1194,22585.2281
52350.3721,24907.6188,51333.0102,38487.1513,33912.2862,35829.2162,4794.4933,48880.4877,44155.1954,54956.2722,-3104.4781,-3186.4196,22581.3389
52352.5178,24912.1338,51339.4475,38486.7042,33907.7711,35829.5292,4794.9404,48868.9542,44152.6473,54958.418,-3104.344,-3188.0736,22579.3719
52372.098,24922.7285,51343.8284,38497.2543,33932.9839,35833.776,4800.573,48897.5197,44164.1808,54964.9,-3084.9874,-3174.8861,22585.0046
52389.0853,24928.8529,51348.2541,38506.7314,33952.117,35844.5942,4808.7984,48919.3797,44173.6579,54972.0079,-3071.174,-3159.5975,22594.437
52378.6694,24923.9802,51346.3765,38504.0045,33943.5339,35844.5048,4807.3679,48908.4274,44169.4111,54969.6833,-3075.7785,-3164.1126,22590.4584
52356.2729,24920.8957,51341.325,38487.196,33915.6389,35836.7264,4803.1658,48890.3224,44159.4869,54963.3354,-3093.6599,-3180.8317,22583.4399
52349.5227,24919.197,51338.1511,38480.0434,33905.3124,35835.2512,4798.7401,48890.1436,44154.5695,54960.832,-3101.3489,-3182.3963,22581.4283
52366.51,24922.8179,51336.2736,38492.6051,33927.7536,35841.0627,4798.919,48915.8928,44167.7123,54967.4034,-3084.8086,-3169.1194,22586.5245
52376.3448,24920.6722,51337.3017,38502.1269,33940.8964,35841.6885,4801.0647,48933.6848,44177.3683,54974.9583,-3070.9058,-3160.9386,22591.3078
52366.7336,24921.9686,51339.3581,38501.2329,33929.0053,35838.9616,4803.3446,48921.749,44169.5452,54970.7115,-3070.9505,-3165.9454,22592.1124
52354.7977,24915.576,51332.5185,38491.8451,33911.4815,35833.3737,4799.6342,48895.5975,44154.2566,54961.5026,-3087.1779,-3180.5187,22584.8705
52349.1651,24898.991,51331.3562,38482.368,33901.915,35825.64,4791.5876,48890.5907,44155.0165,54961.5473,-3095.7609,-3183.8715,22582.9929
52358.2846,24904.1766,51331.8926,38482.0998,33913.9849,35823.4048,4787.8325,48898.5926,44161.8115,54961.279,-3089.8601,-3177.3895,22583.9764
52377.7306,24917.677,51334.843,38501.9481,33939.9576,35834.1336,4795.0298,48914.1494,44174.4626,54964.6318,-3078.3266,-3169.1194,22584.3787
52372.7685,24913.2961,51331.9373,38500.3388,33933.2074,35834.4465,4794.7168,48905.9687,44172.8085,54960.6532,-3081.9029,-3175.9143,22577.6285
52353.3672,24905.6965,51331.1327,38491.7557,33912.0179,35827.9198,4790.6935,48884.958,44161.9903,54957.5239,-3093.9728,-3185.9279,22576.1086
52354.8424,24908.334,51330.2386,38487.7324,33908.2628,35824.88,4790.2465,48887.0591,44160.8727,54956.2275,-3097.3256,-3187.2243,22571.1465
52377.9541,24919.3311,51330.9091,38499.7129,33924.8478,35835.1618,4794.7168,48915.9375,44173.4344,54953.5006,-3086.2838,-3172.2486,22574.9016
52383.3632,24926.1707,51331.0432,38503.9598,33937.9013,35842.4038,4790.6041,48929.2592,44178.2624,54955.0653,-3082.6628,-3167.5994,22576.6003
52378.3118,24921.0298,51332.6973,38500.607,33928.3347,35845.533,4787.4302,48918.8433,44166.6842,54949.6561,-3089.1448,-3176.1825,22575.6615
52361.995,24915.6207,51327.6011,38485.7208,33900.7974,35841.7332,4781.7528,48897.3409,44155.3742,54940.2237,-3103.9417,-3189.1018,22569.716
52359.8939,24916.7383,51325.9917,38488.403,33899.6798,35840.258,4781.6634,48886.6568,44155.6871,54939.3296,-3098.7114,-3184.9891,22574.1863
52380.7704,24923.8461,51332.5185,38504.228,33919.2152,35848.4387,4789.7995,48912.0483,44168.4723,54947.2421,-3079.7124,-3164.3808,22580.8918
52389.7558,24936.4078,51340.9674,38516.1191,33937.8119,35855.2784,4793.2416,48941.3291,44171.8698,54955.7358,-3067.0613,-3151.8638,22590.9948
52381.8433,24927.6906,51339.5369,38504.4515,33926.5019,35849.601,4790.1571,48927.024,44157.7882,54949.075,-3080.2488,-3165.856,22586.4798
52361.8162,24911.1503,51337.8829,38484.4691,33902.1832,35836.2794,4784.6586,48906.1475,44139.6832,54940.6707,-3100.6336,-3186.7772,22576.5109
52352.6967,24912.9832,51338.9558,38476.2436,33899.5904,35833.8207,4785.4185,48902.9288,44138.0292,54941.1625,-3104.0758,-3185.0338,22574.9463
52361.8609,24927.3777,51344.3649,38488.0006,33926.4572,35846.8741,4795.4321,48911.7801,44145.0477,54953.6347,-3085.2556,-3166.4371,22581.1601
52367.0018,24928.8082,51345.7954,38493.4545,33940.5835,35846.8741,4804.0599,48913.7918,44151.3956,54962.3966,-3074.4374,-3158.7929,22587.2397
52357.0329,24921.2086,51342.4873,38488.5371,33935.8002,35838.6934,4804.9092,48896.1786,44151.1273,54956.8534,-3081.6793,-3166.7054,22584.2446
52337.1398,24918.2135,51339.7604,38477.8529,33914.4319,35831.0938,4804.5516,48867.6578,44129.8485,54950.4161,-3093.9728,-3184.095,22578.8355
52329.6297,24917.1406,51338.4193,38466.0512,33902.8537,35820.5438,4800.6624,48856.1243,44114.5599,54945.6775,-3097.102,-3188.7442,22574.6334
52342.5043,24922.5944,51345.5719,38470.9686,33921.8527,35826.6681,4806.6974,48866.4508,44117.8679,54952.0701,-3083.2887,-3170.1475,22583.7976
52347.2428,24933.0997,51350.8022,38484.022,33941.5222,35830.8703,4811.6595,48874.0057,44131.8601,54956.004,-3074.2139,-3162.4138,22589.8325
52328.9144,24928.4059,51346.6448,38477.0036,33928.4688,35820.7673,4810.3184,48851.2069,44125.1546,54948.1809,-3084.2274,-3171.4439,22586.6586
52300.8853,24923.3991,51342.6661,38464.6207,33904.6866,35810.8878,4806.8762,48829.7492,44100.5677,54937.8544,-3103.8523,-3187.4031,22576.5556
52300.0807,24926.6177,51342.2638,38463.6372,33904.0607,35808.5185,4807.1444,48816.1594,44089.3918,54935.6639,-3105.5063,-3190.0853,22574.4545
52320.5996,24939.3582,51339.224,38470.6557,33920.601,35812.5418,4809.1114,48823.1331,44100.3442,54941.2966,-3092.2294,-3178.1942,22578.7461
52325.1593,24948.6119,51331.8926,38475.439,33936.6943,35814.3747,4806.4291,48831.0009,44100.3889,54939.5531,-3089.2789,-3174.9308,22581.4283
52318.6773,24951.2494,51331.3115,38476.1989,33929.8993,35812.8995,4806.8315,48815.8017,44089.0789,54932.043,-3092.6317,-3180.9658,22580.6683
52297.6667,24941.9957,51333.7255,38468.644,33903.3008,35811.8713,4808.1279,48787.7727,44074.5503,54926.0527,-3107.6074,-3193.5722,22573.8287
52297.3984,24937.9724,51332.6973,38464.6207,33894.7177,35811.5137,4808.1279,48769.6677,44073.6562,54922.9681,-3109.8425,-3196.2097,22573.9181
52317.0233,24947.3602,51334.843,38481.8316,33917.6953,35823.0919,4814.744,48787.9515,44089.0789,54931.3277,-3094.0175,-3178.7306,22582.4565
52321.5383,24950.6682,51332.0714,38493.7674,33931.0169,35827.3387,4816.2639,48793.2712,44091.8058,54932.3112,-3084.8086,-3171.2204,22586.0327
52311.033,24946.5555,51332.8314,38494.0803,33919.7069,35823.0025,4813.6264,48778.7873,44079.1547,54924.4881,-3089.4578,-3177.3001,22584.3787
52293.5987,24943.0239,51336.5418,38482.5021,33890.4262,35812.1395,4811.2571,48749.1041,44070.214,54917.6037,-3103.4946,-3192.2311,22579.7296
52294.1798,24937.883,51333.3678,38476.2436,33878.0433,35806.5516,4808.7984,48730.1499,44058.7699,54911.2558,-3105.7298,-3200.3224,22576.3321
52312.5529,24942.6663,51332.4738,38484.6926,33894.8071,35811.3796,4809.469,48747.3607,44064.3132,54912.9993,-3086.5967,-3189.37,22578.3437
52313.3129,24938.2406,51328.5846,38489.4311,33908.4864,35815.0452,4806.1162,48755.1391,44066.4142,54909.87,-3081.9476,-3181.5916,22577.8967
52308.9767,24931.2669,51325.5447,38485.6313,33898.1599,35812.8995,4806.5633,48746.1537,44058.7252,54906.4279,-3094.8669,-3188.476,22570.8336
52294.8056,24924.6508,51328.7187,38476.2436,33872.7683,35802.9753,4801.4224,48724.1596,44043.5261,54903.4774,-3106.2663,-3196.4332,22565.0668
52297.4432,24919.0629,51332.3843,38479.8646,33871.8742,35803.1541,4798.6954,48710.2121,44041.3356,54905.2209,-3101.93,-3197.4614,22567.749
52318.7667,24926.2601,51339.224,38485.1396,33890.1132,35809.7702,4801.5565,48731.6698,44059.4405,54913.7145,-3088.2061,-3181.8599,22576.4662
52330.3896,24933.5021,51338.3299,38490.1017,33897.4446,35813.5253,4802.6294,48743.9185,44067.5765,54915.1003,-3077.7901,-3172.4274,22580.6236
52329.585,24931.3116,51339.224,38491.5322,33890.1132,35811.2007,4807.4573,48736.9448,44064.1344,54915.3686,-3076.5831,-3173.3662,22581.2048
52308.2614,24924.7402,51337.9276,38476.1542,33862.0842,35801.4554,4804.9092,48706.5911,44051.2151,54906.2043,-3099.9184,-3192.1864,22575.1698
52301.0194,24926.6177,51335.603,38469.404,33859.1337,35803.6458,4803.881,48695.1917,44053.182,54905.9808,-3107.9203,-3191.784,22574.3204
52329.0485,24942.8898,51344.9013,38489.5653,33887.431,35815.4476,4815.8169,48724.5619,44075.042,54922.1188,-3085.8368,-3168.6276,22589.5643
52340.9396,24949.1036,51349.1482,38499.0871,33900.708,35821.6614,4819.8402,48741.281,44083.9827,54927.662,-3070.9952,-3159.5975,22599.6226
52330.6578,24944.3203,51345.0354,38487.196,33887.9675,35816.1628,4814.0287,48731.491,44070.4376,54918.9448,-3080.6065,-3172.1145,22591.9783
52309.9154,24935.3796,51343.2026,38470.7004,33861.1454,35807.9821,4809.1561,48712.8496,44052.5115,54910.8982,-3098.622,-3183.8268,22584.2446
52308.7084,24925.7684,51337.7935,38459.5692,33852.3835,35797.0297,4802.227,48701.1373,44050.5445,54903.6562,-3109.8425,-3188.8783,22578.9696
52331.5966,24928.7188,51337.4358,38468.0182,33871.1143,35800.606,4802.3164,48716.3365,44059.7087,54910.4512,-3096.1186,-3177.6577,22578.4332
52345.5888,24925.9025,51334.0384,38472.3097,33886.4923,35806.3281,4802.987,48723.802,44062.838,54914.6533,-3089.3236,-3173.9026,22576.7344
52334.1,24919.5099,51327.8246,38461.8044,33876.9257,35803.3776,4798.0696,48713.699,44053.3161,54909.2442,-3099.6501,-3184.2738,22571.5488
52316.6656,24917.99,51325.2765,38450.3603,33855.9598,35798.9073,4795.9238,48695.5047,44036.8652,54899.3647,-3115.2517,-3197.4167,22566.4973
52318.4538,24916.2018,51327.154,38449.958,33856.3174,35798.2367,4794.0463,48696.3093,44040.665,54899.0965,-3116.8163,-3200.1436,22565.0668
52341.1185,24926.2601,51333.5019,38475.886,33885.5535,35812.7654,4803.881,48723.3102,44063.732,54911.2111,-3091.4247,-3182.7986,22574.2757
52352.8308,24931.6692,51332.6973,38496.6731,33907.1006,35821.4825,4810.4525,48741.4598,44080.6746,54918.1402,-3072.381,-3165.1855,22582.9482
52348.4945,24926.5283,51332.3396,38493.7674,33896.9529,35820.052,4814.5652,48741.6387,44080.317,54914.4745,-3078.0584,-3171.1757,22583.3505
52325.1593,24916.5595,51332.5185,38481.0269,33875.227,35810.6643,4815.4593,48718.4823,44064.0002,54911.4794,-3094.9116,-3183.7821,22577.2262
52315.7716,24911.2397,51331.6244,38475.6625,33875.5846,35805.5234,4811.7936,48703.2831,44060.2452,54909.6465,-3097.8173,-3185.9726,22577.9414
52338.5257,24919.2417,51339.8945,38489.61,33894.3601,35814.5535,4815.0569,48714.9954,44082.1499,54922.8787,-3077.4325,-3172.2039,22585.1387
52350.685,24925.0084,51344.3202,38491.9792,33901.915,35819.158,4815.3698,48732.5639,44085.8155,54923.7728,-3074.4821,-3168.4488,22586.3457
52348.6286,24924.7849,51339.5816,38480.9375,33884.2124,35815.1793,4808.8431,48726.6183,44076.7407,54920.5989,-3087.6249,-3178.82,22580.5342
52332.6695,24922.7732,51335.5136,38473.2932,33862.1289,35811.2454,4802.4058,48708.111,44067.5318,54915.7709,-3102.2429,-3190.0853,22575.3933
52322.5665,24920.5828,51331.4903,38468.8675,33860.7877,35809.4126,4800.5283,48712.2685,44065.3861,54908.976,-3108.2332,-3192.0075,22569.2689
52337.4528,24929.1658,51329.5233,38480.4457,33885.1511,35815.8499,4803.3446,48737.4365,44076.6513,54916.9332,-3095.2692,-3178.6412,22572.3088
52353.8589,24938.3301,51331.8479,38493.5439,33902.0044,35819.8285,4806.295,48755.005,44084.1168,54923.1917,-3083.0204,-3170.1028,22578.5673
52346.4829,24935.5137,51330.6856,38491.0852,33893.466,35817.951,4803.7022,48748.4783,44076.0255,54918.9895,-3090.7094,-3178.1942,22576.5556
52330.5237,24933.7703,51330.775,38476.1989,33875.3164,35815.7158,4797.4885,48727.3782,44060.8263,54912.5522,-3104.3887,-3192.6781,22568.956
52331.6413,24937.0337,51331.9373,38476.2436,33873.4835,35815.0452,4794.8509,48720.4492,44063.4191,54909.7806,-3102.7347,-3193.1251,22566.8103
52353.9931,24942.8898,51333.7702,38492.2028,33899.2774,35823.7177,4799.2766,48749.1488,44077.903,54913.7592,-3082.931,-3176.3613,22574.7228
52368.2982,24950.7576,51334.3513,38497.7907,33911.7944,35829.7527,4799.5448,48770.0701,44086.6202,54915.8156,-3076.5831,-3169.924,22578.3437
52357.1223,24947.8966,51334.7089,38490.504,33898.9198,35825.64,4795.5215,48767.2091,44081.9263,54912.9993,-3082.8416,-3177.7918,22579.0143
52338.168,24939.7606,51332.2055,38475.5284,33883.3183,35823.0919,4792.7946,48749.5512,44072.0022,54906.7408,-3102.8688,-3193.1698,22575.1251
52339.4644,24944.1415,51334.4854,38475.1707,33877.8645,35831.7196,4794.8509,48755.1391,44076.9196,54911.2111,-3101.1254,-3193.4828,22578.6567
52359.3575,24952.9928,51335.2901,38482.5915,33889.2192,35836.8605,4799.5448,48774.451,44094.3539,54922.5658,-3084.9427,-3179.9376,22584.6916
52372.7685,24949.8636,51337.8382,38491.3087,33901.4679,35839.8557,4803.3446,48786.4316,44105.038,54928.7349,-3076.1361,-3170.1028,22588.9385
52358.374,24943.9627,51345.5719,38488.8053,33896.9976,35831.4961,4806.9656,48785.9845,44101.9535,54931.5512,-3084.7639,-3171.9804,22594.437
52345.41,24940.297,51342.7556,38475.3495,33875.5846,35822.4213,4803.8363,48764.3033,44091.8058,54925.1139,-3095.448,-3182.3963,22588.2232
52346.4829,24934.3961,51340.6992,38467.3923,33879.8314,35820.1414,4803.9258,48749.6853,44091.9846,54918.9448,-3098.1302,-3189.3253,22580.713
52364.2749,24938.6877,51337.7488,38471.7733,33902.9431,35815.9393,4802.7635,48770.5618,44101.9088,54918.8554,-3087.0885,-3181.994,22581.3389
52374.199,24946.1532,51339.7157,38480.8034,33918.0082,35822.9578,4810.2736,48787.6832,44114.247,54926.0527,-3073.3198,-3168.9852,22588.8044
52361.3244,24940.8334,51340.9674,38476.4224,33906.2959,35820.1414,4812.4641,48776.2392,44103.6969,54923.9516,-3083.4228,-3174.9755,22585.0493
52346.6617,24931.7139,51339.0899,38463.2796,33889.3533,35807.4456,4807.9938,48758.7601,44091.6717,54915.3239,-3100.8124,-3190.0853,22575.7509
52347.9581,24928.4506,51337.3911,38463.369,33888.3251,35804.8081,4806.608,48753.1722,44096.5444,54917.9614,-3103.6288,-3190.89,22574.4098
52364.0513,24935.9608,51341.8615,38474.232,33916.2201,35813.3912,4809.916,48779.9495,44111.6989,54927.8855,-3085.0321,-3171.7569,22581.6965
52366.4206,24941.3699,51342.5767,38480.714,33922.1656,35812.7654,4811.6148,48789.382,44122.383,54931.1489,-3076.8514,-3164.6043,22583.7082
52354.8871,24939.2688,51341.7721,38478.4788,33910.1851,35811.2007,4814.9675,48784.5987,44116.8845,54930.4783,-3080.4724,-3172.785,22584.7811
52337.721,24935.022,51342.532,38472.5779,33896.9529,35811.916,4819.0355,48771.5006,44108.9272,54928.5561,-3092.14,-3181.8151,22589.8325
52336.2905,24931.5798,51340.0733,38469.3146,33895.7012,35816.1181,4820.6449,48764.348,44108.0779,54932.49,-3095.1351,-3183.5139,22591.2631
52360.1174,24940.6546,51346.4212,38479.7752,33919.0811,35821.3931,4822.3436,48789.0691,44121.8019,54943.2188,-3075.7785,-3168.0018,22596.1804
52369.5499,24948.0307,51347.4494,38478.4788,33932.2686,35827.294,4820.6896,48804.3129,44131.0108,54946.3481,-3069.1624,-3162.4138,22597.0298
52357.2117,24940.2076,51343.6943,38468.9569,33916.6671,35818.2639,4814.4758,48795.5511,44118.7173,54939.3296,-3081.9029,-3173.545,22590.369
52342.5937,24923.8908,51336.0947,38450.6732,33888.8168,35805.881,4805.088,48767.7008,44099.0478,54927.9749,-3105.2828,-3190.13,22578.7461
52337.3187,24920.5828,51334.1725,38456.5741,33884.7935,35808.9656,4802.987,48758.8048,44096.2315,54922.5658,-3109.6637,-3192.0969,22574.9463
52350.0592,24926.2601,51332.4738,38464.3078,33900.9762,35814.6876,4802.4058,48781.693,44110.8495,54924.1304,-3096.6103,-3183.3351,22573.6499
52356.5412,24930.5516,51330.7303,38471.2815,33911.258,35815.8946,4801.7353,48793.45,44110.7601,54924.9351,-3090.173,-3175.1543,22570.923
52347.6452,24924.6955,51322.9966,38467.9288,33904.2842,35814.8217,4799.5895,48790.5443,44096.6785,54917.2014,-3097.0573,-3184.5421,22567.8831
52332.6695,24918.7946,51320.0462,38458.8987,33882.5136,35807.848,4793.9122,48770.9641,44083.0886,54908.4395,-3109.7531,-3200.5906,22565.1562
52323.103,24917.5429,51320.225,38458.0046,33882.916,35811.0219,4796.7285,48761.487,44089.9283,54908.3948,-3107.205,-3199.3389,22568.5537
52337.3187,24918.2582,51322.9072,38469.851,33911.7497,35824.2095,4806.7868,48785.9845,44111.5201,54918.8554,-3090.933,-3180.3399,22576.7791
52353.546,24927.0648,51328.5846,38473.9637,33931.6875,35833.0607,4808.2173,48801.2731,44115.901,54928.1538,-3081.6793,-3169.03,22582.5459
52345.4994,24926.4389,51329.6127,38474.1426,33918.0082,35833.4631,4810.1395,48795.417,44109.9107,54926.7679,-3084.3616,-3173.0086,22585.4963
52326.858,24923.712,51331.1774,38463.2349,33891.4543,35827.1152,4808.3514,48773.3781,44102.7135,54923.0576,-3100.4995,-3182.7092,22585.2281
52328.065,24920.7616,51333.189,38454.1601,33890.6497,35824.2095,4806.3844,48769.8466,44100.4783,54922.2082,-3107.9203,-3185.2126,22586.5245
52344.2477,24919.5546,51335.9159,38460.4633,33912.5991,35826.6681,4803.6128,48791.7513,44112.1459,54930.1207,-3097.5491,-3174.8861,22589.6537
52354.0825,24927.6012,51336.0053,38472.0862,33924.5796,35832.2114,4806.1162,48799.8426,44123.3218,54935.6639,-3085.7921,-3163.9338,22592.5148
52339.2409,24918.5264,51334.3066,38467.5264,33914.3872,35824.6118,4806.295,48788.5326,44114.2023,54929.0925,-3089.5472,-3171.5333,22587.2844
52319.8396,24912.7597,51330.4174,38453.8472,33887.2969,35816.8781,4797.8461,48764.3927,44095.2033,54919.7495,-3109.7531,-3192.7675,22577.2262
52315.1904,24904.0425,51326.4835,38455.1883,33882.916,35815.4029,4795.3874,48759.7883,44081.0323,54911.2111,-3112.793,-3196.3438,22570.8336
52330.5237,24899.9298,51320.8508,38471.1027,33914.6107,35818.7556,4798.5613,48772.8864,44088.006,54912.9993,-3093.9728,-3183.6927,22574.1416
52340.135,24896.3535,51313.3854,38477.6741,33929.7652,35822.9578,4800.0813,48780.1731,44098.6454,54914.4745,-3080.2488,-3175.2437,22574.8122
52334.0106,24884.3282,51309.0044,38468.0182,33913.4037,35817.8616,4795.4768,48769.9807,44086.1732,54905.802,-3090.0836,-3183.201,22569.4031
52318.2303,24877.3992,51304.8023,38451.7014,33891.1861,35804.0482,4789.2183,48755.3626,44067.5765,54897.1742,-3112.5247,-3201.7976,22561.4011
52315.6822,24876.6392,51301.7178,38451.8355,33881.5749,35796.538,4784.9715,48746.2878,44062.5697,54896.8166,-3112.6589,-3206.1785,22561.4458
52330.5684,24876.5498,51297.5156,38460.3292,33893.1978,35797.2533,4787.2066,48760.9059,44085.145,54906.1149,-3096.9232,-3193.5722,22569.8948
52336.1564,24871.0513,51296.0851,38457.3787,33902.4961,35799.1308,4786.849,48769.0866,44092.3423,54909.9147,-3093.1681,-3187.0902,22573.6499
52325.651,24866.7151,51295.191,38448.6169,33887.3863,35791.8441,4784.7927,48757.3296,44091.0459,54908.976,-3102.6453,-3193.3486,22572.3535
52300.3489,24851.6947,51290.2737,38432.3001,33861.9947,35777.8072,4779.6071,48739.2247,44078.5736,54901.1976,-3119.9008,-3209.9783,22563.9045
52292.4811,24846.7773,51290.0054,38431.406,33859.4913,35778.3437,4778.1765,48732.9215,44080.6299,54906.2043,-3122.3595,-3209.3525,22566.3632
52300.9747,24853.5275,51290.1843,38437.5304,33872.0083,35786.0774,4775.7626,48757.0167,44098.109,54909.6465,-3112.1224,-3198.0425,22568.9113
52311.8824,24858.6684,51292.7324,38436.4128,33884.3018,35787.642,4776.2543,48765.3762,44102.1323,54910.5853,-3105.4169,-3194.1086,22569.0901
52306.3391,24858.4002,51292.8218,38429.8861,33880.1444,35785.5409,4774.6897,48764.7504,44101.9088,54910.7194,-3112.0777,-3197.2378,22568.2408
52290.4247,24853.9299,51291.1677,38417.7268,33859.1337,35779.6848,4772.9015,48742.3092,44089.213,54904.3715,-3127.3663,-3208.4584,22564.7092
52288.9495,24853.0358,51290.8548,38423.8064,33853.9928,35783.6634,4775.9414,48739.2694,44095.0245,54908.7524,-3120.3032,-3206.0444,22565.0221
52302.7629,24853.8405,51288.7985,38437.2622,33886.984,35785.7198,4778.8024,48758.4472,44103.5628,54910.9429,-3104.2993,-3195.2709,22565.4691
52315.9057,24853.0358,51286.1162,38442.5819,33896.6846,35784.0657,4779.6518,48771.0536,44108.659,54912.0158,-3096.6997,-3191.5158,22562.1611
52306.3838,24846.5091,51284.8645,38434.7588,33877.328,35780.9365,4775.1814,48764.2586,44098.3772,54907.9925,-3107.518,-3200.7694,22559.5683
52286.6696,24843.6481,51285.0881,38421.7948,33858.7314,35777.2708,4771.471,48751.6969,44088.8554,54903.9692,-3121.1972,-3209.4866,22557.7801
52279.2935,24844.6763,51282.8976,38425.7287,33856.7197,35777.1367,4768.6994,48753.798,44088.6319,54899.4541,-3126.4275,-3209.576,22556.3943
52295.8338,24851.4265,51278.6955,38435.787,33874.4223,35784.1998,4773.1698,48769.8466,44101.5512,54905.1762,-3114.5811,-3197.6402,22560.6412
52304.6404,24853.2593,51276.6838,38438.4692,33888.8168,35787.1056,4774.5109,48784.4646,44112.0118,54909.6018,-3104.1205,-3192.0075,22563.7704
52290.2906,24846.1962,51277.9355,38426.6675,33874.1541,35778.7907,4770.6664,48773.8252,44103.1158,54905.7573,-3118.0233,-3200.9929,22557.4225
52273.795,24841.3235,51278.7402,38415.9833,33856.8538,35769.4477,4764.8549,48752.9486,44088.9001,54899.5882,-3132.7754,-3218.6061,22551.2534
52276.5219,24845.6597,51282.54,38421.1242,33859.0443,35777.4943,4768.3865,48754.558,44085.8155,54896.2802,-3130.272,-3219.4108,22549.7782
52296.1915,24853.3934,51288.0385,38434.8929,33878.3562,35787.4632,4772.9462,48787.6385,44096.1868,54901.4211,-3119.275,-3207.1173,22550.8958
52311.3012,24858.4449,51290.0501,38442.8054,33889.3086,35792.7382,4776.746,48806.9057,44102.4899,54904.148,-3112.8824,-3197.7296,22554.4721
52303.0311,24863.0047,51292.0171,38440.3914,33885.6876,35791.7547,4778.9365,48801.8543,44101.1041,54900.4376,-3117.2633,-3197.9084,22556.9308
52283.8086,24853.0358,51287.1891,38429.2603,33869.7731,35781.5176,4768.7888,48778.9214,44090.6435,54891.9886,-3127.4557,-3209.4419,22553.2204
52281.0817,24855.0475,51284.6857,38429.2603,33867.538,35781.8753,4766.8666,48774.5404,44097.349,54890.8263,-3124.9076,-3213.3311,22555.1873
52310.4966,24869.4867,51286.2056,38447.991,33893.466,35794.6157,4772.5886,48794.2994,44114.8728,54896.3249,-3106.4898,-3200.5906,22561.267
52321.0913,24877.1757,51283.9258,38459.0775,33909.0675,35800.606,4772.231,48808.1574,44120.1478,54899.0518,-3098.6667,-3192.6781,22560.2388
52308.3508,24869.8443,51280.8412,38452.2825,33893.6001,35789.6984,4764.4079,48799.6191,44105.3063,54894.4473,-3111.2731,-3206.1785,22554.338
52288.5472,24858.0426,51275.745,38436.2787,33866.5545,35778.7907,4759.1776,48769.3548,44084.1615,54888.1888,-3125.8911,-3221.8248,22549.3759
52291.587,24855.9415,51272.3923,38439.0503,33858.7314,35782.4117,4763.2009,48771.9029,44084.2956,54886.1772,-3126.2934,-3219.3661,22552.1475
52310.1836,24860.4566,51274.0463,38447.4546,33877.0598,35790.5477,4764.6761,48793.897,44099.3607,54895.3414,-3115.6987,-3204.301,22555.3662
52311.2565,24865.1057,51274.6722,38442.3584,33887.8334,35788.7149,4764.4526,48812.6278,44109.0614,54895.5649,-3114.9387,-3199.7412,22554.1145
52303.2099,24866.6257,51274.1357,38441.3302,33875.1376,35784.8257,4763.1115,48813.2089,44104.7251,54891.8992,-3123.2089,-3207.3855,22549.7335
52294.4033,24861.6189,51276.505,38430.8696,33856.5856,35782.1435,4761.2339,48795.5958,44094.1304,54885.909,-3138.2293,-3218.4273,22546.4702
52300.6618,24862.5576,51279.9025,38430.5567,33864.0511,35784.2892,4762.2174,48794.3441,44092.0293,54890.0217,-3134.1165,-3214.5828,22548.7053
52318.5432,24871.0066,51280.3495,38437.888,33885.5982,35790.6371,4764.8996,48814.3265,44112.9059,54898.7389,-3118.1574,-3198.8025,22556.9308
52333.3848,24880.5285,51282.1823,38455.1883,33908.084,35805.3446,4771.1581,48844.5461,44127.1663,54901.6893,-3101.7959,-3184.7656,22563.5469
52323.3265,24875.5217,51282.0929,38450.3603,33892.9296,35801.7683,4771.9181,48836.4995,44125.9593,54902.3598,-3107.518,-3187.269,22564.441
52311.1224,24868.0562,51280.6177,38446.9628,33879.3397,35803.1541,4770.577,48817.6346,44112.1012,54898.2471,-3118.9173,-3200.3671,22562.027
52306.5627,24862.6024,51281.0647,38442.7607,33866.0181,35800.9189,4765.8831,48811.6443,44111.5648,54898.5153,-3122.8065,-3204.9716,22565.5586
52320.689,24873.3759,51282.7635,38453.3107,33881.2619,35804.0929,4768.2524,48833.102,44126.9875,54909.3783,-3108.0991,-3188.7889,22572.5323
52336.0223,24877.7568,51286.4739,38469.9404,33902.9878,35809.4573,4774.645,48852.5927,44142.0972,54919.6601,-3092.4529,-3175.6461,22580.5789
52323.3712,24865.2846,51286.7421,38461.9385,33888.9509,35800.8295,4772.8568,48840.8357,44136.4646,54917.2461,-3101.1701,-3186.2855,22574.9463
52305.5792,24860.5013,51292.7771,38447.7228,33869.2814,35793.3193,4774.0638,48823.0884,44125.3781,54911.7923,-3117.5315,-3201.7529,22569.5819
52312.4188,24870.4255,51294.3864,38444.9065,33871.9189,35800.3378,4776.0755,48826.62,44126.9875,54913.491,-3117.7998,-3202.6023,22571.1912
52333.9212,24884.5965,51297.6944,38461.3574,33900.395,35813.4806,4783.8539,48854.6044,44144.7347,54927.6173,-3097.4597,-3184.0503,22577.0473
52343.443,24891.3467,51297.7391,38464.3525,33909.5145,35815.3135,4784.3903,48867.9707,44148.4004,54927.9749,-3092.6317,-3177.2554,22575.9745
52338.7045,24898.544,51300.5555,38463.4584,33900.9315,35819.8285,4786.6255,48860.2817,44147.5511,54931.5959,-3096.655,-3178.5071,22575.7062
52323.3712,24900.1086,51305.5623,38457.0211,33881.0384,35817.5933,4789.263,48849.1952,44142.6337,54932.5794,-3106.758,-3183.8715,22575.2145
52322.3877,24889.6927,51307.4845,38455.9482,33876.5681,35816.9675,4790.47,48854.1573,44142.8125,54930.6571,-3110.8707,-3186.6431,22574.9463
52347.4663,24903.3719,51315.7547,38478.4788,33912.2862,35828.3669,4795.745,48878.9678,44158.7269,54936.3345,-3090.0836,-3169.2535,22580.8918
52363.5596,24916.5595,51320.985,38495.2426,33940.4047,35834.8936,4802.227,48895.4633,44172.7191,54942.4589,-3075.6891,-3158.8823,22585.2281
52350.0592,24919.4652,51318.258,38487.3301,33926.1442,35831.9879,4803.1211,48890.0989,44165.5219,54936.4686,-3085.9709,-3166.6607,22581.6071
52336.4246,24905.026,51314.2794,38474.3661,33899.0092,35829.1268,4793.4204,48869.7588,44140.5773,54921.8506,-3106.1769,-3186.4643,22575.2145
52335.2623,24892.956,51308.915,38468.1523,33888.191,35823.6283,4785.1056,48866.6296,44132.1731,54917.4249,-3117.2186,-3193.9745,22569.716
52345.1418,24896.7558,51303.1483,38474.4555,33906.0277,35821.4378,4779.3835,48881.5159,44142.4996,54918.3637,-3109.8872,-3188.8783,22564.7092
52339.5985,24893.6266,51295.1463,38470.611,33909.8275,35815.3135,4771.5157,48885.4051,44151.3062,54918.0061,-3110.7813,-3190.9347,22560.9988
52325.3828,24890.6314,51293.1347,38469.851,33894.0918,35804.7187,4770.264,48871.3682,44146.9699,54912.3287,-3115.2517,-3199.6518,22557.1543
52315.9057,24884.7753,51292.6877,38460.061,33875.0035,35801.6342,4768.8782,48855.2302,44139.0127,54903.5221,-3131.032,-3215.5663,22556.0814
52320.3313,24871.856,51290.1396,38459.1669,33872.6342,35793.8111,4767.8053,48848.2118,44138.8339,54900.08,-3135.6364,-3218.919,22551.3428
52334.86,24873.4206,51288.4408,38472.4885,33888.0569,35794.6157,4769.5488,48873.648,44150.1886,54910.0041,-3121.8231,-3204.9268,22553.8909
52344.7841,24879.545,51284.1493,38474.4555,33898.9645,35798.0579,4767.6265,48888.6237,44144.1536,54912.9993,-3111.1836,-3196.3885,22554.0698
52332.2672,24877.6227,51283.1658,38462.3408,33888.9509,35800.159,4767.2689,48865.4673,44140.1303,54908.216,-3120.6161,-3198.5343,22551.164
52314.1623,24872.6159,51285.2222,38462.0726,33873.5282,35799.4884,4767.2242,48847.7647,44128.5074,54907.9478,-3132.3284,-3205.508,22546.0231
52319.6161,24872.7053,51287.9938,38468.3758,33879.5632,35803.8694,4771.1134,48851.2963,44137.7163,54912.0605,-3128.3051,-3202.0658,22553.3098
52329.272,24879.4556,51286.2056,38467.437,33893.2425,35804.1823,4767.0901,48867.5684,44141.2926,54918.1402,-3117.7998,-3196.9696,22554.6509
52347.2875,24886.3399,51288.3514,38478.7917,33909.0675,35807.4456,4769.1017,48886.3438,44152.5131,54923.9963,-3098.9349,-3185.8832,22560.6859
52334.5023,24890.9444,51298.1415,38482.5915,33911.6156,35813.6594,4779.4729,48888.6237,44154.4801,54927.4385,-3097.3703,-3184.7656,22565.8268
52314.9669,24882.0037,51298.7673,38468.8228,33893.7789,35806.8645,4780.8588,48870.2953,44143.9748,54919.9283,-3118.2468,-3197.8637,22562.027
52321.8066,24883.7024,51304.087,38469.9851,33892.4378,35809.8596,4785.4632,48874.7209,44148.311,54922.6552,-3116.9057,-3194.4662,22566.8997
52340.6267,24891.4808,51312.4019,38476.2883,33909.8722,35819.5603,4790.2465,48898.1456,44165.5219,54933.2947,-3103.1817,-3179.58,22571.1018
52346.0358,24899.3486,51312.2678,38483.3515,33921.5398,35824.2542,4790.2465,48918.0386,44166.9524,54942.9953,-3097.6832,-3170.7287,22571.817
52350.1933,24906.0094,51310.7926,38487.7771,33916.98,35825.2376,4793.2416,48915.1329,44168.1147,54941.6989,-3102.1088,-3177.3001,22571.7276
52340.7161,24903.9978,51318.7945,38481.8316,33905.5806,35827.5175,4799.9471,48893.5411,44161.6327,54937.4521,-3109.3508,-3188.3419,22570.3865
52336.2011,24901.6285,51318.7051,38477.4059,33898.0258,35827.6516,4798.3825,48882.0076,44159.2187,54938.1673,-3109.6637,-3189.3253,22566.8997
52356.1835,24908.1552,51319.1521,38485.7655,33917.0694,35830.8703,4799.0978,48902.9735,44168.964,54942.1012,-3095.0904,-3174.752,22570.4759
52372.098,24926.0366,51328.2269,38499.6682,33937.4989,35838.9169,4807.7703,48929.8403,44179.4246,54947.868,-3080.83,-3163.2632,22575.438
52359.8045,24930.8199,51330.6856,38500.2941,33930.7487,35838.9169,4810.9889,48921.9278,44176.9212,54944.5152,-3081.5005,-3167.5547,22575.438
52344.3818,24915.9783,51332.0714,38488.0453,33900.7527,35830.602,4805.848,48902.2136,44161.8562,54937.6756,-3096.1186,-3182.6198,22571.1018
52340.8949,24914.7713,51336.363,38492.4263,33903.8819,35830.3338,4803.3446,48887.2379,44167.9806,54941.386,-3094.8222,-3183.3798,22572.2194
52359.0893,24917.677,51332.6973,38501.9481,33923.0597,35830.3338,4803.1211,48907.9803,44173.1215,54944.0682,-3083.6016,-3172.6956,22574.3651
52369.5499,24923.3991,51334.2172,38509.2348,33940.0917,35833.1949,4804.2387,48927.9628,44175.8931,54947.9574,-3078.1031,-3164.7831,22580.4001
52356.4517,24916.4253,51330.8197,38498.4165,33927.3512,35830.1997,4801.6459,48921.8384,44172.8085,54946.3928,-3089.2342,-3168.8958,22576.3768
52332.8036,24907.6188,51324.2036,38485.9443,33904.0607,35825.8188,4802.1823,48909.3661,44168.1594,54938.7932,-3106.0874,-3184.095,22573.2028
52334.4129,24911.2397,51328.5846,38493.2756,33904.6419,35830.4232,4803.434,48915.9375,44171.8698,54939.5084,-3104.8357,-3183.8715,22577.3603
52347.064,24916.8724,51325.9917,38501.7693,33923.2385,35836.2794,4799.5001,48934.1319,44178.5753,54939.8214,-3093.2128,-3176.5401,22577.5838
52358.374,24914.0114,51322.0131,38504.5856,33924.5349,35837.0394,4799.0084,48948.3476,44184.8785,54942.4589,-3091.2012,-3174.305,22575.3039
52345.5441,24905.6518,51317.7663,38501.2776,33910.6321,35833.3737,4800.8412,48937.8422,44174.6414,54934.8146,-3099.7843,-3180.7423,22568.6878
52336.8269,24898.6334,51320.5379,38490.6381,33890.3815,35834.223,4800.1707,48916.1611,44162.1691,54928.7796,-3110.5578,-3194.1086,22564.6645
52341.6549,24899.2145,51323.8907,38489.7441,33889.9791,35827.6516,4799.9471,48910.7519,44160.8727,54932.4006,-3108.2779,-3194.0192,22564.7986
52351.7579,24891.8384,51324.8742,38496.0026,33909.5592,35825.0588,4798.2037,48921.6149,44172.0039,54940.2237,-3092.9446,-3179.7588,22567.7937
52356.6753,24893.4478,51325.5447,38504.9433,33924.0879,35827.7857,4799.2766,48939.0492,44174.6414,54942.7718,-3085.3003,-3173.6344,22567.2573
52354.8424,24897.0687,51324.5165,38500.4282,33920.8245,35830.2444,4799.8577,48932.1649,44168.7852,54937.3627,-3091.8717,-3179.7141,22567.0785
52336.7375,24893.716,51322.192,38486.4807,33899.6798,35823.4942,4796.505,48911.6013,44159.8892,54929.629,-3106.1321,-3192.0522,22566.0503
52334.9941,24897.2923,51319.2862,38485.8102,33897.6234,35830.8703,4794.7615,48914.2835,44166.3265,54934.9487,-3109.7531,-3195.8073,22566.5867
52352.1155,24909.0493,51318.3028,38497.9248,33917.9188,35838.0675,4796.9967,48939.1834,44175.446,54943.5318,-3097.2809,-3179.7588,22575.3039
52356.0047,24914.3243,51318.3922,38498.9977,33921.3163,35834.1336,4793.2863,48955.5001,44174.6861,54945.1858,-3090.9777,-3177.5236,22575.8404
52355.0212,24913.4302,51318.3475,38498.3718,33911.705,35840.0792,4794.8509,48947.0065,44172.9873,54945.4987,-3095.6715,-3183.7374,22575.2592
52340.8055,24913.2961,51317.9004,38485.9443,33888.3251,35833.4184,4789.2183,48921.5255,44165.8795,54940.2684,-3111.2283,-3192.6334,22574.2757
52345.9464,24914.5031,51318.6604,38477.8082,33882.0219,35832.2561,4788.2348,48915.3117,44171.1098,54938.4803,-3112.5695,-3194.6898,22575.7509
52364.6772,24922.505,51323.4437,38487.3748,33908.4417,35845.1754,4791.0511,48938.6916,44183.3138,54947.5551,-3097.1915,-3179.1329,22583.6188
52368.5217,24926.2601,51323.3542,38487.8665,33918.3211,35848.5729,4793.9569,48951.4768,44185.4149,54949.2985,-3089.9495,-3175.5567,22583.3952
52361.6821,24922.7732,51324.4718,38479.0152,33904.9101,35845.3095,4794.9404,48948.2135,44177.6812,54945.6328,-3096.8785,-3184.855,22581.5624
52351.6685,24917.4535,51325.9917,38471.4156,33883.4524,35841.6438,4796.3709,48933.5954,44170.1263,54940.0449,-3107.1603,-3191.0688,22581.6965
52353.1884,24916.1124,51327.154,38475.0813,33885.1511,35843.6108,4798.159,48937.0823,44168.3382,54940.7601,-3105.0146,-3188.2077,22580.2213
52358.0611,24920.0463,51329.0316,38484.2902,33907.5476,35847.6341,4802.7635,48954.919,44170.4392,54948.4491,-3089.8601,-3174.7967,22581.8306
52365.7948,24925.7237,51328.361,38493.5439,33924.7137,35844.5942,4808.1279,48959.7023,44172.585,54950.4161,-3082.6181,-3164.5149,22583.5741
52355.7812,24920.9851,51327.3776,38484.8267,33920.3328,35841.0627,4803.5681,48943.9666,44160.2021,54940.9389,-3093.7046,-3173.992,22578.2543
52333.8318,24910.0327,51328.7187,38471.9968,33902.809,35831.8985,4802.987,48916.9657,44139.6832,54930.5677,-3105.0593,-3189.1465,22571.7276
52328.9144,24914.4137,51330.0151,38471.4156,33895.12,35830.4679,4809.2008,48903.6888,44131.6366,54935.0381,-3105.5957,-3189.4594,22570.6995
52337.4528,24921.9239,51333.949,38482.1892,33914.0296,35835.3406,4812.8664,48913.8365,44134.587,54946.4822,-3093.4364,-3176.3613,22573.4264
52339.5091,24930.6411,51335.603,38486.1678,33925.6525,35833.5972,4816.7557,48914.8647,44135.8835,54950.0585,-3087.5355,-3168.1806,22577.0026
52318.4538,24923.4438,51329.7915,38469.2699,33908.3076,35818.1745,4810.9889,48894.1669,44122.383,54940.0896,-3100.4101,-3184.4974,22571.9959
52297.6667,24911.6421,51322.0131,38457.1999,33884.8382,35805.3893,4805.5798,48851.6092,44100.3442,54929.9419,-3120.3926,-3201.44,22565.335
52286.759,24910.2563,51319.4203,38456.3059,33884.9276,35804.1823,4805.5798,48832.1185,44095.0245,54922.4317,-3123.9688,-3200.9482,22562.8763
52303.1205,24918.5711,51320.672,38468.5546,33909.291,35811.0666,4808.0385,48843.6967,44104.8145,54922.7446,-3103.2711,-3186.7325,22567.9725
52312.0612,24924.6955,51321.5214,38473.5614,33924.3114,35812.676,4811.4806,48849.8658,44105.038,54923.5046,-3097.415,-3184.2738,22567.6149
52309.5131,24924.3826,51324.4718,38468.0182,33910.5427,35809.2338,4814.1181,48842.3109,44098.6007,54924.9351,-3106.5345,-3189.9959,22567.3467
52286.4908,24918.1241,51323.7566,38457.7811,33882.2901,35808.9209,4812.9559,48820.8532,44088.9448,54917.1567,-3116.4587,-3199.0707,22569.716
52289.7094,24922.1027,51327.6011,38463.1008,33886.0452,35814.5535,4819.1696,48821.5685,44091.4482,54916.7097,-3111.8989,-3193.3486,22577.2709
52309.4237,24936.9442,51332.1608,38481.6974,33916.1754,35826.1764,4826.6798,48840.1651,44110.8942,54928.2879,-3089.3236,-3175.4673,22585.5857
52315.0563,24944.8568,51332.0714,38489.1629,33931.8216,35834.7595,4829.8538,48851.6539,44110.1789,54934.0099,-3079.8912,-3170.0581,22590.9054
52302.5393,24943.5157,51333.2337,38483.6197,33921.1822,35830.6915,4829.8091,48832.7891,44102.4005,54933.9205,-3087.759,-3173.6791,22586.1669
52284.7027,24936.3631,51329.881,38474.6343,33894.7624,35821.4825,4823.64,48801.139,44094.7562,54925.6951,-3098.3537,-3184.5421,22581.2048
