FC3,FCz,FC4,C5,C3,C1,Cz,C2,C4,C6,CP3,CPz,CP4
56685.9841,28110.534,53981.334,42261.0193,36762.8485,39342.3736,5914.0474,50298.5269,44125.1099,55960.3572,534.5643,-640.288,26080.3699
56707.2183,28119.7876,53982.1833,42276.9338,36788.0166,39352.7448,5912.1698,50327.5394,44135.5705,55968.1803,546.5448,-626.3405,26081.8005
56711.4651,28127.9236,53981.1105,42275.5033,36790.7435,39350.2861,5911.0522,50341.4422,44138.6551,55972.8295,550.7469,-620.7973,26081.3087
56691.7956,28122.5145,53976.2825,42265.1321,36770.5375,39344.877,5909.6217,50333.2615,44131.726,55959.5972,537.2018,-637.6952,26074.335
56671.4108,28114.6914,53974.9414,42265.2662,36754.5784,39345.2793,5909.9346,50318.867,44114.7834,55953.9646,523.5225,-650.9274,26068.3
56664.5265,28105.6613,53970.0687,42266.5626,36759.8087,39341.256,5904.8384,50325.5725,44118.7173,55949.1366,526.4282,-647.8429,26063.472
56683.5254,28112.7691,53972.1698,42278.4984,36787.8824,39352.2531,5907.163,50351.6793,44138.7445,55953.7411,548.8247,-632.5096,26068.3894
56701.988,28124.392,53972.0356,42283.0582,36798.5219,39360.4338,5913.198,50358.3848,44144.9583,55951.9529,556.2454,-627.5922,26073.2174
56695.8636,28129.3094,53974.0026,42273.7598,36784.8873,39361.1491,5912.6616,50343.1857,44136.7775,55946.7226,545.7401,-636.4435,26070.6246
56678.1163,28128.2812,53975.5672,42265.0874,36758.6911,39364.2783,5910.3817,50336.9272,44130.9214,55944.1298,536.5759,-644.803,26067.54
56693.4496,28138.2054,53980.6187,42274.1175,36770.5375,39377.6,5912.6616,50355.1662,44137.1799,55947.9743,545.4272,-636.667,26074.2903
56712.7168,28147.459,53986.4302,42284.5781,36801.2041,39385.6019,5913.5109,50380.9601,44159.9339,55959.5078,566.4378,-620.7526,26082.2028
56720.3611,28149.7389,53985.0891,42285.338,36811.7094,39388.4182,5914.0474,50393.1642,44160.3363,55960.0443,571.0423,-619.0091,26083.9015
56705.7431,28136.4173,53984.4185,42276.4421,36791.2799,39384.0373,5909.3982,50382.1224,44152.0661,55956.6468,553.5632,-632.4202,26078.7159
56686.2524,28122.0227,53985.0891,42268.3954,36765.4413,39375.4095,5904.3914,50360.8882,44139.4597,55951.9976,531.6585,-647.5747,26075.9443
56695.2378,28121.084,53983.6586,42276.6656,36772.3703,39376.3036,5906.6266,50364.4645,44145.5394,55952.4,535.503,-643.149,26078.8053
56716.3825,28130.1141,53981.1552,42287.6179,36805.1827,39375.633,5912.6168,50390.3925,44160.9174,55960.2678,554.5467,-624.8653,26085.9579
56714.2367,28125.599,53979.5011,42284.6675,36814.1234,39372.0567,5910.4264,50397.9027,44161.0962,55959.5078,559.7323,-618.1598,26086.7625
56701.6304,28120.6369,53979.8588,42271.5694,36795.5714,39365.4406,5908.7276,50380.1107,44155.2848,55959.5972,541.7615,-630.3638,26084.125
56690.9909,28113.2609,53975.2096,42258.1583,36773.7114,39359.2715,5904.3467,50354.1827,44138.208,55949.986,526.4282,-644.4901,26076.8831
56697.3835,28111.8751,53977.3554,42261.6005,36787.5695,39355.5611,5907.5207,50357.8484,44138.7892,55954.054,535.2348,-638.0528,26076.7937
56714.1473,28119.5194,53981.3787,42276.1291,36811.7541,39362.8031,5911.7675,50389.1408,44162.8397,55967.2415,555.9772,-619.7244,26084.125
56713.1639,28129.1306,53987.0113,42284.444,36820.963,39368.5251,5919.9929,50397.9921,44172.4956,55971.8013,565.9908,-612.8848,26087.0308
56702.7032,28128.6836,53985.4467,42278.6325,36801.8746,39366.8264,5919.5012,50388.8726,44156.4471,55970.7284,551.3281,-626.0276,26083.8568
56695.9977,28124.2132,53987.1454,42264.3274,36777.2877,39361.909,5917.1319,50361.6482,44146.9699,55971.1754,538.2299,-637.7399,26082.5604
56700.9598,28130.5164,53987.9501,42260.3488,36783.1886,39360.2103,5917.9813,50357.1779,44152.8708,55971.0413,538.2299,-633.2248,26083.2757
56721.8363,28140.083,53985.3126,42273.4469,36811.4412,39361.1938,5919.1436,50393.6112,44171.1098,55974.9752,548.467,-619.635,26087.5672
56723.4904,28141.2005,53983.0774,42280.0183,36821.8571,39363.3842,5920.0376,50404.34,44172.9873,55978.5068,554.9937,-616.7293,26088.7295
56714.1026,28134.1821,53987.7266,42270.4518,36809.8766,39358.8245,5922.5857,50385.0281,44159.7998,55980.3843,543.7285,-625.0441,26086.4496
56694.1202,28126.7166,53984.5079,42255.6996,36779.5229,39352.8342,5921.6022,50357.1779,44146.1205,55974.8411,533.5808,-639.3492,26083.5439
56702.3903,28123.4086,53979.9035,42253.2409,36780.1934,39352.0743,5919.0094,50363.6152,44147.7746,55970.192,541.4039,-636.7117,26085.0638
56723.5798,28124.2132,53977.9365,42262.6287,36808.3566,39357.7963,5919.1883,50388.6491,44163.242,55972.0695,551.1045,-625.9382,26089.0424
56714.3708,28121.8439,53978.6071,42265.5791,36813.0058,39356.8575,5915.3885,50393.9688,44169.8581,55973.8576,551.9986,-626.0276,26086.539
56699.574,28115.6301,53975.0308,42257.6219,36791.5034,39352.3872,5914.0474,50375.0592,44158.2799,55968.5826,545.0249,-632.8225,26080.9511
56682.989,28106.0636,53974.1367,42249.9776,36772.1021,39349.3474,5913.8685,50351.0088,44143.3489,55957.4962,532.1056,-640.4668,26079.2971
56687.4146,28110.6234,53977.5789,42259.6335,36785.3791,39352.9683,5915.2991,50363.5705,44148.9816,55959.1502,538.8111,-636.0412,26082.918
56711.0628,28120.2793,53982.4069,42275.4586,36815.0175,39362.2667,5922.0493,50390.5714,44164.2255,55979.6691,557.5866,-617.668,26093.7363
56716.8742,28123.2297,53984.8208,42276.5762,36825.2099,39366.5135,5922.8987,50396.8298,44175.0884,55982.0831,560.9393,-610.4261,26094.8092
56696.4895,28118.4465,53982.0492,42269.6471,36799.1924,39358.6457,5918.6965,50375.2828,44159.7551,55972.2483,545.2931,-623.5242,26087.8354
56682.8996,28112.3668,53981.0658,42257.7113,36781.7581,39353.2366,5916.5061,50350.7406,44140.2644,55966.0792,530.0939,-640.1539,26084.2144
56684.3748,28105.9742,53978.7412,42253.4198,36784.7532,39352.7448,5914.852,50347.8795,44147.9087,55969.2085,533.3573,-636.9352,26079.8335
56701.2727,28106.6,53976.9083,42261.5558,36807.1496,39351.9402,5912.1698,50364.9563,44157.3411,55968.8956,540.8674,-629.1568,26078.1348
56697.2941,28108.9246,53977.6236,42261.1088,36811.2177,39348.1404,5907.6995,50370.5889,44157.7882,55964.7381,537.3359,-631.5261,26073.8879
56675.4788,28103.3367,53981.1552,42254.0903,36790.6094,39344.8323,5906.3137,50351.277,44143.8407,55957.4068,520.7509,-644.9372,26065.6625
56664.3924,28097.9723,53979.6352,42248.1,36765.8883,39340.4067,5906.0901,50328.9253,44125.3334,55948.4661,506.3117,-658.4376,26059.8063
56670.1144,28099.5369,53975.1202,42251.5422,36772.2362,39342.5971,5904.2573,50340.1905,44130.2955,55943.9957,514.0454,-653.9226,26061.6392
56700.1551,28107.1365,53975.5672,42258.6054,36804.691,39349.9732,5909.0853,50364.1069,44144.8241,55953.5623,535.056,-636.8905,26069.5964
56708.5147,28110.2657,53977.8918,42270.0495,36811.9329,39357.4387,5912.6616,50380.1107,44156.4918,55953.294,547.8859,-629.7827,26073.6197
56698.5905,28108.6117,53981.8704,42272.1058,36800.7571,39357.7069,5916.7743,50372.6006,44147.4169,55953.7411,538.4982,-635.1471,26076.749
56682.989,28110.3104,53986.7431,42264.8638,36787.3013,39362.5796,5920.5294,50358.9213,44139.2809,55952.4,529.5575,-644.356,26078.1795
56691.3486,28115.3619,53991.3476,42270.3177,36796.9573,39363.0713,5925.3573,50367.1914,44150.6803,55953.4729,536.1289,-636.0859,26082.8286
56720.5399,28129.7117,53997.919,42285.2933,36831.2001,39369.8663,5931.3476,50390.0349,44177.9941,55968.8509,555.1726,-616.9528,26091.9929
56731.3582,28137.2219,54002.2999,42289.5402,36835.7152,39372.1908,5934.7451,50397.3216,44182.241,55979.8479,560.9393,-613.7341,26092.8869
56706.3242,28128.013,54001.3164,42276.7103,36815.1516,39365.4853,5930.1853,50387.2186,44165.3877,55975.1987,541.4486,-628.3969,26087.5672
56687.5041,28121.8886,53999.3048,42263.9251,36795.6161,39353.8624,5925.402,50365.2245,44150.6803,55971.2648,527.1435,-641.3609,26079.8335
56693.4943,28116.8818,53993.6721,42263.6122,36797.0467,39347.3357,5918.7412,50369.3819,44149.8756,55973.1424,533.4467,-637.6952,26078.3583
56711.331,28116.1666,53989.4253,42267.2778,36816.9844,39348.498,5914.2262,50395.3993,44164.5384,55976.1822,544.399,-625.357,26078.1795
56709.4088,28112.4562,53982.4069,42261.0193,36813.7211,39345.5923,5907.923,50388.3809,44160.6939,55972.0248,541.3592,-629.3356,26075.4526
56683.3913,28103.2026,53979.1435,42247.2954,36788.4636,39336.741,5900.2787,50360.9329,44144.7794,55964.3358,528.127,-642.5232,26069.9093
56663.4983,28095.156,53976.0143,42228.1176,36758.9593,39328.2026,5895.5401,50336.1672,44130.1614,55957.1385,512.7937,-661.8798,26061.5051
56676.6411,28092.3843,53973.8685,42229.2799,36767.0953,39332.673,5897.1047,50346.2702,44139.0574,55961.743,515.4759,-657.7224,26064.4555
56704.9831,28102.0403,53978.0259,42237.8182,36792.7551,39335.534,5899.474,50374.9251,44157.967,55970.6837,531.9268,-640.2433,26072.368
56705.609,28106.7789,53976.9977,42245.2837,36801.07,39337.2327,5900.681,50378.5908,44168.964,55973.1871,537.7829,-635.2365,26075.7655
56691.3486,28100.0733,53975.7013,42249.3964,36788.7765,39334.9975,5901.6645,50368.4878,44164.449,55965.0958,528.7081,-640.7797,26075.7208
56685.5818,28100.6545,53978.2941,42242.5568,36764.5472,39332.3153,5902.8268,50346.0467,44154.1225,55957.4962,520.7062,-652.1791,26075.0502
56699.7528,28112.188,53982.1386,42252.4363,36774.382,39346.1734,5911.231,50357.759,44163.8231,55962.0112,535.3242,-640.5115,26081.9793
56723.0433,28125.599,53988.0842,42268.6189,36804.8251,39359.3162,5916.4166,50395.3546,44184.3867,55975.6458,555.8431,-616.8187,26090.2047
56731.0005,28124.9285,53987.7266,42268.4401,36818.6384,39357.5728,5917.8025,50401.5237,44181.3022,55973.4106,560.4923,-615.6117,26090.2494
56712.8956,28126.8954,53992.0181,42257.4431,36801.4276,39355.2929,5918.7859,50388.6938,44176.7424,55968.8509,543.9073,-624.5971,26088.9977
56699.0376,28124.7944,53995.4603,42250.7823,36778.4947,39351.9402,5917.266,50368.2643,44165.7007,55962.0112,529.8704,-633.8507,26086.6731
56708.2018,28122.4251,53993.7168,42254.8056,36786.0049,39352.3425,5914.4497,50377.8756,44162.5714,55965.0958,532.3738,-632.1967,26086.6731
56723.848,28126.806,53991.7946,42263.5674,36807.4626,39355.427,5912.8404,50399.7356,44175.5354,55973.7235,542.3874,-621.4231,26085.9579
56723.8033,28125.5543,53988.0842,42264.1039,36812.3353,39351.9849,5907.6101,50407.5587,44176.2954,55973.7235,543.2814,-625.8041,26081.3981
56712.5827,28118.1335,53984.6867,42257.5325,36793.1128,39344.6982,5904.302,50386.6374,44166.8183,55968.0909,534.296,-637.114,26073.9326
56695.3719,28112.3668,53981.5128,42248.86,36772.6386,39344.1617,5900.0105,50370.276,44154.7036,55961.4748,519.3651,-651.9109,26066.6013
56687.9958,28107.0024,53977.4895,42243.8979,36770.4481,39343.2677,5891.6509,50376.7133,44163.0185,55956.8256,517.1746,-648.0217,26062.8462
56696.5789,28112.9479,53975.4778,42245.3731,36785.2002,39342.9101,5889.7287,50409.3915,44174.1496,55962.1453,524.4166,-640.0198,26062.4886
56703.3738,28112.3221,53969.9346,42249.7541,36792.0399,39342.5524,5893.3049,50417.4829,44173.3897,55960.536,527.4117,-639.7516,26059.7616
56687.2358,28105.9295,53967.0736,42241.8416,36776.1701,39339.2891,5890.4886,50398.9756,44159.0399,55952.1765,514.9841,-653.8332,26054.7101
56668.4157,28100.9674,53965.0172,42232.6773,36755.83,39332.5388,5883.6937,50367.6832,44144.2877,55940.3747,497.5945,-672.3404,26049.2563
56671.3214,28099.671,53960.8151,42233.5267,36757.6182,39336.0704,5883.6937,50370.6783,44150.0098,55938.5419,501.1261,-666.216,26051.3574
56702.4797,28112.4115,53969.6664,42256.2361,36788.8659,39347.2463,5892.1874,50410.2409,44169.1428,55953.6964,526.16,-643.7302,26063.4273
56720.2717,28122.8274,53978.6965,42260.7064,36805.4062,39358.4222,5897.1941,50419.6733,44185.0573,55966.258,530.4515,-636.0859,26072.0998
56707.8441,28120.7711,53980.5293,42252.7939,36788.553,39353.9518,5895.5401,50409.2127,44176.8318,55963.8888,517.3981,-646.9488,26066.8248
56690.4992,28111.6515,53983.6586,42245.0155,36768.4364,39352.5213,5897.0153,50382.9718,44161.5433,55964.2464,502.333,-654.3249,26062.6227
56693.6731,28107.2259,53983.3456,42243.0485,36772.1915,39345.9052,5895.5401,50385.654,44172.9873,55961.8771,502.4672,-652.0897,26065.2155
56716.3825,28119.5194,53984.5079,42250.9611,36803.171,39352.0296,5894.959,50417.3934,44186.8901,55967.465,520.438,-640.6903,26071.1163
56718.7965,28124.8838,53986.1619,42261.5111,36809.206,39359.7633,5896.3448,50428.7481,44190.8687,55973.6788,530.988,-635.1471,26073.575
56708.2018,28115.809,53985.6255,42259.1865,36788.0166,39353.1919,5897.7306,50408.5869,44180.6316,55963.8441,520.7509,-644.4454,26068.0765
56696.8471,28101.1015,53982.2727,42250.2458,36763.8767,39345.6817,5895.9424,50382.6141,44159.0399,55957.1385,507.8316,-656.2024,26061.9968
56701.6751,28105.5719,53984.5526,42259.1865,36777.8242,39346.7546,5897.6859,50396.1146,44170.3051,55961.7877,513.5536,-652.805,26066.2436
56724.3844,28114.6467,53981.8704,42270.0942,36797.7619,39347.0675,5897.9988,50428.8375,44185.9961,55965.0511,528.0823,-647.5747,26067.54
56729.123,28114.8702,53980.4846,42270.9882,36805.4509,39346.7993,5895.1378,50427.407,44184.2079,55966.3028,532.9102,-644.356,26064.5449
56713.5662,28105.9295,53976.506,42260.2594,36783.9932,39345.2346,5888.8793,50403.0883,44171.5121,55959.9996,515.2524,-654.7719,26060.164
56693.092,28092.6973,53977.6236,42245.8649,36760.0769,39337.0092,5879.8939,50381.7648,44149.8309,55951.6847,496.9239,-670.1499,26054.2631
56690.231,28089.9256,53972.1698,42239.204,36759.1381,39332.7177,5878.2846,50379.4402,44152.8708,55946.6779,502.646,-668.0489,26054.3525
56712.091,28094.7536,53966.9842,42251.9892,36780.7299,39339.0208,5881.3691,50407.6034,44169.277,55948.1084,517.8899,-655.3978,26058.7335
56720.0482,28097.1676,53969.5323,42258.3818,36789.8941,39343.8935,5885.4371,50423.8755,44182.8221,55958.9714,524.7295,-646.0547,26064.5002
56712.3145,28102.9344,53970.8287,42261.0641,36783.9485,39342.3736,5889.5499,50412.6102,44174.1496,55957.3621,514.3583,-655.7554,26061.818
56698.1435,28105.8401,53974.2261,42253.1962,36762.0885,39343.4465,5891.9638,50384.447,44164.4043,55955.3951,500.0532,-661.2092,26060.9686
56704.3126,28104.4096,53975.0308,42258.9183,36772.6386,39350.912,5893.7073,50392.9406,44174.1943,55961.8771,512.5701,-649.5863,26068.3447
56726.6196,28111.7409,53975.6566,42269.4683,36805.2274,39359.8974,5902.5139,50422.892,44198.066,55972.4718,531.2562,-633.9401,26076.3466
56735.1133,28112.635,53976.1037,42276.7103,36807.8202,39362.8031,5907.163,50430.0445,44196.9037,55973.3659,539.0793,-630.9003,26078.9394
56723.2668,28111.3833,53975.7907,42270.7647,36785.9155,39357.5728,5902.5586,50414.2642,44185.8172,55972.7401,527.3223,-639.3045,26073.7091
56708.8723,28104.6331,53978.8306,42252.3022,36763.9661,39353.4601,5898.6694,50397.9027,44179.2458,55971.846,511.989,-652.2685,26071.8316
56715.9802,28113.3056,53982.4963,42254.9397,36773.4879,39359.8974,5901.6198,50409.928,44184.7444,55972.0695,517.8899,-645.0266,26076.8384
56743.0258,28117.0607,53979.8588,42268.2166,36801.2935,39366.0665,5905.8666,50443.9026,44202.4916,55974.7517,535.1454,-623.5689,26079.61
56746.1103,28114.5573,53977.2213,42270.7647,36815.4198,39366.0665,5906.3137,50451.0105,44205.8444,55975.7799,536.3524,-621.0208,26078.8053
56725.0997,28103.6496,53980.4399,42262.271,36801.2041,39362.5796,5903.4973,50430.1786,44196.9037,55970.0578,524.9977,-634.2083,26076.8384
56696.9365,28094.4854,53977.9365,42245.0602,36774.2032,39352.1637,5897.82,50408.3186,44182.6433,55958.882,507.4739,-654.1014,26069.6858
56697.1153,28094.0831,53975.3437,42243.1827,36769.5093,39350.6438,5895.5401,50411.9396,44185.7725,55959.9549,509.7538,-651.598,26068.1659
56716.606,28103.6943,53975.7907,42257.3984,36795.3479,39357.4834,5896.1213,50438.6723,44197.2613,55965.4981,526.5623,-636.3988,26072.368
56721.9257,28108.6117,53976.5954,42261.7346,36801.6064,39361.1044,5894.7802,50453.1562,44198.2895,55967.2415,526.16,-633.5825,26071.7422
56710.6605,28099.3581,53974.8967,42251.7657,36782.7863,39352.6554,5888.5217,50433.5314,44184.655,55958.5243,510.7373,-647.0382,26062.9356
56697.6964,28090.1492,53973.9579,42240.1875,36756.2771,39341.6137,5885.7948,50412.7443,44169.0981,55950.7012,497.7286,-658.08,26060.4322
56696.9812,28093.636,53975.3884,42244.2555,36767.0059,39343.9382,5891.9638,50420.7462,44175.3119,55952.3553,506.4011,-648.3793,26061.9521
56716.606,28102.2638,53978.9647,42261.6899,36795.035,39356.5446,5898.1329,50455.1679,44197.619,55967.4203,528.6187,-630.4532,26068.5682
56718.573,28103.6049,53979.8588,42258.8289,36798.1642,39351.0908,5896.3895,50461.9181,44202.2681,55972.8295,531.2115,-627.2346,26068.9706
56705.3854,28097.0335,53973.8238,42243.7638,36781.5346,39341.1666,5889.8181,50440.9075,44182.8668,55958.6138,513.4642,-645.7865,26058.197
56689.2028,28093.5466,53972.9744,42242.1098,36768.1682,39342.5077,5892.8132,50422.7132,44169.4111,55946.9908,502.7354,-656.9624,26055.6042
56703.5079,28099.3581,53975.7907,42245.9543,36777.5112,39350.5991,5897.5518,50434.649,44173.6132,55949.8072,508.9939,-649.4522,26062.265
56730.1065,28102.1297,53975.1202,42253.688,36801.964,39359.7186,5902.1115,50465.3603,44187.1136,55961.9665,523.6566,-636.3094,26068.9706
56735.0239,28105.6613,53972.4827,42259.2312,36804.5568,39362.7584,5901.1281,50472.9599,44193.1039,55966.8839,530.6751,-633.5378,26069.7752
56715.0414,28096.7653,53970.6498,42249.4859,36791.5481,39354.98,5897.373,50447.1213,44188.6336,55962.3241,515.9676,-647.1723,26062.3097
56691.3038,28085.9023,53968.9958,42235.136,36764.3684,39347.9168,5893.3944,50414.6665,44174.1496,55951.2377,496.7898,-660.2257,26056.6771
56698.4564,28091.9373,53971.8568,42241.8416,36771.0292,39349.4815,5893.1708,50420.3439,44177.7259,55956.1998,505.2835,-651.8215,26059.0911
56718.1706,28099.4475,53973.4662,42254.6715,36797.8513,39352.0743,5894.4672,50447.3895,44191.3158,55961.6089,525.713,-637.7399,26066.2884
56720.5846,28096.7653,53975.1649,42258.2924,36807.4179,39353.5048,5890.3098,50458.8336,44201.0611,55960.4019,528.2164,-633.6272,26070.5352
56701.1386,28089.0316,53972.2592,42246.6695,36784.1274,39344.6535,5883.2467,50443.0979,44192.9251,55957.9879,512.6595,-645.3395,26067.4059
56686.0288,28086.8858,53970.1134,42232.5432,36759.1828,39341.0325,5882.6655,50422.2214,44177.5024,55950.6118,497.7733,-657.6777,26063.3826
56697.2047,28090.1492,53973.2873,42238.5782,36762.4015,39345.1452,5886.957,50430.4916,44179.9164,55955.9762,507.2951,-649.631,26067.3612
56715.3543,28099.1346,53973.9579,42247.8765,36792.7104,39352.6107,5889.8181,50456.6431,44195.8755,55963.2629,528.3505,-636.6223,26071.9657
56718.1259,28098.017,53972.3486,42247.2954,36797.896,39344.3406,5886.3759,50461.1135,44197.619,55971.3989,529.5575,-639.8857,26072.7704
56709.677,28096.3629,53972.3486,42248.413,36786.4966,39343.4912,5890.7568,50443.3662,44192.031,55969.9237,526.4729,-646.5912,26072.1445
56696.2659,28081.2085,53969.5323,42230.0398,36759.4063,39334.8634,5884.7666,50419.7627,44178.0388,55964.604,505.7305,-662.6844,26065.7519
56703.8655,28083.533,53968.1017,42234.689,36769.107,39335.7128,5886.1524,50433.6655,44182.7774,55964.6934,507.1163,-658.8846,26066.7354
56717.4554,28084.74,53964.9725,42242.6015,36791.2799,39341.2113,5885.4371,50456.509,44185.0573,55967.5992,519.0521,-645.1607,26069.4176
56726.5302,28091.1773,53969.5323,42253.9562,36807.999,39350.152,5891.8297,50469.3389,44192.2098,55972.6506,526.1153,-638.5446,26074.0221
56716.4719,28093.949,53974.9414,42253.0174,36791.4587,39344.4747,5897.1941,50452.0833,44188.8124,55974.8411,520.2591,-642.9255,26075.0055
56697.2047,28087.914,53977.8918,42240.9475,36769.9116,39338.7079,5896.5683,50429.2846,44183.7162,55969.0744,506.1775,-653.1626,26071.8316
56704.7149,28096.3629,53984.0609,42243.9426,36778.7182,39346.1734,5900.9492,50441.891,44193.8639,55972.5165,514.0007,-643.6855,26078.3136
56732.7887,28111.3833,53987.3242,42265.1321,36806.792,39358.2433,5908.7276,50469.92,44213.2205,55982.7536,537.1124,-625.4017,26085.4661
56735.4709,28123.2297,53988.3971,42273.7598,36815.6433,39362.669,5912.8404,50487.3991,44223.4576,55987.8498,535.816,-622.4066,26086.4496
56729.9724,28127.0742,53990.3641,42266.6073,36801.6511,39358.1092,5911.9463,50473.8092,44210.6724,55984.4524,522.0026,-630.0509,26083.5439
56713.7897,28118.4018,53988.2183,42251.4975,36769.6434,39351.0908,5906.0454,50443.2768,44189.0806,55972.6059,507.7422,-646.5018,26076.1678
56708.2465,28118.7147,53986.0725,42254.3138,36779.9699,39353.5048,5907.2971,50448.9094,44193.8192,55971.6225,515.1629,-644.4454,26075.0055
56728.363,28127.7895,53991.9287,42272.9552,36811.2177,39363.0266,5914.7626,50483.4205,44217.6014,55979.7585,535.7713,-630.9003,26082.7839
56733.7275,28127.0295,53999.0813,42278.2749,36817.9232,39366.737,5918.6518,50483.2417,44224.4411,55984.3183,541.0016,-624.2841,26086.3602
56722.641,28123.3191,54002.3893,42277.6043,36802.0982,39364.1889,5919.6353,50470.2777,44216.8862,55981.3231,530.3621,-632.5096,26083.9909
56706.2348,28120.5028,53997.6954,42263.5227,36777.3771,39353.8177,5917.5789,50447.2554,44199.8541,55971.6225,517.9793,-642.5679,26078.403
56722.641,28122.2463,53998.2319,42266.2497,36794.6774,39361.1491,5922.8987,50459.1465,44204.7268,55983.6924,525.9365,-634.6107,26084.3039
56749.2396,28131.2764,54000.8694,42291.2836,36831.4683,39370.9391,5928.3525,50496.3398,44227.4362,55989.325,550.6128,-617.3998,26090.3835
56753.0841,28138.8313,54001.4058,42293.787,36838.9785,39379.9245,5929.1571,50511.6731,44239.2826,55990.4426,559.0171,-608.9509,26092.9763
56733.7722,28140.5747,53996.4885,42279.7054,36817.2973,39373.219,5924.508,50504.3864,44230.2078,55985.0335,543.3261,-621.8255,26090.3388
56711.778,28127.7001,53990.5429,42269.1107,36792.3528,39363.8313,5924.5527,50478.8607,44213.7122,55975.3776,527.5458,-634.6554,26085.2426
56707.3077,28117.6865,53991.3476,42270.6753,36797.8066,39365.3959,5922.6751,50478.4137,44219.3002,55977.1657,532.4185,-627.9945,26089.2212
56725.6361,28118.1335,53989.917,42283.1923,36827.3556,39370.1792,5922.0046,50506.8004,44229.1349,55981.189,545.5166,-616.3269,26091.9034
56735.4262,28120.4581,53983.748,42280.2418,36826.551,39366.3794,5920.0823,50517.9763,44229.3584,55979.6244,543.9073,-621.6466,26088.4166
56724.6974,28116.2113,53984.4632,42267.8143,36797.7172,39355.5164,5915.3438,50496.2951,44222.9658,55976.7187,532.5526,-631.9284,26082.8286
56710.0346,28107.0918,53982.4069,42261.9134,36777.2877,39348.498,5911.8569,50468.3554,44208.8395,55968.9403,523.3884,-641.2715,26078.4477
56716.0249,28104.1414,53979.6799,42267.6802,36787.793,39350.3755,5909.8452,50467.5061,44206.9173,55967.5097,530.5856,-634.7895,26080.4147
56747.0491,28113.0373,53979.4564,42287.9308,36823.1088,39366.9605,5914.9861,50489.3661,44220.8648,55974.707,555.1279,-614.4494,26087.5225
56757.7332,28113.395,53979.9482,42289.0037,36823.0194,39370.8944,5914.7626,50494.8646,44226.408,55977.881,561.1181,-610.6496,26090.92
56744.9033,28106.3318,53979.4117,42277.0679,36800.1759,39363.5184,5909.0406,50481.23,44213.7122,55972.5612,545.9636,-623.6583,26088.0142
56721.6128,28098.5534,53982.3622,42265.8473,36782.2051,39363.3842,5906.1795,50466.4779,44207.9008,55969.7896,525.1765,-635.6835,26087.6566
56720.5846,28099.7604,53983.6586,42263.1651,36789.9388,39365.7982,5902.2456,50474.301,44214.2487,55971.3542,524.0589,-634.6107,26088.6401
56736.6332,28107.0024,53982.541,42271.167,36816.135,39367.3629,5902.3798,50503.8053,44235.9746,55972.3824,541.8509,-626.6981,26088.7295
56736.6332,28110.2657,53979.367,42270.0047,36808.8037,39367.3629,5896.8812,50502.8665,44237.6286,55978.7303,541.2251,-629.5145,26086.2261
56714.8179,28104.1414,53976.4166,42252.8386,36774.2479,39362.1325,5890.6227,50476.8938,44218.0485,55970.5049,520.7509,-640.9585,26077.6877
56706.9948,28101.1015,53976.4613,42247.206,36765.5307,39362.4455,5889.684,50463.1698,44196.5461,55960.4913,505.9987,-654.1461,26071.921
56726.1279,28108.5223,53980.7528,42260.7511,36787.1225,39371.0732,5894.5119,50483.2417,44210.3595,55964.7381,519.0521,-643.8643,26074.8714
56751.2512,28124.705,53983.6586,42276.8891,36814.481,39383.7243,5899.6528,50512.2542,44234.3652,55972.293,540.6886,-620.9761,26079.5653
56753.7099,28130.2035,53984.7314,42283.9969,36825.0757,39385.8254,5905.6878,50522.7149,44237.4945,55973.2765,549.9423,-613.2871,26082.6051
56742.1764,28123.0062,53984.2844,42278.6772,36809.6977,39384.7972,5905.8666,50501.2572,44221.3118,55968.4038,543.7285,-624.463,26078.0454
56722.2834,28109.8634,53983.1668,42267.9484,36787.5248,39375.6777,5905.4643,50474.5692,44194.4897,55962.9053,533.089,-637.427,26074.6926
56720.4952,28111.5621,53981.8704,42268.5295,36793.2469,39376.1694,5908.5935,50479.2184,44191.6287,55968.672,537.917,-632.4649,26080.3699
56738.2872,28128.2812,53985.6255,42284.4887,36826.1933,39386.5854,5916.4613,50498.2173,44207.9008,55974.26,558.8382,-616.774,26089.6683
56740.4777,28131.6787,53991.884,42283.4158,36833.6141,39386.5854,5922.1387,50507.2027,44214.8298,55977.7021,565.2308,-608.5038,26095.8374
56716.6507,28131.0529,53992.7781,42269.96,36815.3751,39375.9012,5923.6586,50484.0463,44193.0145,55970.7284,550.0317,-619.2327,26090.6518
56697.2494,28135.2997,53992.1522,42260.3935,36793.6045,39370.4027,5925.2679,50458.4759,44177.413,55964.6934,535.9501,-629.0227,26088.2378
56696.9812,28136.8643,53988.2183,42257.9348,36800.5335,39368.5251,5926.8326,50459.9959,44168.6511,55963.6205,535.9054,-624.6865,26091.5905
56713.7897,28137.1772,53984.195,42265.0874,36825.2099,39365.7982,5928.0843,50470.7247,44179.6035,55971.1754,552.9374,-616.0587,26094.9433
56712.5827,28138.9207,53982.5857,42260.617,36824.8969,39362.4008,5925.2679,50457.3584,44176.2507,55972.4718,556.0666,-614.1365,26094.1833
56686.8335,28136.0149,53984.195,42252.8386,36807.2391,39358.9139,5924.9103,50419.718,44158.4587,55962.0559,542.2086,-625.9382,26091.4117
56666.1805,28128.46,53981.1999,42243.4956,36796.9126,39352.6554,5928.7548,50390.0349,44139.0127,55950.3436,527.4117,-642.6573,26085.645
56667.9239,28129.0412,53980.1717,42248.5024,36804.7357,39357.4387,5933.8063,50392.3595,44135.2129,55955.0375,532.195,-632.3755,26086.7625
56681.6926,28137.4007,53983.748,42260.9299,36828.9202,39358.4222,5935.2368,50406.754,44143.9301,55969.9237,548.3329,-614.4494,26094.4515
56687.6382,28141.6029,53981.7363,42262.271,36829.6802,39353.5495,5932.5099,50402.9095,44143.036,55970.6837,550.881,-615.1199,26092.0823
56671.3214,28139.9935,53982.0939,42251.0952,36805.8532,39351.0908,5932.1076,50378.9037,44123.6347,55961.5195,536.263,-627.6369,26085.5556
56657.0163,28137.3113,53984.642,42243.9873,36784.7532,39348.1404,5931.5711,50345.1973,44108.1226,55951.6847,521.4214,-640.1092,26082.6051
56663.5877,28134.3162,53984.7761,42242.9144,36787.3907,39348.945,5933.1357,50342.5598,44114.2023,55949.7625,526.7411,-633.7166,26086.0026
56685.0454,28141.2005,53989.6488,42250.827,36808.9825,39362.1773,5938.5896,50365.3586,44128.7309,55959.5972,549.3164,-616.774,26095.7927
56692.3767,28148.8001,53994.2533,42255.9232,36824.9863,39361.8196,5942.0317,50367.9067,44129.8932,55961.6536,557.0501,-612.4824,26100.3971
56670.785,28145.6262,53997.159,42248.8153,36804.1098,39350.1967,5940.3777,50341.2187,44117.5997,55954.4116,545.7848,-623.8818,26094.6751
56648.165,28137.5349,53996.1308,42237.2371,36777.9136,39348.051,5936.3544,50316.8553,44092.8787,55947.0356,528.127,-637.3376,26088.7295
56654.6917,28141.2005,53992.7334,42242.4674,36783.5015,39355.8741,5933.4487,50310.9992,44100.1654,55942.4311,532.3738,-631.0344,26090.4282
56680.4409,28155.2821,53992.331,42260.8405,36803.2157,39361.7749,5935.7733,50324.2314,44118.0468,55950.6118,550.2999,-618.3833,26093.3787
56682.7655,28147.2802,53987.816,42259.2312,36801.4276,39356.2764,5935.2815,50321.1021,44111.2071,55948.8237,547.6177,-619.8585,26089.5342
56661.9784,28137.9819,53988.3971,42257.6666,36782.1604,39351.359,5930.6324,50302.7737,44096.1421,55941.0453,544.0414,-631.7049,26084.8403
56638.9561,28125.152,53985.8043,42247.6083,36757.4394,39346.4863,5925.5809,50261.9147,44080.8088,55933.9374,534.5643,-643.5066,26080.5041
56655.5411,28125.1967,53987.6372,42245.8202,36765.7542,39347.2016,5926.8326,50267.9944,44087.5143,55936.7537,538.4982,-635.9965,26084.1697
56677.267,28134.5397,53990.9005,42260.3935,36792.8445,39350.5991,5930.4088,50292.6707,44099.4501,55944.2192,553.3397,-618.3386,26094.228
56681.2009,28131.634,53992.7781,42257.0407,36796.0632,39350.2414,5927.816,50295.6212,44102.6688,55947.2144,556.6478,-613.1977,26093.6916
56670.785,28126.8954,53993.7615,42250.2011,36780.0593,39341.3007,5922.9881,50272.0177,44089.3471,55936.1279,538.7664,-627.8157,26087.9695
56657.6421,28124.6603,53995.5944,42240.724,36759.4957,39333.3882,5917.1319,50251.8117,44076.3384,55933.4904,525.8471,-642.2549,26084.125
56666.9405,28124.0344,53997.606,42240.3216,36764.9496,39333.567,5918.5177,50265.7592,44086.0838,55946.365,530.5856,-635.9965,26087.7013
56687.7723,28133.4221,53998.7683,42249.7094,36789.6706,39334.1482,5922.4963,50288.0216,44099.9418,55949.6731,547.9753,-624.0159,26090.8753
56688.9793,28132.4834,53997.2484,42248.6365,36791.6822,39334.4611,5924.5974,50283.1042,44110.5366,55948.8684,551.7751,-620.3502,26092.0823
56672.8413,28123.9003,53990.5876,42235.9854,36757.9311,39329.7672,5919.0989,50259.1431,44098.4219,55941.4923,538.3641,-632.9119,26086.4049
56663.8112,28119.6088,53989.47,42237.6841,36734.1489,39327.1744,5917.4895,50227.4036,44078.5736,55932.1493,524.953,-645.4736,26081.9793
56674.7636,28115.7196,53987.4583,42236.1195,36741.2567,39328.9179,5915.3438,50232.321,44085.0109,55932.2387,529.781,-638.9916,26085.4661
56700.6916,28118.8935,53990.0959,42244.792,36772.5044,39339.602,5917.8919,50263.5241,44100.9253,55940.0618,548.6459,-621.9149,26090.3388
56706.0113,28126.0908,53991.884,42249.7988,36784.2168,39340.5855,5923.3904,50279.7067,44103.7863,55946.0968,553.6526,-617.3104,26091.3223
56702.5691,28126.7613,53994.7003,42244.4344,36768.2576,39340.5408,5925.6703,50272.4648,44104.3675,55944.1298,541.091,-624.8206,26092.6634
56691.438,28131.1423,53996.5332,42238.1312,36752.3432,39339.4679,5925.3573,50257.1762,44103.6522,55941.8947,527.8587,-637.8293,26089.2212
56691.3486,28137.1772,53996.5332,42246.6695,36762.1779,39348.7215,5926.0726,50274.5658,44107.8991,55947.572,532.3738,-632.152,26089.8471
56712.0463,28141.5135,53993.0463,42257.4878,36792.3528,39349.705,5925.402,50307.6464,44124.35,55958.8373,548.02,-620.2161,26091.6352
56724.9209,28146.1179,53999.3495,42262.4499,36798.656,39353.5495,5930.99,50318.6882,44132.039,55967.4203,556.8266,-614.7623,26099.056
56710.884,28136.7302,54003.9986,42255.6549,36776.1701,39350.3755,5932.3758,50305.3665,44125.7805,55963.0394,545.0249,-620.9761,26100.5312
56687.6382,28127.2084,54004.4904,42238.9358,36758.7805,39342.7759,5927.0561,50281.0925,44103.7416,55953.5176,530.7645,-636.22,26091.814
56693.7625,28125.8225,54005.608,42243.0485,36764.9943,39344.2512,5930.99,50279.8855,44107.4073,55956.1551,544.3096,-631.0344,26094.5857
56722.0151,28134.1821,54007.5749,42260.7958,36791.9952,39358.5563,5938.1425,50315.5142,44126.8981,55965.2299,562.7722,-613.6894,26102.4982
56729.57,28139.0995,54003.9986,42263.6569,36805.9874,39361.0597,5933.404,50326.1983,44124.4841,55962.5924,561.3863,-611.2307,26098.4749
56712.5827,28135.2103,53999.6177,42256.3255,36778.897,39354.1753,5928.9783,50312.1167,44120.4607,55949.226,548.6012,-623.0772,26093.5575
56691.3486,28130.9187,53995.4603,42247.0719,36761.5968,39349.8391,5930.1853,50293.2966,44116.4374,55950.2095,535.9054,-633.7166,26091.0988
56701.228,28135.6126,53995.0132,42248.1,36770.4481,39350.6438,5931.1241,50303.936,44123.0088,55954.8587,541.091,-629.9168,26091.2776
56726.7537,28143.0334,53996.2649,42270.8988,36801.1594,39360.7467,5932.0182,50334.6026,44133.7824,55961.296,562.7722,-619.2327,26096.1503
56724.1162,28149.3366,53995.952,42271.7482,36808.2672,39360.6126,5930.0959,50343.3198,44142.0525,55962.8159,567.6448,-614.7176,26095.4797
56709.4535,28152.4658,53999.5283,42264.0145,36787.3013,39357.7963,5932.1076,50328.3441,44126.7639,55955.6186,554.1444,-623.9265,26090.4729
56702.6138,28147.6825,54001.6741,42259.5888,36768.9282,39354.533,5930.6324,50308.7193,44114.2023,55950.1648,536.4418,-633.806,26088.953
56715.399,28153.3599,54003.194,42263.8804,36777.4665,39361.015,5930.1853,50322.3091,44127.6133,55952.4,542.1638,-629.2909,26090.7859
56733.7722,28155.7292,54002.9705,42278.1408,36802.724,39372.2802,5929.0677,50349.5783,44142.9466,55961.4301,556.916,-619.5456,26092.7528
56732.9228,28151.7506,53996.2649,42273.134,36807.6414,39374.6048,5923.5692,50350.8747,44136.3305,55962.6818,550.434,-626.1617,26088.1931
56720.8529,28141.8264,53990.7664,42260.5723,36784.5297,39372.1908,5918.026,50334.0214,44120.4607,55955.1716,538.2746,-642.3891,26083.9462
56702.8373,28137.4902,53988.7995,42252.928,36764.0108,39370.4474,5917.8472,50305.2324,44104.3675,55947.7061,525.6683,-652.4473,26079.0735
56719.2882,28137.8925,53992.9122,42257.5772,36775.2314,39373.6213,5923.5692,50324.6337,44115.5434,55953.3834,529.5575,-644.803,26083.9909
56740.3436,28138.2948,53994.0745,42275.5927,36798.8795,39381.4892,5927.8607,50359.6812,44137.2246,55960.2231,552.4457,-624.1947,26088.5507
56747.3173,28141.2452,53999.0813,42284.5334,36809.966,39383.5008,5928.5313,50373.2264,44145.2712,55962.19,560.0899,-616.5951,26089.4448
56735.9179,28140.1277,54001.4952,42282.03,36802.5452,39384.9313,5930.6324,50352.3052,44137.4928,55959.5972,548.3329,-623.6136,26092.7081
56708.3359,28128.9965,53996.5779,42265.9367,36780.0593,39371.6544,5923.8374,50324.0079,44124.35,55949.3154,529.1998,-635.0577,26085.8238
56709.8558,28127.4319,53994.8344,42264.0592,36782.1157,39372.5485,5920.887,50327.6736,44129.3567,55952.2659,533.0443,-633.0013,26088.0589
56734.4427,28136.7749,53999.4389,42277.8726,36807.4179,39374.7389,5926.0279,50374.2546,44150.3227,55969.0297,550.881,-615.4776,26095.5691
56739.6283,28139.7253,53994.1639,42275.7715,36817.1632,39368.8381,5925.1338,50390.1243,44152.2002,55970.2814,554.9043,-615.5223,26091.6352
56716.2931,28132.2598,53996.3543,42253.7327,36794.7221,39360.3444,5924.955,50366.2527,44148.7581,55965.6769,537.3359,-629.3356,26084.2592
56708.2465,28131.7234,53998.6789,42249.7988,36777.8689,39357.9751,5926.6984,50346.4937,44143.7066,55961.3407,527.2329,-638.0081,26080.5488
56719.6012,28143.7486,54000.1988,42259.1418,36790.4305,39364.8595,5930.1853,50359.5471,44142.9913,55965.1852,533.9831,-631.7049,26086.4049
56735.7838,28149.6495,53999.7518,42269.3342,36815.2857,39369.3745,5933.091,50388.6044,44151.172,55965.0958,547.9753,-620.5291,26089.3553
56736.4991,28152.9576,54000.78,42273.8492,36826.0145,39369.8663,5935.4156,50389.4985,44162.7502,55969.2979,555.7984,-615.8352,26094.4515
56712.6721,28151.3035,54002.3893,42261.0641,36802.0982,39364.323,5936.9802,50365.0904,44158.2352,55969.879,546.3213,-620.842,26096.195
56694.0755,28142.6758,53999.3942,42248.5024,36785.692,39352.0743,5934.5216,50341.8893,44139.0574,55963.2182,533.2232,-635.5941,26090.9647
56706.1901,28150.0965,54000.9588,42250.6481,36795.0797,39352.8342,5937.7402,50354.8533,44147.3275,55966.2133,538.4088,-632.4649,26090.4729
56729.0336,28157.0256,53998.4107,42258.4265,36813.9893,39359.1374,5935.4603,50376.758,44164.1361,55971.6672,551.1045,-621.8255,26092.574
56737.1249,28161.1383,53997.919,42263.9251,36820.7395,39361.0597,5933.7169,50380.8707,44160.5151,55971.5331,555.3961,-621.2443,26090.0259
56717.4554,28154.5222,53991.6605,42246.1778,36795.2585,39353.1024,5926.8326,50359.1001,44151.8426,55965.5428,541.3592,-638.8575,26083.4992
56699.0823,28142.6758,53989.5594,42232.5432,36764.4131,39341.2113,5924.7315,50333.485,44129.4014,55953.0705,520.7509,-651.7768,26077.196
56705.5643,28138.2948,53985.6255,42234.5102,36773.2197,39342.3736,5926.2067,50334.245,44134.6318,55952.4,521.7344,-646.01,26074.6479
56726.6196,28139.5018,53986.9666,42252.5257,36801.964,39358.5563,5928.8889,50363.0787,44152.3343,55960.2231,539.7499,-632.4649,26079.0735
56730.5088,28134.9868,53981.0658,42258.4265,36812.4694,39357.4387,5926.162,50372.7347,44150.0545,55963.8888,542.7003,-627.0111,26078.3583
56715.6672,28129.6223,53978.7412,42254.4479,36799.3265,39355.0694,5920.2164,50354.7192,44146.0758,55955.9762,533.2679,-636.5329,26077.643
56701.1386,28129.0412,53986.6537,42242.9144,36775.9019,39355.5164,5922.3622,50332.1886,44134.14,55954.6351,521.4214,-643.7749,26080.7276
56705.9219,28134.7185,53988.1289,42249.2176,36786.9884,39363.0266,5926.7431,50338.9388,44141.6055,55968.672,533.2232,-631.2579,26090.2047
56717.2766,28135.9702,53987.1454,42260.3935,36813.274,39367.497,5927.2796,50362.0952,44160.7386,55972.6954,551.1045,-619.0538,26094.8986
56719.1541,28136.8643,53987.3242,42262.9863,36814.6151,39369.0616,5927.9501,50372.9135,44164.896,55975.6458,559.2853,-613.7341,26098.7878
56712.3592,28136.3726,53991.5711,42264.5956,36810.1001,39374.3813,5933.4934,50365.8056,44158.7269,55974.8858,555.3961,-618.428,26101.1571
56689.4263,28127.9683,53992.9122,42251.721,36788.4636,39365.3512,5930.4088,50344.035,44148.4898,55967.4203,537.6041,-635.3706,26099.056
56697.9647,28130.6952,53997.8296,42250.7375,36793.3363,39370.6709,5931.1688,50349.8912,44146.5676,55966.6604,538.7217,-631.1685,26099.2795
56723.9374,28136.9537,53997.6954,42263.6122,36816.6268,39374.426,5935.7733,50378.7696,44156.3129,55970.1025,553.9656,-616.6399,26098.4749
56731.7605,28137.356,54001.3164,42278.6772,36822.8406,39371.2074,5939.886,50385.2963,44164.4937,55967.465,557.4524,-611.499,26097.4914
56709.8558,28133.5115,54000.2435,42267.099,36793.1575,39362.0431,5934.2086,50358.7425,44148.6686,55956.5127,539.7499,-629.3803,26088.953
56690.9015,28123.6768,53996.4885,42248.6812,36769.0176,39356.0976,5930.1853,50345.1079,44140.5773,55953.607,523.6566,-644.1325,26080.3699
56706.8607,28127.4766,53998.813,42254.3585,36782.2051,39365.4853,5933.4934,50349.1312,44157.0729,55962.5924,528.6634,-633.7613,26085.7344
56724.1609,28128.1471,53996.712,42263.9698,36809.5636,39380.3269,5934.2086,50368.5772,44170.5287,55967.465,550.434,-617.221,26090.607
56728.5419,28125.3308,53988.7995,42262.6287,36812.7376,39372.8167,5927.5031,50379.8425,44158.9057,55959.8207,554.9937,-618.5621,26086.9414
56715.2202,28120.1899,53984.9997,42252.3469,36801.1594,39362.4902,5919.7694,50358.1613,44144.6453,55950.3436,539.6158,-634.2083,26082.6051
56698.6799,28119.1617,53991.884,42249.2623,36779.5676,39358.0198,5921.9599,50347.0749,44147.0146,55954.6798,526.9647,-640.4221,26082.6498
56704.4914,28123.2744,53995.952,42256.9066,36786.0049,39362.8031,5925.2232,50357.759,44156.6259,55959.6419,535.9501,-630.2744,26085.4214
56729.4359,28130.2482,53992.5992,42264.1933,36813.1399,39367.184,5925.1785,50376.758,44165.2536,55960.2231,548.5564,-621.1102,26088.7742
56736.2756,28139.8147,53992.1075,42266.6073,36820.1137,39368.3016,5926.9667,50391.0631,44172.0039,55964.9169,552.8033,-623.0325,26090.4729
56724.4291,28138.116,53994.9238,42259.1418,36803.484,39362.9819,5925.0444,50370.4548,44165.8348,55962.95,542.2533,-632.6437,26086.4943
56703.7314,28123.7215,53991.124,42243.2274,36781.2663,39354.6671,5922.1387,50352.8863,44157.0282,55954.6351,525.8024,-643.5066,26083.9462
56695.3272,28119.2064,53987.6819,42237.55,36780.5958,39350.5096,5920.7976,50357.2673,44156.8941,55956.6915,530.4962,-642.4785,26083.8568
56716.7848,28125.152,53984.5079,42248.5024,36803.3051,39354.533,5916.2378,50379.7978,44171.4674,55963.7994,541.1804,-629.2015,26088.4613
56726.5302,28126.8954,53984.5526,42256.7725,36812.067,39353.5048,5917.8472,50391.5995,44173.032,55962.19,543.1026,-625.7147,26086.5837
56715.712,28120.2346,53990.677,42251.0058,36799.2818,39353.326,5919.5906,50378.412,44169.1428,55961.0724,534.7878,-631.7049,26082.2922
56699.4846,28117.6418,53995.5497,42238.4888,36775.589,39347.2463,5921.6022,50360.5306,44156.9388,55960.3572,521.332,-640.2433,26079.1183
56702.5244,28122.6486,53993.2698,42238.0418,36780.8193,39349.1238,5924.5974,50357.3567,44160.6045,55967.5545,527.3223,-635.9518,26079.8335
56724.3844,28126.0461,53991.884,42257.2643,36808.446,39358.8692,5931.6605,50381.7201,44179.067,55976.1822,545.7848,-619.9926,26084.1697
56741.4165,28129.7117,53995.0579,42264.8191,36822.6171,39363.6525,5935.1921,50400.5402,44188.9018,55980.6526,550.7022,-617.981,26085.332
56733.6828,28124.705,53995.952,42258.0689,36808.446,39358.7798,5931.9735,50394.1029,44173.1215,55971.1307,535.503,-629.4698,26081.8899
56711.331,28113.6632,53991.4817,42243.2721,36770.761,39347.2463,5926.8326,50381.0942,44160.1574,55956.2445,516.5488,-644.1325,26076.7043
56705.0278,28118.7594,53994.5662,42239.1593,36774.829,39347.3804,5924.4633,50384.2235,44171.3333,55968.6273,522.8519,-638.9469,26076.3913
56731.4029,28133.7351,53996.4885,42258.0242,36808.759,39359.2268,5929.9618,50407.0669,44186.1749,55978.4174,543.2814,-621.5572,26079.9229
56740.2542,28140.8876,53999.1707,42263.478,36823.377,39365.2618,5932.6887,50418.2428,44193.5509,55980.6973,545.8295,-618.6515,26083.9462
56725.502,28129.6223,53997.6507,42250.1117,36805.0933,39358.4669,5930.9453,50395.3993,44181.5257,55974.0812,534.0725,-630.2744,26083.231
56707.6653,28123.3191,53994.7003,42244.6579,36781.311,39357.2599,5929.8277,50380.6472,44170.7969,55968.0015,527.6799,-640.4221,26081.7111
56707.6653,28130.0694,53994.1639,42252.4363,36783.5909,39363.876,5932.2864,50393.0748,44180.4081,55968.3591,530.9433,-636.0859,26082.471
56722.3728,28136.0596,53990.677,42266.8308,36808.4013,39369.9557,5933.2252,50416.9911,44198.2448,55973.9023,550.434,-619.0538,26086.7178
56727.8713,28139.1889,53989.4253,42275.2798,36820.4266,39372.7273,5933.4934,50429.374,44192.344,55975.6458,562.0569,-612.0801,26091.9034
56716.2931,28132.4834,53988.5312,42262.584,36804.0204,39367.0499,5929.6936,50413.3254,44187.6501,55969.879,549.4952,-623.1666,26092.4846
56706.7713,28127.4766,53993.3145,42261.0641,36790.8776,39364.6806,5929.8277,50388.3809,44181.0787,55965.4534,540.4204,-631.839,26087.0755
56708.5147,28128.8624,53993.5827,42263.7016,36790.967,39367.4076,5928.3078,50396.4722,44173.8814,55962.7712,541.0016,-627.6816,26088.8636
56723.4904,28133.3774,53995.4603,42273.9387,36818.7726,39376.3483,5930.3194,50427.8988,44196.7696,55972.6954,554.1891,-615.6117,26097.5361
56737.2143,28133.4221,53996.0414,42277.3808,36827.5791,39381.8915,5929.6489,50441.0416,44202.6258,55977.3892,558.3912,-612.3483,26097.9384
56718.0365,28128.9071,53992.8228,42266.7414,36811.1283,39373.979,5926.8326,50419.4945,44196.5014,55967.8227,542.6556,-625.3123,26088.4613
56688.0852,28121.1287,53989.8723,42253.4645,36781.0428,39355.2035,5921.334,50388.4703,44183.9844,55961.5195,521.7344,-640.9138,26082.8733
56694.1202,28123.0956,53987.816,42255.789,36788.106,39359.048,5917.4448,50396.5169,44183.9397,55963.2629,522.5837,-634.9683,26082.3816
56712.1357,28120.8605,53987.6372,42263.7463,36809.9213,39360.4785,5914.6285,50418.2875,44198.1107,55968.1356,533.2232,-626.3405,26082.8733
56723.8033,28124.8838,53990.0064,42272.7764,36815.1069,39367.4076,5919.5012,50428.3011,44204.3245,55979.0879,539.9734,-620.5291,26082.6498
56706.7266,28121.4416,53990.0959,42266.7861,36793.828,39359.7186,5920.127,50416.1865,44197.0378,55971.4437,528.127,-634.0742,26077.2407
56684.0172,28110.9363,53987.1454,42253.9562,36772.5044,39353.326,5917.3554,50393.9688,44182.0621,55959.5078,513.643,-648.5134,26069.2388
56685.3136,28108.0753,53985.0444,42253.3303,36780.8193,39357.7516,5912.9298,50394.6841,44175.3119,55959.4631,516.6382,-645.116,26070.4458
56708.0677,28114.8702,53983.6586,42264.4168,36803.8416,39359.7633,5912.6168,50414.6218,44181.7492,55963.2629,528.3505,-634.1636,26072.0104
56721.2552,28113.2609,53984.0609,42269.0213,36815.4198,39360.0315,5912.438,50423.1155,44184.5208,55958.6585,537.0677,-629.425,26072.3233
56709.2299,28103.3367,53983.5691,42264.6403,36795.9291,39355.7847,5909.6664,50410.5538,44175.0437,55957.9879,527.9928,-635.46,26068.1212
56688.2193,28097.1676,53981.8704,42251.4975,36775.8572,39351.7613,5906.0454,50388.6044,44161.4538,55950.8801,512.9278,-649.2287,26064.992
56697.2494,28100.878,53983.435,42252.0787,36787.0331,39352.566,5906.4925,50395.8464,44174.7755,55956.8703,520.4827,-645.6077,26069.7305
56723.2668,28113.9314,53984.8655,42268.3954,36819.8454,39362.2667,5915.2097,50424.3225,44195.3838,55966.3028,540.2863,-624.15,26082.3816
56727.2455,28120.6816,53986.5196,42277.1126,36829.3673,39372.9508,5922.2281,50433.8443,44205.8891,55971.9354,545.7848,-618.5621,26089.4895
56719.1988,28120.0111,53985.849,42262.5393,36809.1613,39365.3959,5919.4118,50416.6782,44198.1107,55970.7284,529.9151,-630.632,26085.4214
56699.6634,28112.4562,53983.5691,42254.7609,36784.485,39353.6389,5914.1815,50399.2885,44189.5723,55963.0394,514.4477,-643.5513,26080.6382
56706.8607,28119.877,53981.8704,42266.9649,36794.2303,39356.9022,5916.2825,50411.9396,44186.2196,55963.4417,519.9909,-638.8575,26083.4992
56735.8285,28124.5261,53983.3009,42277.3361,36817.1185,39363.9654,5915.4332,50442.6956,44205.7997,55969.5661,541.2698,-623.6583,26089.8918
56746.915,28123.3191,53985.3573,42281.8512,36830.2166,39370.0004,5914.5391,50455.9726,44215.0533,55970.9072,551.8198,-615.0305,26093.5128
56725.3232,28112.4115,53981.6022,42267.2331,36808.5355,39359.0033,5908.1465,50430.4022,44193.7745,55959.5525,537.9617,-629.6933,26084.438
56703.0609,28106.9577,53982.4516,42254.2691,36785.5579,39354.9353,5906.3584,50411.8502,44185.549,55961.4748,519.5439,-640.9138,26080.5935
56706.9054,28106.5553,53982.9433,42263.478,36788.6871,39359.8974,5906.1795,50417.7511,44191.4499,55961.6536,522.1814,-635.5047,26078.1795
56729.6594,28108.8799,53981.8704,42269.1554,36813.9446,39362.3561,5905.4643,50437.9123,44206.1126,55965.364,535.2348,-626.8322,26079.61
56738.019,28108.12,53983.6138,42266.7414,36823.7346,39359.0033,5903.0056,50438.8511,44207.1855,55966.571,535.1454,-628.4416,26079.7441
56717.366,28104.946,53983.3009,42257.4878,36805.4509,39354.5777,5902.335,50418.7346,44197.619,55964.4699,523.746,-638.7681,26074.1115
56697.7412,28095.2007,53978.9647,42244.032,36778.5841,39348.0062,5898.3117,50397.5004,44181.481,55954.3222,503.1377,-654.6378,26066.7801
56705.2066,28098.2852,53981.8704,42246.8036,36781.9816,39347.8274,5899.1164,50409.2574,44179.1117,55959.2396,504.4341,-647.4406,26070.0881
56721.2552,28102.2191,53983.6138,42256.0573,36799.2818,39353.326,5898.1329,50438.3594,44202.3128,55966.4369,516.6382,-632.1967,26070.6693
56724.6526,28106.1083,53981.3787,42258.6501,36798.0301,39354.3988,5894.199,50447.8365,44209.3313,55966.3028,521.1979,-633.8954,26067.3612
56703.8208,28096.05,53978.7859,42246.9378,36781.4898,39347.4251,5891.3827,50430.3575,44190.9134,55959.6419,509.3068,-647.0382,26062.9803
56686.3418,28087.914,53977.2213,42237.1924,36765.9777,39345.7264,5894.1096,50405.8152,44179.9164,55956.6468,496.8792,-657.4094,26062.4439
56695.5507,28092.429,53977.6236,42247.206,36777.1536,39356.0082,5898.9823,50417.617,44191.5393,55962.5477,512.1678,-643.9984,26068.6576
56721.4787,28105.5272,53984.7314,42266.5626,36802.4558,39368.7934,5906.8054,50446.6742,44209.7783,55972.5612,537.6935,-622.6301,26079.9676
56729.3018,28108.3882,53988.9783,42273.8045,36819.6219,39373.3084,5914.2262,50464.2874,44216.9756,55973.8129,546.4554,-611.186,26087.2096
56723.4904,28104.2755,53989.8723,42271.2117,36809.8319,39371.565,5914.8073,50444.4838,44206.4255,55968.7167,534.4748,-622.8536,26085.4214
56708.2912,28102.532,53992.1075,42262.1816,36787.2119,39367.3182,5912.438,50429.4634,44198.0213,55964.0676,517.3981,-636.7117,26082.6051
56712.8956,28113.5738,53996.2202,42275.1009,36797.0467,39369.4639,5917.5789,50446.6742,44203.2069,55968.5826,526.7411,-625.2229,26090.2047
56735.1133,28125.3755,53998.4107,42281.1806,36820.963,39381.9362,5922.1387,50474.1669,44218.2273,55977.9704,546.5895,-611.946,26098.4749
56744.7692,28130.0694,54002.8363,42279.0349,36830.0378,39383.0091,5927.816,50489.9472,44225.6927,55984.1841,549.5399,-604.5252,26098.4749
56728.8995,28128.2365,54002.5681,42275.548,36815.5092,39374.2472,5926.8326,50472.6022,44220.6413,55987.3581,542.3427,-614.4494,26097.3573
56711.4651,28121.084,54001.0929,42263.7463,36791.1011,39366.7817,5921.4234,50441.7568,44200.3012,55975.1093,525.9812,-635.0577,26088.2378
56713.6109,28120.9946,53998.7236,42267.3225,36796.2867,39364.9936,5923.2563,50449.1776,44202.5363,55974.0812,524.5954,-631.1238,26087.299
56736.7673,28126.0461,53996.3543,42277.3361,36820.4713,39371.7438,5922.4963,50479.7995,44210.3595,55978.328,538.9005,-618.2939,26087.3884
56748.569,28131.0529,53998.1425,42282.3876,36834.3741,39377.7341,5926.162,50483.9569,44215.2768,55982.396,548.1988,-616.6846,26086.6284
56725.4126,28123.3191,53996.1755,42269.066,36811.62,39370.6262,5922.1834,50461.2476,44202.4916,55970.0131,526.1153,-634.0295,26079.7888
56700.334,28113.0373,53988.6653,42252.3022,36780.104,39357.394,5916.5061,50441.3545,44187.963,55959.8207,501.3049,-648.5134,26069.06
56710.4369,28112.635,53990.3641,42257.2196,36788.8212,39359.7633,5916.2825,50451.0552,44195.4732,55964.604,513.3301,-643.1043,26072.2786
56730.4194,28112.8138,53993.4486,42269.96,36817.0291,39366.5135,5916.819,50477.8326,44216.7073,55972.5612,530.0939,-629.2015,26077.5089
56735.158,28116.6583,53997.4272,42278.856,36824.3158,39364.0548,5919.8141,50489.1425,44219.4343,55976.5846,535.9501,-622.496,26081.8452
56716.7848,28114.0655,53995.5944,42265.6238,36799.0583,39366.1112,5922.9881,50472.1999,44202.9387,55972.7848,521.8685,-636.9799,26080.2358
56704.9831,28111.7857,54000.0647,42257.0407,36784.3062,39364.5018,5926.2961,50450.6081,44203.2516,55973.5894,512.9278,-643.2384,26082.8286
56710.4369,28107.36,53996.2202,42255.7443,36783.278,39364.4571,5925.5362,50453.2009,44209.3313,55976.5399,520.0356,-634.7895,26085.2873
56724.5185,28113.2162,53994.3427,42274.8327,36811.4412,39370.3133,5924.9103,50483.6887,44221.6694,55987.224,536.0395,-618.0704,26089.6683
56731.3135,28115.5407,53995.2368,42279.9736,36826.1486,39373.9343,5922.8092,50502.8665,44223.2788,55991.4261,544.399,-616.014,26087.299
56714.1026,28105.2142,53990.3194,42270.4518,36807.6414,39362.7584,5919.5012,50485.1639,44206.9173,55982.7983,532.8655,-629.738,26082.1581
56688.6216,28094.7983,53981.1105,42251.6316,36776.1701,39346.9781,5911.1416,50454.9444,44194.7579,55965.9004,508.9045,-649.5416,26072.368
56690.9015,28100.8333,53979.1435,42256.9513,36781.9816,39350.152,5907.6548,50454.3185,44194.1321,55964.7381,517.9346,-642.702,26073.4856
56707.4418,28107.0918,53980.0376,42268.9766,36804.0204,39354.8012,5907.6995,50483.7781,44209.1972,55980.7867,534.609,-629.1568,26080.3252
56718.1259,28106.0189,53977.1318,42272.1952,36805.4062,39347.0228,5902.2456,50490.3495,44210.27,55975.6458,532.7761,-627.0558,26075.3185
56709.4982,28102.3085,53978.6965,42265.7132,36792.4422,39342.5524,5903.4973,50477.4302,44197.7084,55966.4816,517.0405,-635.8624,26072.0551
56691.6615,28095.4242,53983.0774,42249.5306,36765.2625,39337.8139,5901.1728,50456.062,44182.3751,55960.3125,501.0366,-646.8147,26066.1989
56700.7363,28103.5155,53989.47,42258.3818,36772.1468,39341.1219,5904.302,50460.9346,44191.584,55968.8956,510.6032,-636.4882,26072.0998
56723.3115,28115.1831,53995.0132,42277.1126,36807.8649,39355.74,5914.0921,50487.5779,44219.3002,55984.3183,530.3174,-621.6913,26082.918
56732.3416,28118.4018,53995.1921,42277.3361,36815.241,39359.0927,5915.7461,50503.5818,44223.4129,55986.3299,531.7926,-622.6301,26081.0852
56717.9918,28107.2706,53994.5215,42265.6238,36793.4704,39352.6107,5910.1582,50478.0114,44209.2419,55980.6526,517.4428,-639.6174,26076.0337
56696.8918,28097.7488,53995.4603,42258.0242,36774.2032,39346.7993,5910.1582,50449.58,44195.9202,55976.6293,503.54,-653.0285,26071.0269
56695.5954,28100.9227,53994.6109,42260.617,36778.1818,39347.0228,5910.8734,50452.0386,44196.2779,55975.914,509.7985,-646.5018,26071.161
56709.9452,28112.3668,53995.4603,42272.4634,36798.1642,39351.0014,5908.7723,50478.5925,44205.9785,55980.2055,528.7528,-629.9168,26075.8102
56714.9073,28116.1666,53994.5662,42284.7122,36808.446,39353.8624,5908.8618,50494.3728,44207.5878,55980.0714,532.1503,-627.2793,26076.1678
56698.5011,28107.8964,53987.3689,42277.3361,36797.1808,39347.738,5907.6101,50469.6965,44198.1554,55976.5399,521.6449,-639.3939,26072.1892
56678.2057,28103.9178,53983.748,42260.8405,36778.6288,39342.5524,5904.3914,50449.2223,44193.7298,55968.5826,508.1892,-651.3745,26067.4059
56694.2543,28115.3172,53987.4136,42267.2778,36792.4422,39352.8342,5906.1795,50462.5887,44202.1787,55973.7235,521.4214,-640.0198,26073.4856
56712.4039,28128.9071,53986.2961,42281.7171,36816.9844,39358.1092,5910.9628,50498.5303,44212.4605,55979.1774,543.192,-625.5358,26081.0852
56718.26,28131.187,53985.402,42282.6111,36824.4499,39364.9936,5911.9016,50513.2824,44227.615,55982.3513,545.3378,-623.2113,26086.2261
56710.5263,28126.2696,53989.3806,42274.5645,36804.5121,39370.4921,5913.8685,50508.2756,44220.0601,55983.4689,527.1435,-627.4134,26085.5108
56698.0541,28119.3852,53994.6109,42272.8658,36791.6822,39367.1393,5917.266,50490.2601,44206.202,55977.7468,514.3583,-635.3259,26081.0852
56704.1785,28118.67,53997.5166,42277.1573,36803.5287,39365.1724,5920.7976,50487.2203,44209.1078,55983.4689,517.8452,-631.5708,26082.1134
56725.949,28121.3969,53996.8014,42286.3215,36821.3207,39367.7205,5924.8209,50509.3038,44228.9561,55992.4543,536.8441,-618.2939,26085.8685
56734.4874,28124.0791,54002.5681,42290.5684,36828.652,39372.1461,5930.5429,50520.7926,44235.5722,55998.1316,547.8859,-611.4095,26091.814
56721.2552,28119.877,54001.6294,42282.6558,36808.759,39370.9391,5925.0891,50497.1445,44226.0504,55991.7837,533.849,-622.049,26086.852
56704.8043,28109.5058,53995.9967,42267.7249,36781.7581,39363.6972,5916.4166,50472.7364,44206.1126,55981.7702,512.0337,-642.1208,26077.1513
56713.4768,28113.2162,53992.9122,42272.3293,36791.7717,39366.4688,5912.1698,50476.1785,44210.7618,55983.2454,519.0074,-635.3259,26077.9113
56734.5768,28126.0461,53992.8228,42286.4556,36814.5704,39376.3036,5913.8685,50495.3116,44223.8152,55982.7983,538.8111,-619.7691,26082.6945
56740.4777,28130.4717,53989.6041,42293.1165,36819.0855,39378.7622,5917.713,50511.4049,44228.8667,55983.8712,545.5166,-615.4329,26079.8782
56728.8101,28124.4367,53987.7713,42290.3895,36807.4626,39378.4493,5915.9696,50506.0405,44215.5004,55974.8411,536.71,-625.67,26076.0784
56715.712,28115.9878,53983.2562,42275.3692,36782.6074,39374.0684,5910.8734,50483.3311,44202.6705,55966.9733,523.1649,-635.3706,26072.7257
56718.3942,28119.4299,53985.0891,42276.2185,36788.6424,39374.7836,5909.577,50489.0978,44210.1359,55968.1356,530.5409,-633.046,26076.9278
56746.8703,28127.4766,53991.4817,42299.5538,36822.6618,39388.8205,5918.92,50516.8587,44225.4245,55975.1987,550.7916,-613.6,26085.8238
56757.8226,28135.0762,53998.1425,42302.0571,36828.9202,39393.425,5922.8987,50537.7352,44232.7112,55977.5233,552.7586,-610.5602,26086.7625
56749.4631,28134.7185,53998.9024,42291.9989,36807.1049,39389.5358,5920.2611,50523.9666,44219.7919,55972.9189,535.816,-623.8818,26082.2922
56726.8878,28118.9829,53993.3592,42277.0232,36783.9932,39385.7807,5918.6965,50489.0084,44194.0427,55966.258,514.0007,-635.3259,26075.6761
56727.3349,28120.6816,53994.9238,42277.1126,36797.9407,39383.322,5923.9268,50497.5021,44203.5198,55979.0879,524.193,-626.9217,26081.4875
56745.3504,28126.4484,53992.331,42290.7919,36824.4052,39382.3832,5923.7033,50519.8538,44212.4158,55985.7935,544.9802,-611.9013,26087.7907
56746.5127,28126.2696,53991.7946,42293.34,36831.5578,39386.0936,5926.609,50525.263,44208.3925,55986.5087,553.0268,-610.2473,26091.4564
56723.2668,28115.9431,53988.9783,42277.5596,36812.6929,39373.3084,5924.1056,50500.2737,44192.6569,55976.8528,538.3641,-623.0325,26087.2096
56700.2892,28108.2988,53989.2018,42261.0193,36793.2469,39361.1491,5923.7033,50473.5857,44179.1117,55968.5826,521.9132,-632.2861,26084.5274
56695.8636,28108.9246,53988.5312,42261.1088,36797.4043,39359.2268,5928.0396,50471.0823,44179.827,55970.9519,524.1036,-626.2064,26085.4214
56709.2299,28118.6253,53987.6372,42264.5956,36818.7279,39361.1491,5930.7218,50488.6061,44184.6997,55979.8479,538.2746,-615.5223,26089.4448
56714.3261,28124.8838,53991.437,42272.0164,36832.3177,39363.5631,5936.3097,50496.2057,44179.2458,55981.4125,546.5448,-611.0966,26093.9151
56690.7227,28121.6204,53989.6488,42259.6335,36806.9708,39355.6952,5936.4885,50459.1018,44167.6676,55972.8295,536.1736,-622.7642,26090.4282
56667.7898,28116.9713,53991.3476,42248.6812,36791.7717,39350.1967,5936.0862,50419.718,44137.8951,55964.2911,520.885,-639.081,26081.9793
56677.8481,28131.634,54002.2552,42257.7113,36808.759,39357.8857,5941.8529,50423.2496,44138.2974,55972.0695,533.9384,-632.0626,26088.506
56694.7907,28142.8546,53998.366,42265.0874,36829.412,39359.7633,5945.9656,50442.1145,44154.7483,55977.881,553.4738,-616.7293,26089.2659
56696.2212,28149.9177,53992.644,42267.3225,36832.3624,39359.1821,5946.6809,50439.8346,44148.311,55977.7468,554.055,-615.5223,26082.0687
56676.1941,28152.734,53992.1075,42258.1583,36808.3566,39348.8556,5940.6906,50398.5286,44128.105,55965.7663,535.7265,-630.4979,26073.8879
56656.7928,28146.9673,53987.4583,42247.0272,36780.3723,39340.362,5935.2368,50356.5073,44110.2237,55951.8635,516.2358,-646.0547,26068.5235
56656.7034,28148.9789,53984.6867,42252.1234,36783.3674,39338.6632,5934.7004,50350.9194,44109.7319,55946.5438,519.1863,-646.5912,26068.3894
56667.8345,28152.6446,53982.0939,42261.5558,36816.8056,39345.9499,5937.2485,50371.8406,44111.2518,55943.9957,540.5545,-634.4318,26071.921
56670.3826,28152.5999,53981.781,42266.0708,36825.6569,39348.498,5937.4273,50377.2944,44114.3811,55948.5108,546.3213,-627.5475,26075.8549
56651.2942,28146.7885,53982.4069,42259.3653,36801.8746,39341.6584,5934.2086,50350.7853,44109.2849,55947.2144,533.5808,-634.7895,26073.2621
56634.3516,28142.5416,53982.3622,42250.1117,36777.6006,39340.4067,5933.4934,50320.8786,44092.8787,55933.2669,518.9627,-644.7583,26068.1659
56646.2874,28144.7321,53984.0162,42252.7939,36787.2119,39349.6603,5939.0366,50315.6036,44095.3374,55938.4525,526.7859,-637.0693,26072.7704
56667.6557,28146.3861,53985.4467,42263.7463,36805.5403,39354.3541,5939.0366,50330.7134,44101.1041,55944.1298,546.5001,-623.9265,26077.7324
56678.4739,28147.7273,53987.3242,42268.4401,36813.274,39359.3162,5941.3165,50341.0846,44105.8427,55943.4146,550.881,-617.7574,26077.1513
56662.9618,28143.1228,53988.71,42264.7297,36793.5598,39359.0927,5939.2601,50319.314,44087.5143,55941.8947,540.0628,-628.4416,26073.4856
56649.8637,28139.1889,53993.0463,42261.6899,36769.2858,39352.9683,5936.8014,50295.5765,44072.8962,55938.3184,524.5954,-639.7516,26070.0434
56652.6353,28135.9255,53993.8956,42251.0952,36767.9447,39346.7098,5934.1192,50288.4686,44074.7738,55934.2504,524.0142,-641.0033,26067.0483
56671.3214,28140.0383,53989.8723,42261.9581,36793.1128,39351.806,5934.0298,50312.7873,44086.1732,55935.4126,537.3806,-628.2628,26069.7752
56687.2358,28143.5251,53993.6721,42272.5528,36804.6463,39349.9285,5935.9074,50317.1235,44098.4666,55935.7256,542.0744,-626.2064,26071.4293
56676.3282,28137.1772,53992.1522,42267.0543,36785.2002,39346.1734,5934.7451,50281.9866,44087.7825,55930.0482,533.1784,-633.3143,26070.4905
56650.4002,28122.2463,53984.5526,42257.1301,36763.6532,39341.1219,5929.8724,50257.7126,44072.4939,55922.091,518.024,-645.9206,26067.4506
56658.8938,28119.9664,53986.8772,42255.789,36771.4316,39342.9101,5932.0629,50263.7476,44080.2276,55925.5779,528.0375,-638.0975,26070.4458
56693.0473,28128.7283,53992.331,42272.1952,36803.3499,39356.3211,5936.6673,50290.1673,44100.4783,55937.9607,556.469,-618.5174,26081.1746
56695.6848,28133.288,53994.9238,42276.1738,36808.5802,39362.7137,5936.6226,50301.8349,44102.177,55944.4427,562.5933,-615.1646,26083.6333
56680.6644,28132.8857,53994.3874,42267.2778,36795.1244,39348.7662,5934.3427,50289.5415,44088.9895,55940.0171,548.02,-623.8818,26082.024
56669.7568,28122.7827,53991.2581,42252.4363,36769.7775,39338.3056,5927.7266,50256.6397,44073.1198,55925.3544,529.1998,-642.0314,26072.0551
56676.5517,28119.4299,53993.6274,42254.7609,36772.3703,39343.1336,5927.2796,50246.5367,44084.2956,55932.9093,531.6138,-639.5727,26075.4526
56701.6751,28134.7632,53996.1755,42269.2895,36800.31,39352.119,5928.0396,50270.9001,44098.0196,55945.6944,546.6789,-624.15,26082.2028
56704.089,28134.2715,53991.9287,42264.6403,36801.964,39346.5757,5924.0609,50277.3821,44098.556,55943.6828,546.0978,-626.564,26078.6265
56681.6926,28117.5077,53983.6138,42245.5072,36775.3655,39331.2871,5917.9813,50258.0702,44087.6037,55938.1843,528.2611,-642.5679,26067.4953
56670.785,28111.0704,53981.021,42236.0748,36751.762,39328.0685,5913.8238,50239.7865,44080.6746,55931.9705,512.7937,-655.4872,26065.0814
56680.0386,28113.1715,53985.6255,42237.103,36761.418,39334.4164,5917.6683,50249.1295,44089.1236,55938.3184,517.8005,-649.4522,26073.0386
56694.6566,28119.0723,53983.3009,42244.7026,36780.9087,39340.6302,5917.266,50275.5493,44099.4054,55939.9277,538.5876,-633.8507,26077.7771
56702.6138,28125.3308,53978.6071,42249.5306,36786.8543,39343.3571,5915.9249,50300.315,44104.4122,55945.6497,538.4982,-630.1403,26079.2971
56684.5983,28113.3503,53975.1202,42247.5636,36774.2032,39341.4795,5912.7957,50280.9584,44104.2781,55941.09,528.574,-638.0081,26076.7043
56656.2563,28105.3931,53969.264,42231.8727,36744.3413,39329.2308,5910.8734,50258.7855,44087.8272,55934.4292,514.0007,-649.4969,26073.4856
56659.3409,28107.9412,53972.1251,42233.1244,36749.9739,39327.6215,5917.0425,50270.6319,44094.5774,55942.0288,521.6897,-642.4338,26079.9676
56688.9793,28121.4416,53978.4729,42259.2759,36784.6638,39338.7973,5928.7995,50301.522,44117.3762,55953.6964,551.3728,-624.7312,26087.3437
56693.539,28119.2958,53979.4117,42269.2895,36799.1477,39341.8819,5928.3972,50307.1994,44122.1595,55952.7576,554.6808,-624.7759,26086.3155
56683.436,28106.913,53979.9482,42258.6054,36782.1604,39339.1997,5927.0561,50280.5114,44112.5482,55948.7343,537.2018,-633.4037,26079.2524
56664.5712,28098.2852,53979.2776,42243.4956,36750.9127,39329.6331,5923.3457,50250.0236,44096.6785,55932.954,518.5157,-649.8545,26070.3564
56666.2699,28096.4971,53977.9365,42243.1827,36749.0351,39333.8352,5920.1717,50255.2539,44091.1353,55929.6906,522.7625,-649.2734,26064.5896
56691.7956,28112.9479,53978.92,42254.6268,36776.796,39348.051,5922.2728,50281.2266,44096.8573,55935.8597,539.3922,-634.7895,26068.0765
56707.6653,28126.7166,53982.1386,42258.4713,36794.3645,39357.3493,5925.7597,50291.1061,44105.3063,55943.7722,544.5331,-628.9333,26069.954
56698.5011,28125.0179,53982.8986,42260.4382,36789.7153,39359.2715,5928.4419,50284.9817,44109.9554,55941.4476,543.2367,-632.3308,26068.5235
56674.093,28120.4581,53982.2727,42250.9611,36766.8718,39350.4202,5930.0512,50269.7378,44100.4783,55936.3067,527.6799,-644.2666,26063.4273
56677.3564,28127.7448,53983.2115,42248.9941,36767.7659,39349.6156,5931.8841,50284.4453,44098.8243,55937.6478,524.1036,-643.5961,26064.5002
56698.8587,28138.2948,53985.3126,42264.9533,36797.9407,39353.6836,5934.7898,50317.5259,44113.7105,55946.2309,546.9918,-622.5854,26077.5089
56710.124,28147.1461,53989.023,42274.5198,36808.8931,39359.6292,5938.2319,50325.4831,44118.4044,55950.5671,558.6147,-616.9975,26085.8238
56690.2757,28141.7817,53985.5361,42264.5956,36790.3411,39353.326,5930.6324,50314.8884,44117.4656,55948.332,547.2153,-623.3454,26083.678
56671.679,28135.6573,53987.4136,42255.1185,36770.9845,39352.1637,5925.2679,50306.6182,44115.5881,55948.1084,528.4399,-632.1967,26083.6333
56681.9161,28134.9421,53989.5594,42253.1962,36776.2148,39353.013,5922.5857,50308.3616,44120.1478,55951.1483,527.3223,-629.6039,26082.4263
56704.849,28132.4834,53981.0658,42256.102,36785.4685,39357.5281,5915.5673,50331.1604,44123.6794,55947.4379,538.4982,-625.9382,26078.7159
56714.4603,28133.9586,53978.5624,42254.0903,36788.2848,39356.1423,5907.5207,50334.9155,44129.0885,55945.9627,537.2465,-631.392,26073.3962
56703.5079,28126.7166,53976.953,42253.4198,36780.6852,39352.7895,5903.5867,50315.4248,44119.5667,55938.9442,530.7198,-642.9702,26066.646
56682.3184,28114.0655,53973.5556,42245.6414,36751.9855,39347.9615,5902.2456,50294.5483,44110.4025,55932.3728,513.6877,-656.9177,26060.4769
56693.092,28116.4348,53972.5721,42250.1564,36758.2887,39350.1967,5905.4643,50303.8466,44119.6561,55936.3067,516.1911,-651.9556,26060.164
56711.331,28124.5708,53973.0191,42262.2263,36787.0778,39352.2084,5910.1582,50330.0875,44128.2839,55941.8052,532.4632,-639.4386,26064.7684
56713.5215,28127.6107,53972.9297,42263.9251,36803.2604,39352.3872,5919.8141,50347.4772,44135.5705,55945.8733,542.9238,-630.0062,26070.0434
56705.6537,28125.5543,53974.0473,42259.5441,36786.1837,39346.2181,5918.92,50337.1507,44130.5637,55949.986,531.882,-632.152,26068.3
56684.4195,28120.4581,53973.8685,42246.5354,36762.1332,39338.5291,5917.8025,50311.4462,44123.0536,55951.5953,515.2524,-644.7136,26067.8977
56692.2426,28119.5641,53974.4943,42251.0058,36772.3256,39341.7031,5922.4963,50304.6513,44125.4228,55949.986,527.0094,-637.9634,26071.474
56719.6012,28125.3308,53979.8141,42260.617,36792.7104,39350.2861,5927.9501,50332.9933,44145.6288,55957.7644,547.573,-620.3949,26081.3087
56721.7469,28133.601,53984.1056,42265.6685,36805.0039,39351.6272,5932.197,50347.5219,44154.346,55965.2299,557.6313,-614.6282,26087.4778
56706.9501,28128.7283,53988.8889,42260.8405,36788.7765,39347.0228,5934.4769,50332.9039,44150.4568,55968.3591,547.7518,-620.3502,26088.9977
56681.8267,28117.5077,53988.8889,42251.5869,36763.6085,39337.8586,5933.851,50313.592,44139.4597,55962.8606,529.9598,-632.8672,26088.7295
56681.7373,28117.2395,53991.884,42254.9844,36776.036,39345.2346,5936.5332,50321.3704,44146.0758,55968.3591,535.0113,-623.5242,26092.3505
56702.4797,28127.5213,53992.0181,42267.099,36803.4393,39350.5991,5940.1989,50349.5336,44165.2089,55977.6574,553.4291,-607.8333,26099.3242
56712.3145,28127.9236,53991.9287,42273.5363,36813.8105,39348.3192,5938.8131,50360.173,44171.0204,55978.5515,555.3514,-604.2123,26096.5526
56688.8899,28121.5757,53984.4632,42256.3702,36794.6327,39338.5738,5932.1076,50346.2702,44152.7814,55970.1025,536.71,-621.5125,26082.7839
56667.7451,28113.0821,53978.7859,42236.4324,36768.5705,39328.9179,5925.9385,50321.1021,44129.625,55956.468,514.9841,-643.4619,26069.06
56675.8811,28113.842,53982.0045,42236.343,36772.1021,39330.1249,5923.6139,50319.5375,44126.1828,55959.329,516.5488,-645.1607,26069.6411
56689.7839,28121.5757,53981.2446,42252.7939,36799.5054,39337.3668,5925.8044,50339.1623,44142.3655,55967.9568,531.7032,-630.4979,26077.7324
56691.125,28125.5096,53978.5177,42259.3653,36803.931,39338.3056,5923.8374,50348.2372,44146.8358,55968.0462,535.6371,-626.1617,26079.3865
56673.5566,28121.8886,53973.8238,42246.5354,36776.4831,39327.2191,5915.4332,50328.97,44138.1186,55958.4349,518.0687,-643.1043,26067.9871
56657.0163,28112.2774,53972.0356,42235.5384,36753.5502,39324.0005,5916.7743,50306.9758,44126.4063,55943.6381,506.9822,-654.3249,26061.371
56664.7053,28111.6515,53975.4778,42243.138,36764.7707,39334.1035,5922.1834,50315.0225,44132.5307,55949.7625,519.4545,-646.5465,26069.507
56685.0454,28121.1287,53981.1999,42258.963,36790.8776,39346.4863,5930.99,50348.416,44155.8659,55967.5545,536.7547,-622.4513,26079.8782
56695.9083,28131.5893,53987.6819,42266.5179,36805.9874,39351.7613,5935.7733,50365.5821,44158.861,55972.8295,549.5846,-611.4542,26086.539
56689.5157,28135.702,53992.0628,42263.2098,36800.9806,39354.6224,5938.0978,50356.5073,44156.0447,55967.5992,540.8674,-625.6253,26082.024
56667.0746,28128.2812,53989.3359,42250.6481,36776.5725,39348.3639,5931.1688,50326.7348,44141.829,55960.6254,521.1979,-645.4736,26075.3185
56677.3117,28130.1588,53989.5147,42263.2545,36788.7318,39352.2978,5930.4088,50325.349,44136.7775,55959.6419,526.0706,-640.6456,26075.9443
56698.367,28129.8459,53987.4583,42277.5596,36815.3304,39361.3726,5933.0463,50351.3664,44148.7581,55962.7712,544.8014,-621.8702,26082.6498
56698.9481,28133.3774,53986.2961,42280.8677,36815.6433,39366.3347,5934.7898,50362.8105,44154.6589,55964.1123,555.1279,-615.9693,26084.9744
56685.4924,28129.9353,53983.8821,42266.5179,36802.6346,39356.7234,5931.9735,50343.8562,44143.1254,55953.6964,542.9685,-626.6087,26079.2077
56665.3758,28116.6136,53980.3505,42246.7142,36774.382,39345.8605,5924.508,50311.2674,44116.7504,55943.1016,520.438,-642.8808,26067.54
56676.3729,28109.9975,53980.3058,42246.5354,36775.6337,39350.5543,5924.2845,50315.0225,44122.9641,55944.6216,523.6119,-640.8244,26068.1659
56703.8655,28117.1054,53983.3456,42260.7064,36801.4276,39360.4338,5927.6372,50347.4772,44141.7396,55952.6235,541.9403,-623.5689,26073.3515
56714.1473,28119.9217,53981.3787,42263.9251,36811.2177,39356.8128,5927.1455,50356.3732,44147.104,55954.6798,546.4107,-617.8021,26075.4973
56695.1036,28114.3785,53980.9763,42256.2361,36790.5647,39350.5543,5923.4798,50339.1176,44140.8902,55951.1483,531.4797,-632.152,26071.2951
56673.0201,28106.8236,53976.6848,42243.4062,36761.1498,39341.8819,5917.0872,50311.7144,44124.3052,55943.0569,509.5303,-650.3016,26064.5896
56674.8977,28111.8304,53975.2543,42246.8483,36762.7591,39342.8206,5917.9813,50313.9943,44123.143,55942.5652,514.2689,-649.4075,26063.785
56697.8306,28119.0723,53981.4234,42256.9066,36793.2469,39352.0743,5918.4283,50341.2187,44140.7114,55950.8353,528.2164,-632.8225,26071.0269
56700.5128,28116.7477,53979.7693,42257.9348,36801.517,39347.4251,5915.3885,50352.2605,44146.2547,55949.6284,529.4234,-630.7662,26068.4341
56690.8121,28112.4115,53980.3952,42252.928,36789.1341,39340.2725,5919.9035,50343.0963,44142.8572,55957.3174,523.0755,-637.8293,26069.8646
56680.128,28105.6166,53979.0541,42243.4956,36768.347,39334.9975,5921.8258,50329.2382,44131.7707,55949.226,512.6148,-647.7982,26070.4905
56688.3087,28115.5407,53978.2494,42243.6297,36774.829,39333.5223,5925.3573,50330.2664,44134.4529,55951.5059,519.5886,-645.7865,26073.4409
56712.538,28120.6369,53980.8869,42256.5043,36801.3829,39344.9664,5927.0561,50355.345,44154.9718,55959.9996,536.5759,-630.2297,26077.956
56724.5632,28120.7263,53983.1668,42254.8056,36810.0107,39346.084,5923.9268,50361.0671,44166.55,55963.1288,542.1638,-623.4795,26081.6664
56714.7732,28117.2842,53985.849,42244.7473,36794.6327,39338.3503,5923.5692,50352.037,44151.2167,55958.2561,527.1882,-639.3045,26078.7159
56689.8286,28106.0636,53987.7713,42231.9621,36773.7561,39331.2871,5921.6917,50330.8028,44144.9583,55953.8305,509.3515,-651.2403,26074.9161
56692.6003,28104.2308,53989.2912,42233.6608,36784.4403,39335.3105,5922.5857,50339.3859,44156.6706,55958.6585,517.1746,-642.3444,26076.6596
56717.813,28115.6301,53988.71,42251.8998,36815.4198,39344.3853,5925.715,50371.8853,44171.1992,55968.0909,538.9452,-626.5193,26081.8005
56719.6012,28117.9994,53987.9948,42257.7113,36821.2759,39343.3571,5924.508,50381.273,44173.0767,55970.5496,540.4204,-621.4678,26079.0735
56704.849,28109.4611,53982.8539,42244.9261,36799.0136,39332.1365,5919.5459,50365.8503,44166.3265,55963.4417,521.7344,-634.8789,26071.8763
56681.022,28099.224,53978.4729,42231.3362,36770.1799,39322.7935,5914.6285,50342.7386,44155.4636,55955.3504,505.8646,-650.838,26064.8578
56689.0687,28103.4261,53980.2164,42245.8649,36782.6074,39327.8897,5920.2164,50349.0418,44162.9291,55958.569,516.1017,-641.6291,26070.8481
56713.745,28113.6632,53979.9482,42263.2545,36812.6929,39336.5175,5922.2281,50380.5131,44181.5257,55968.3591,545.0696,-623.4348,26082.8286
56724.2503,28118.67,53978.0259,42270.2283,36827.2662,39342.016,5926.8773,50396.651,44188.9018,55971.9354,559.0618,-615.567,26084.7956
56709.0958,28112.3668,53979.2776,42263.791,36807.9096,39340.049,5928.0396,50384.894,44175.4013,55965.6322,543.192,-624.5971,26079.8335
56682.8996,28103.9178,53982.0492,42254.8056,36781.7134,39336.0704,5923.4798,50363.9728,44157.2517,55956.9597,526.2494,-636.7564,26075.9443
56688.711,28108.6564,53981.7363,42253.1515,36780.417,39338.9761,5922.9881,50367.102,44163.3761,55967.5992,526.4729,-639.1257,26076.0337
56710.3475,28115.7196,53983.435,42260.617,36801.6958,39342.1501,5922.9881,50402.9542,44179.3799,55978.9985,538.0958,-631.3026,26078.3583
56711.1075,28116.4348,53982.9433,42264.0592,36811.9329,39344.4747,5919.9482,50414.443,44185.3702,55980.4291,543.9967,-629.8274,26081.5322
56688.6663,28110.0422,53982.0939,42251.8551,36787.6142,39343.67,5917.1766,50391.3313,44170.9757,55973.0977,531.4797,-641.495,26077.0619
56662.9618,28105.3483,53980.2611,42240.2322,36759.4063,39336.3386,5913.958,50365.5374,44155.3295,55965.5875,508.7703,-652.5367,26073.575
56664.6159,28103.2026,53979.367,42244.5238,36762.2674,39339.4679,5912.6616,50371.7512,44159.9339,55963.7547,507.2951,-648.2899,26073.9326
56691.0803,28113.842,53980.1717,42258.6054,36793.7833,39350.3755,5915.8802,50404.6977,44179.9611,55970.2814,528.127,-631.5261,26080.4594
56701.3174,28119.4299,53984.955,42258.4265,36805.1827,39352.0296,5919.5906,50411.8502,44190.5111,55972.7401,538.9452,-628.3969,26081.4875
56695.1036,28121.3075,53987.4583,42253.9115,36792.9339,39352.6554,5925.4915,50401.7919,44180.3634,55969.4767,532.5973,-636.4435,26077.0619
56671.679,28116.3454,53984.955,42248.2789,36775.6337,39354.22,5926.3408,50385.3858,44172.4062,55959.6866,520.6615,-643.5513,26070.8034
56684.4195,28112.9926,53988.2183,42257.7113,36788.7765,39361.3279,5927.4584,50388.7832,44179.2905,55961.1171,533.9384,-636.3988,26073.9326
56707.6206,28117.6418,53986.0725,42274.341,36817.5656,39362.222,5928.9336,50414.1301,44190.0641,55968.4932,550.0317,-623.4348,26076.3913
56726.7537,28121.7545,53988.8889,42280.1077,36833.1224,39368.4804,5928.8442,50423.1155,44200.927,55971.6225,552.8033,-618.428,26080.9511
56717.0084,28121.2181,53988.8889,42276.7103,36819.0855,39366.1112,5930.5429,50408.4975,44195.0709,55963.5758,540.331,-630.9897,26080.0123
56688.9346,28108.6117,53987.7713,42267.3672,36796.6443,39362.4455,5930.1853,50391.0631,44182.6433,55961.3407,523.9695,-644.3113,26076.3913
56688.3981,28112.1433,53987.816,42264.9533,36803.5287,39361.2832,5932.2864,50398.9756,44189.0806,55963.7994,531.9715,-638.8128,26077.5536
56716.606,28119.5194,53986.7878,42272.3293,36822.6618,39363.8313,5931.3029,50423.6519,44200.7035,55972.1589,547.5283,-621.1996,26078.6712
56731.8499,28124.0344,53982.4069,42275.0115,36829.5461,39361.015,5927.8607,50426.96,44207.0961,55973.8129,552.9374,-616.6846,26079.7441
56717.3213,28115.2725,53984.3738,42264.8191,36812.2458,39356.634,5926.9667,50416.2759,44195.0262,55971.846,543.0579,-628.4416,26075.989
56694.5672,28112.4115,53990.0064,42256.5937,36789.8047,39351.6272,5927.8607,50394.1476,44186.7113,55966.2133,526.7859,-637.5164,26077.3748
56698.0541,28110.221,53989.917,42254.7609,36794.0515,39356.3658,5926.4749,50406.3964,44189.7511,55970.7731,526.8753,-635.3259,26080.1911
56713.0297,28114.4232,53988.3524,42265.2662,36816.5374,39364.9042,5927.7266,50434.8278,44201.3741,55979.0432,545.3378,-622.8983,26085.0638
56720.4952,28119.0723,53989.6041,42273.3575,36824.8075,39360.0762,5923.9715,50447.5236,44209.6442,55988.7439,554.6808,-619.4562,26084.3039
56711.331,28116.8818,53990.23,42276.755,36808.3119,39357.3046,5922.4516,50427.4964,44195.205,55987.4475,542.8344,-626.117,26085.2426
56691.3038,28104.8566,53990.23,42263.0757,36784.3509,39355.74,5919.3671,50400.7638,44189.1253,55979.3115,527.4117,-635.2365,26081.7558
56697.0259,28106.153,53991.0346,42258.4713,36782.1604,39353.5048,5922.094,50409.615,44189.5276,55982.0831,527.8587,-634.7001,26078.8947
56723.3115,28112.2774,53991.124,42270.0047,36810.1448,39359.1374,5921.4681,50444.9308,44201.3294,55987.8945,541.4933,-623.703,26080.0123
56726.4408,28111.2045,53985.2232,42272.3293,36819.756,39358.6904,5917.3107,50443.992,44193.5062,55978.5515,542.5215,-622.1831,26075.0949
56712.2251,28106.6895,53982.8539,42265.4897,36803.6181,39359.3162,5918.92,50427.0047,44192.4334,55969.9684,533.1784,-631.4814,26071.6528
56693.539,28100.118,53986.4302,42256.9513,36782.4286,39353.5048,5916.9531,50407.2458,44181.0787,55960.4466,518.5157,-644.1325,26063.0697
56711.5545,28112.1433,53993.2698,42263.8804,36791.4587,39361.5067,5920.2611,50417.5723,44182.1069,55970.5943,527.3223,-635.3259,26069.507
56741.327,28122.9615,53995.7285,42281.8512,36817.2526,39371.2521,5925.5809,50445.9143,44201.1505,55981.0996,549.674,-616.9528,26078.3583
56749.4184,28125.6884,54000.5118,42290.1213,36823.0194,39366.6923,5928.8442,50461.6946,44204.9503,55980.6526,561.7887,-614.1812,26079.9229
56732.9228,28120.5475,53999.0813,42277.1126,36803.3946,39360.2103,5927.6372,50440.9969,44195.205,55978.5515,546.2319,-624.9547,26075.1396
56706.8607,28107.7176,53994.9685,42270.273,36783.9932,39352.2978,5925.8491,50416.4994,44184.0738,55970.8178,530.0492,-639.6621,26073.0386
56707.8441,28112.9479,53993.2698,42279.4819,36793.2469,39357.3046,5925.8938,50424.5907,44193.0145,55973.3659,536.6206,-632.2414,26080.5041
56733.4145,28120.5475,53995.9967,42296.8268,36821.4548,39370.1792,5927.7266,50451.8151,44214.3828,55982.3513,555.7537,-610.9178,26090.3835
56728.676,28116.1666,53990.1853,42294.0105,36825.6569,39366.5135,5922.0493,50455.6149,44215.6792,55979.2221,555.3961,-614.0918,26084.6168
56705.296,28109.9081,53984.642,42284.7122,36806.5238,39360.3891,5918.8753,50440.2369,44204.6374,55975.154,542.6556,-630.8556,26075.7208
56690.0074,28100.1627,53984.955,42270.6753,36782.831,39357.7516,5917.3554,50422.2214,44188.0077,55970.8178,523.5672,-646.1442,26072.8151
56695.2825,28099.224,53987.1007,42273.3575,36785.2002,39355.8741,5918.5177,50427.9435,44198.826,55977.3892,532.4632,-637.3376,26075.4973
56713.0297,28102.3532,53984.0609,42286.2768,36805.0039,39357.9304,5915.2097,50450.6975,44208.8842,55981.4125,548.6906,-624.8653,26074.6926
56720.1823,28101.8168,53982.988,42288.065,36813.7211,39357.4834,5915.1649,50459.1912,44208.2584,55983.0219,549.5399,-621.6466,26074.9608
56703.9102,28097.0782,53981.7363,42275.4139,36796.9573,39353.773,5912.6168,50455.9278,44196.8143,55980.1161,536.3077,-629.4698,26068.6129
56684.5089,28093.7701,53980.0376,42270.6306,36774.7843,39350.5096,5912.8404,50439.9687,44186.7113,55973.2765,526.607,-641.4503,26064.8578
56690.9909,28089.4786,53975.5225,42269.2001,36777.8689,39352.6107,5909.6217,50446.406,44190.6452,55969.3873,523.299,-642.2549,26067.9424
56711.6439,28094.5301,53977.266,42275.8162,36802.5899,39358.0645,5907.2077,50466.612,44204.4139,55971.1754,536.9335,-629.5145,26071.4293
56711.1969,28100.8333,53977.1318,42279.9736,36809.4742,39355.2929,5907.1183,50471.4847,44206.962,55972.293,542.4768,-628.8439,26069.4176
56695.5954,28099.5816,53976.7295,42275.5927,36791.0117,39351.5825,5905.1514,50455.9726,44197.5743,55973.3659,531.5691,-641.7632,26066.7801
56681.9608,28091.4903,53977.1318,42263.5227,36769.9116,39352.2978,5904.302,50430.7151,44177.3236,55964.604,519.0969,-651.7768,26062.9803
56683.5701,28093.0549,53977.1765,42259.4994,36772.7727,39352.7895,5902.5139,50434.0678,44183.8056,55967.6439,522.2261,-648.1558,26061.8627
56710.0346,28108.7458,53983.2562,42280.4654,36813.7211,39359.808,5909.7558,50460.13,44201.7764,55977.2104,541.4486,-636.22,26064.8131
56714.0132,28108.3882,53985.1785,42285.9639,36823.7346,39357.5728,5907.6995,50467.5955,44203.341,55978.5515,542.9238,-627.4134,26065.2602
56701.9433,28103.4708,53981.0658,42275.1009,36805.0933,39350.9567,5906.6713,50462.1416,44200.9717,55972.4718,529.1104,-639.2151,26059.8063
56685.0007,28097.7488,53979.3223,42261.5111,36777.4218,39348.9897,5906.716,50444.1261,44184.7444,55965.5428,511.5867,-661.0751,26053.4585
56687.9064,28097.4358,53976.7295,42259.8124,36768.5705,39346.1287,5907.6101,50446.4954,44187.5607,55961.8324,511.3184,-656.6048,26051.8044
56712.8956,28111.0704,53980.7528,42273.6704,36796.8231,39357.9751,5909.13,50472.1105,44200.0777,55968.0462,527.4564,-636.3094,26056.4536
56720.0035,28114.8702,53982.0939,42279.4819,36809.2954,39359.2715,5911.2757,50477.922,44206.3808,55970.7731,531.7032,-627.5028,26060.611
56703.5526,28107.8964,53980.3058,42272.4634,36794.5433,39350.3308,5912.8404,50458.6548,44206.5597,55968.1803,526.92,-634.7895,26061.4604
56695.506,28101.1015,53979.367,42260.8405,36776.8854,39348.2745,5913.7791,50441.9357,44190.9134,55966.4369,514.403,-650.838,26059.8063
56701.8092,28102.8003,53983.2562,42263.6569,36779.0759,39353.773,5917.9813,50449.4458,44198.2448,55975.8693,524.0589,-640.4221,26067.5848
56718.573,28107.2706,53985.2232,42271.9717,36798.3878,39358.1092,5914.3156,50479.5313,44210.2253,55982.3066,537.6935,-631.392,26071.2504
56719.9588,28109.0587,53985.8043,42280.7336,36813.6317,39356.634,5913.198,50484.6722,44221.3118,55985.4358,541.091,-628.8439,26071.0269
56706.9501,28104.3649,53988.9336,42268.7531,36803.3051,39353.9071,5912.438,50471.6188,44208.4819,55979.8926,528.0823,-639.1704,26069.1047
56690.4545,28100.6992,53984.955,42249.5306,36772.9515,39342.8206,5905.5984,50448.82,44194.5791,55968.672,505.06,-653.8779,26062.1756
56700.5128,28099.1346,53982.8986,42257.8007,36772.2362,39343.7147,5906.5819,50452.0386,44195.5179,55979.0879,507.4292,-650.7039,26060.7451
56717.5448,28106.8236,53982.8986,42270.8988,36805.2721,39356.6787,5912.4827,50482.9288,44213.444,55985.4805,528.4846,-637.6505,26068.1659
56717.5001,28105.7954,53981.0658,42273.1787,36815.0622,39355.4717,5909.8452,50491.1095,44222.8764,55984.0053,533.0443,-639.081,26068.1659
56701.2727,28096.4077,53976.8636,42266.652,36796.1079,39345.0558,5905.062,50465.5838,44208.0349,55977.2104,519.3651,-651.4192,26062.578
56675.4341,28090.0151,53974.1367,42253.5986,36767.6318,39335.534,5900.3234,50441.578,44192.5228,55972.8295,498.578,-664.3832,26056.5877
56674.3612,28095.603,53975.0755,42253.3303,36771.1186,39334.1035,5902.4245,50436.5712,44184.0291,55969.4767,502.4225,-663.8467,26053.4137
56696.6683,28106.5553,53976.953,42269.6918,36799.7289,39344.9217,5906.6266,50465.0027,44203.788,55978.6409,524.9083,-644.2666,26061.4157
56703.642,28104.1861,53976.7295,42275.5927,36811.1283,39350.0626,5909.1747,50480.9171,44218.272,55980.1608,530.6751,-636.3094,26067.2718
56695.2378,28098.2405,53977.3107,42264.2827,36797.3149,39346.2181,5905.6431,50461.1582,44207.3196,55976.1822,520.3485,-645.2501,26064.3661
56682.4973,28091.2668,53978.0706,42251.5422,36774.1138,39341.7478,5903.4526,50442.2486,44192.344,55972.9189,504.9706,-657.7671,26059.7169
56678.7422,28087.1093,53978.8753,42256.1467,36774.4714,39339.9149,5907.6548,50445.6013,44196.3673,55972.3377,506.8928,-650.2569,26063.0697
56705.9666,28093.8596,53984.5526,42276.2632,36805.8532,39347.738,5911.544,50474.301,44215.9474,55980.1161,526.7859,-635.013,26068.8812
56707.6206,28101.9956,53987.7713,42280.6442,36812.9164,39344.9664,5909.3088,50482.8393,44224.0834,55986.464,532.3291,-633.4931,26069.1941
56685.5371,28094.1725,53985.6255,42267.7696,36792.1293,39333.8352,5906.4031,50467.1484,44215.1427,55982.4854,519.1863,-646.77,26065.5284
56671.232,28088.5845,53988.8889,42260.2594,36773.935,39329.946,5906.8501,50444.4391,44191.3605,55972.3377,501.8413,-659.5105,26060.2981
56679.9045,28088.7187,53988.4418,42262.9416,36777.0642,39338.9761,5907.7442,50451.1446,44200.7035,55975.7799,512.4807,-651.9556,26061.0133
56701.1833,28092.8314,53984.4632,42269.5577,36799.5054,39347.738,5909.7111,50479.9336,44216.3497,55975.7799,526.9647,-642.4785,26059.7169
56708.2912,28099.3134,53987.5478,42277.6043,36815.2857,39356.4999,5917.5789,50497.815,44228.3303,55980.742,536.8441,-634.3424,26063.9638
56685.9394,28092.0714,53990.3194,42269.6918,36802.1876,39350.5096,5918.026,50491.4224,44225.8716,55983.2901,528.2611,-638.4104,26065.8413
56657.7762,28087.0646,53986.4302,42256.3702,36779.7911,39343.3124,5914.0921,50476.4467,44213.2652,55975.467,511.4526,-652.0003,26060.4322
56665.4205,28091.4903,53981.8704,42257.7113,36783.3227,39346.7993,5916.5508,50480.783,44212.7734,55978.4174,517.8005,-647.6194,26064.0085
56692.9132,28096.4524,53981.8704,42267.099,36800.0865,39348.051,5914.5838,50510.0191,44221.8482,55981.4125,534.3407,-633.5378,26068.1659
56696.713,28094.7089,53981.9598,42269.96,36805.9427,39348.945,5912.2145,50514.3106,44223.1447,55983.7818,534.609,-634.253,26068.3
56679.1445,28090.1492,53978.2941,42264.8191,36793.4257,39342.1948,5908.9959,50491.78,44215.0533,55979.8032,515.6994,-645.9206,26059.6722
56671.5896,28076.604,53977.6236,42258.2477,36777.6901,39336.428,5908.6382,50466.1202,44200.1671,55974.9305,503.4059,-659.3317,26055.9171
56678.0716,28078.7945,53978.7859,42261.6005,36783.5015,39344.877,5907.7889,50473.3622,44202.2234,55976.0034,507.3398,-656.5154,26058.2864
56695.2825,28090.0151,53975.1202,42275.2351,36806.4344,39349.9732,5909.6217,50501.1231,44221.2671,55982.3513,528.6634,-637.874,26064.6343
56706.3242,28096.7206,53970.6498,42285.2933,36819.5325,39352.2531,5914.4497,50505.4146,44229.0008,55986.1958,538.6323,-635.0577,26068.1212
56690.3651,28094.0384,53966.5371,42273.894,36801.6064,39343.8041,5910.6052,50487.9355,44215.9921,55976.4951,519.7227,-647.6194,26061.7286
56672.5731,28091.1773,53967.8335,42266.6967,36780.7746,39346.084,5906.3137,50468.0425,44202.7599,55971.2648,504.2106,-657.9906,26058.7335
56675.1659,28093.5913,53964.5255,42270.6306,36786.8096,39354.0412,5905.9113,50479.129,44202.134,55969.432,508.3233,-654.9507,26060.5216
56703.8208,28105.0354,53963.7208,42285.651,36807.999,39364.5912,5906.4031,50504.2076,44217.1544,55974.9305,528.574,-639.5727,26067.9424
56711.9122,28105.8848,53960.8151,42286.9474,36811.7988,39362.8925,5900.0105,50506.8451,44220.5071,55973.9918,536.3524,-633.5378,26066.646
56700.781,28095.9606,53960.5021,42275.8162,36796.242,39355.5611,5892.7685,50495.5351,44207.7219,55964.2017,521.9132,-646.4571,26060.5216
56681.6032,28093.0549,53966.4477,42267.4119,36777.2877,39354.5777,5893.9755,50476.3126,44200.0777,55963.0394,510.6926,-658.7952,26055.6936
56691.885,28099.6263,53973.7344,42271.9717,36787.2566,39360.4785,5900.5022,50483.5546,44211.2535,55969.2085,518.2475,-649.4075,26059.3593
56718.1706,28112.7244,53976.4166,42286.858,36820.3372,39372.2355,5911.991,50518.1551,44229.6714,55978.7303,539.0346,-625.9829,26069.4623
56721.8363,28116.8371,53977.9365,42291.1048,36826.3274,39373.6213,5912.6616,50526.6041,44225.1563,55978.3727,541.8509,-621.6019,26071.2057
56702.5244,28113.7079,53980.1717,42274.5645,36803.7969,39364.0995,5911.6334,50507.6051,44211.6559,55972.4718,525.9812,-636.3541,26063.6508
56679.0104,28104.0072,53982.8092,42257.6666,36777.5112,39352.2978,5910.1582,50480.5148,44189.8853,55962.3688,508.6362,-652.3579,26057.6159
56682.4079,28100.5651,53979.4117,42257.1748,36782.9204,39353.6389,5912.0804,50479.5313,44185.1914,55963.0841,513.5536,-647.7535,26057.7053
56701.7198,28104.7672,53984.1503,42269.1107,36815.8221,39364.0995,5921.3787,50504.0735,44208.2137,55974.9752,536.71,-626.117,26070.4011
56702.7032,28106.7789,53985.2232,42270.4965,36825.9698,39363.1607,5925.715,50511.1814,44210.1359,55975.6458,544.4437,-621.4231,26075.4973
56680.8432,28103.3814,53981.4234,42260.2147,36803.931,39360.702,5925.715,50480.3807,44191.3158,55968.8956,534.1172,-632.2414,26073.7985
56660.0561,28100.6098,53983.6586,42248.1447,36784.9767,39349.8391,5925.7597,50445.6013,44176.6083,55964.7381,516.9511,-643.6855,26071.8316
56658.268,28107.7176,53988.8889,42250.7375,36793.7833,39346.1734,5931.5711,50445.8249,44174.3731,55966.571,521.6002,-637.9634,26076.6596
56677.267,28132.6622,53995.8179,42262.4946,36820.4713,39356.4105,5940.6906,50462.8569,44187.2925,55979.982,542.745,-619.635,26085.8238
56687.2358,28147.8167,53993.1357,42270.1836,36836.9222,39354.4436,5942.9258,50468.5789,44180.0505,55977.0763,549.8976,-616.3269,26084.0803
56668.6392,28143.838,53992.4651,42262.271,36814.0787,39340.3172,5940.1095,50441.3098,44157.207,55969.7002,531.7926,-630.8109,26078.403
56651.2048,28136.909,53991.6158,42254.3585,36794.7221,39334.5058,5937.025,50410.4644,44135.2576,55962.4135,509.3962,-648.2005,26069.3729
56653.2165,28137.0878,53990.677,42256.3702,36800.7571,39331.6001,5933.4487,50397.9921,44129.4461,55955.5292,512.3019,-648.6028,26066.3331
56667.164,28145.4921,53986.6984,42261.2876,36821.0971,39338.6185,5935.0133,50411.0008,44140.2197,55961.1619,531.7032,-633.6272,26069.0153
56661.2631,28148.3978,53982.3174,42254.9397,36817.0291,39340.0937,5932.8675,50406.3964,44141.6055,55960.1784,534.7431,-634.0742,26065.886
56645.8404,28137.1772,53979.367,42246.4013,36795.7503,39336.2939,5928.2184,50368.8902,44130.1167,55949.7625,518.1581,-646.4571,26060.1193
56623.2204,28129.0859,53972.0356,42239.1593,36771.8786,39326.1462,5922.0493,50336.2119,44109.0167,55936.709,504.4788,-658.08,26054.0396
56629.0766,28128.2812,53970.2922,42239.3829,36781.7581,39332.7177,5923.1669,50329.9087,44100.1207,55930.8082,507.3845,-657.6777,26054.0396
56644.7228,28130.9187,53973.645,42249.7094,36811.173,39343.5806,5927.2796,50343.0516,44115.8116,55935.4573,527.2329,-639.5727,26061.5945
56651.6519,28134.4503,53976.2825,42259.0077,36817.2973,39343.223,5923.8374,50344.2138,44116.1245,55936.709,536.3077,-633.5378,26066.4672
56642.7112,28130.2035,53976.2378,42253.1962,36797.1808,39340.362,5927.1455,50328.0312,44103.6075,55932.1493,525.1318,-640.3774,26064.232
56619.5995,28117.7759,53972.2592,42240.724,36765.6201,39331.913,5924.2398,50294.2353,44081.4793,55920.1688,510.2456,-653.4308,26056.8112
56628.7637,28115.1384,53970.7839,42242.0651,36770.8951,39335.3105,5922.2281,50290.4356,44085.1897,55919.5876,512.3466,-649.4969,26058.0182
56649.6402,28115.6301,53968.7723,42248.9941,36796.0185,39337.7692,5922.5857,50317.2576,44088.6319,55926.3378,528.3058,-637.6952,26063.472
56664.8394,28118.4465,53970.8734,42260.7958,36803.3946,39344.7429,5926.0279,50328.8805,44095.8738,55924.6838,533.9384,-633.4484,26063.1591
56650.2213,28112.9032,53970.8287,42256.7725,36786.0943,39335.534,5924.508,50307.7358,44098.6454,55920.0346,521.9579,-640.3327,26061.2816
56630.8647,28105.8401,53967.6547,42245.1943,36765.0837,39324.4475,5919.233,50266.8768,44082.3734,55914.1338,500.0979,-659.3764,26055.9171
56636.6762,28109.5952,53970.1581,42247.7424,36767.7659,39326.9509,5921.6917,50273.2694,44082.2393,55916.8607,504.4341,-655.8895,26060.5663
56659.1173,28119.6982,53976.5954,42267.9037,36805.7638,39341.6584,5929.2912,50302.6396,44102.1323,55924.3709,534.4748,-636.667,26068.8812
56671.1426,28128.2365,53982.9433,42272.7764,36817.2973,39346.7993,5932.4205,50319.4034,44110.4025,55930.0035,545.5613,-629.7827,26072.4127
56657.8209,28123.8556,53980.6187,42267.099,36796.7784,39339.4232,5932.1076,50295.0847,44103.384,55930.9423,535.2795,-635.9071,26072.9045
56639.0902,28115.7643,53981.4234,42254.6715,36779.2547,39335.6234,5931.4817,50272.1965,44088.0954,55931.747,521.2426,-646.2783,26073.8879
56651.8754,28118.1335,53981.5128,42254.9397,36782.1604,39337.8586,5932.7334,50274.834,44094.8009,55929.6012,525.9365,-640.6903,26075.0502
56672.1708,28120.0111,53984.0162,42267.7249,36796.2867,39342.2842,5934.9686,50305.7688,44111.3412,55933.9374,540.6439,-626.4746,26078.6712
56679.9045,28132.2598,53988.71,42276.0844,36810.1001,39348.2298,5937.3826,50321.0574,44117.6444,55943.0122,553.4738,-613.7341,26085.7791
56672.3496,28128.8624,53989.3359,42262.0475,36789.9835,39342.9101,5932.197,50300.2703,44109.0614,55939.9724,537.6935,-629.3803,26082.0687
56657.508,28116.6583,53989.023,42249.0388,36763.6979,39334.2823,5923.9268,50278.9468,44093.7728,55932.2834,518.8733,-647.6194,26074.5585
56660.369,28117.1054,53990.5876,42251.3634,36770.761,39334.1035,5924.3292,50274.4764,44099.6736,55935.6362,520.0803,-647.1276,26074.5585
56682.0502,28126.7613,53986.7878,42266.1602,36797.9407,39340.9878,5924.508,50303.7125,44110.9836,55940.9559,534.2066,-633.7166,26079.9229
56690.4992,28130.1588,53986.3855,42267.7249,36804.0204,39344.6535,5925.9385,50310.5968,44122.9641,55943.951,543.2814,-626.8322,26079.5653
56688.2193,28127.4766,53982.7198,42260.2594,36781.5793,39338.1268,5921.6022,50293.8777,44111.8777,55940.9559,526.6964,-638.8575,26071.2057
56672.6178,28120.4581,53980.3952,42243.8532,36761.418,39333.12,5923.3457,50275.6834,44095.4268,55938.0054,506.5352,-656.0683,26065.6178
56677.1328,28120.2346,53980.9316,42243.1827,36767.6765,39336.0704,5923.8374,50283.8641,44109.1955,55937.5584,511.4526,-653.6543,26067.8083
56698.1435,28118.4018,53978.6071,42253.7774,36790.7882,39338.1268,5922.7198,50315.3801,44127.0322,55943.1463,531.0774,-637.6952,26072.2339
56694.1202,28111.2939,53974.9414,42251.5869,36790.7882,39330.6166,5923.6139,50322.3985,44123.6347,55939.4807,531.7032,-631.6155,26069.3282
56678.7869,28108.3435,53973.6897,42249.3964,36778.897,39329.7225,5927.5925,50305.59,44117.7785,55935.4573,524.193,-640.4221,26068.3
56653.5294,28107.0024,53978.8306,42244.3002,36758.5123,39323.017,5929.6489,50289.2286,44108.8825,55934.3398,507.0269,-652.5367,26068.8812
56655.1387,28100.9674,53976.9083,42246.4907,36763.2061,39322.3464,5929.8277,50295.6212,44113.2188,55934.2504,510.782,-650.0781,26070.9375
56683.9278,28110.0869,53980.7975,42262.9416,36792.7104,39337.5456,5933.0016,50320.6104,44139.3256,55952.5341,530.8986,-629.4698,26079.2524
56695.2378,28119.6982,53979.9482,42265.5344,36794.4986,39342.1501,5928.2184,50331.0263,44139.2809,55952.7576,533.2232,-629.2462,26076.7937
56678.4292,28120.2793,53980.7081,42254.7609,36776.1701,39341.7925,5925.1785,50320.6104,44120.6843,55943.5934,521.7344,-641.495,26072.8598
56655.6752,28122.2016,53981.9151,42249.4859,36759.9428,39339.9596,5923.6139,50300.9409,44109.7319,55941.0006,512.0337,-648.2899,26069.9987
56656.0328,28122.2016,53978.9647,42247.4295,36763.6532,39341.0772,5923.0328,50304.4724,44108.972,55944.0404,514.8053,-643.6855,26070.1776
56675.1659,28133.7351,53981.6469,42266.6967,36792.174,39349.1238,5926.2961,50333.7979,44134.5423,55956.3339,535.9501,-626.3852,26078.8947
56688.5769,28140.7535,53981.1105,42281.583,36805.6297,39349.7944,5927.7266,50347.7901,44139.5044,55957.3174,546.4554,-621.6466,26081.8899
56676.7752,28132.6175,53980.3058,42271.9717,36786.6307,39345.0111,5924.0609,50340.2352,44124.1711,55945.1133,533.6702,-630.3638,26073.8432
56657.7762,28123.6768,53980.6187,42267.6802,36767.4083,39345.4134,5924.7315,50319.6269,44120.3713,55936.0832,520.9744,-641.0033,26070.3117
56665.7782,28129.0859,53979.6799,42268.8872,36774.6055,39351.8507,5928.4866,50317.5259,44129.5356,55938.7654,523.299,-642.7914,26072.5468
56689.5157,28142.2287,53981.6022,42280.2866,36800.3547,39362.6243,5926.7879,50343.3198,44146.5229,55944.8004,543.8626,-630.0062,26078.1348
56701.3621,28143.9275,53981.8704,42281.3594,36812.1564,39369.4192,5921.4681,50357.9378,44149.4286,55946.3203,547.1259,-621.7808,26079.6994
56692.4661,28143.2122,53985.6255,42277.1126,36797.6725,39370.0451,5926.162,50355.2556,44144.8689,55942.3417,538.5876,-628.7098,26081.5322
56674.8977,28136.2832,53989.7382,42267.1884,36777.5112,39364.8148,5927.7266,50330.8028,44135.6152,55937.2902,526.6517,-642.3891,26074.8267
56678.8763,28137.5796,53992.1522,42269.4236,36779.8358,39366.5582,5929.336,50338.4024,44136.6881,55941.537,519.7227,-643.8643,26068.2553
56699.7975,28144.9109,53994.6109,42277.3808,36803.0369,39371.2074,5929.6936,50368.4878,44163.1526,55957.4515,537.0229,-629.738,26076.2125
56709.4982,28144.8662,53995.2368,42281.4041,36813.6764,39367.1393,5928.4866,50377.965,44168.964,55958.3455,541.0463,-628.4416,26076.7043
56691.1697,28140.7982,53990.677,42275.4139,36798.1642,39358.1986,5927.369,50361.4247,44158.0117,55946.5885,527.9481,-638.4104,26070.7587
56673.9142,28136.6408,53987.6819,42260.617,36772.5492,39352.2084,5925.715,50336.7484,44137.4034,55947.125,512.7043,-650.2122,26069.3729
56673.1989,28128.1024,53985.9384,42261.3323,36777.6901,39347.3804,5925.4467,50331.8757,44134.3188,55952.9364,515.0735,-650.4804,26069.3282
56690.5439,28126.6272,53985.4467,42265.2215,36794.4986,39343.8935,5925.8044,50360.6647,44148.0428,55959.2843,531.5691,-640.5562,26071.4293
56697.6964,28130.3823,53985.1338,42274.4751,36807.4179,39347.2463,5929.6936,50373.2711,44156.6259,55964.157,541.1804,-631.2579,26073.8432
56681.022,28124.7944,53980.3058,42265.0874,36796.0632,39340.6302,5925.1338,50352.0817,44147.5511,55958.9267,533.5808,-643.6408,26070.4458
56659.2515,28117.3289,53975.8354,42247.9212,36767.3188,39330.3931,5919.8141,50326.0195,44134.6318,55949.4942,516.1017,-656.873,26065.3943
56666.6275,28115.5407,53977.3554,42247.6977,36767.453,39331.8683,5920.7529,50332.2333,44145.897,55952.2659,516.4146,-651.0168,26068.7023
56682.8549,28117.1054,53974.7179,42259.0077,36793.3363,39332.6283,5921.6022,50359.413,44154.5695,55956.1551,531.6585,-638.6787,26068.8812
56681.4691,28110.2657,53975.7907,42260.3935,36806.7473,39328.4708,5918.5177,50370.5442,44160.0233,55961.2513,536.6653,-635.8176,26072.7704
56671.9919,28102.3532,53977.9812,42251.0952,36788.2848,39319.396,5920.0376,50351.0535,44153.9884,55959.5525,525.8471,-646.9488,26067.0036
56658.6703,28098.911,53975.8354,42237.5947,36755.383,39311.9752,5918.5624,50326.6454,44135.8835,55951.0589,506.7587,-663.5338,26059.3593
56658.2233,28102.7555,53976.3719,42238.4441,36763.8767,39314.3892,5918.8753,50332.9933,44140.1303,55953.1599,508.7703,-659.6893,26060.7451
56680.7091,28112.5009,53972.9297,42251.6316,36796.242,39327.2191,5919.9035,50363.034,44161.8115,55960.1784,525.6683,-646.5912,26067.8977
56687.8617,28121.6651,53977.3554,42260.8405,36804.9592,39333.0753,5923.2563,50373.2711,44167.0865,55960.8489,532.7761,-643.9984,26068.2106
56672.439,28115.3619,53974.8967,42255.6996,36789.313,39324.4475,5921.6917,50362.1846,44156.4471,55954.8587,522.2708,-654.5037,26062.7568
56661.7548,28109.9528,53978.5177,42246.7589,36767.8553,39318.7255,5923.2116,50342.1128,44145.1818,55954.2775,506.0881,-663.5785,26061.8627
56668.058,28112.3668,53981.3787,42248.6365,36766.8271,39323.3746,5925.7597,50347.0302,44156.5812,55964.2017,509.5303,-652.6262,26067.7189
56693.8967,28115.1384,53980.6187,42256.7278,36790.4752,39330.7954,5929.3807,50379.3955,44168.7405,55968.672,523.5225,-635.5047,26074.0221
56702.7479,28122.5592,53984.2844,42272.5528,36812.7823,39344.5194,5934.7004,50389.4091,44176.1166,55974.4835,539.6158,-629.1121,26078.4924
56680.6197,28119.9664,53981.6469,42268.3954,36801.8299,39337.4562,5930.0959,50375.9533,44166.2818,55967.8227,530.8539,-637.7399,26074.2456
56649.6402,28108.8352,53974.0473,42245.4178,36775.8125,39324.3134,5916.0143,50343.4986,44147.1934,55957.2726,501.7072,-659.7787,26062.7121
56653.1271,28102.0403,53972.885,42238.5782,36776.9301,39325.5651,5914.2262,50338.4024,44153.6307,55952.6235,503.1824,-665.8584,26060.7898
56682.1843,28102.8897,53973.7791,42251.3187,36797.4043,39335.7575,5915.9696,50363.9728,44167.4441,55959.2843,519.4098,-651.4192,26064.5896
56676.9093,28100.7886,53970.5157,42254.3585,36797.1361,39333.7458,5914.8967,50362.0058,44166.3712,55957.2726,524.2378,-646.2336,26062.265
56659.3856,28099.0005,53973.645,42242.7803,36783.9485,39326.4592,5911.4993,50351.3664,44150.3227,55954.1881,510.8714,-660.941,26056.5877
56643.4264,28092.8314,53974.1367,42229.9951,36761.2392,39316.8926,5911.991,50328.4782,44131.4578,55949.226,493.3923,-676.766,26051.6703
56643.9629,28089.6574,53970.7392,42228.8775,36758.8252,39318.7702,5912.3933,50331.831,44134.9447,55947.125,500.6343,-670.1052,26053.8161
56671.1873,28093.636,53974.5837,42248.7259,36784.2615,39332.1812,5916.3272,50360.2177,44156.0,55955.6186,520.7956,-651.4192,26060.2981
56683.3019,28099.671,53975.3884,42262.6287,36801.5617,39336.428,5920.1717,50372.6006,44165.2983,55957.6303,528.8869,-648.5134,26063.5167
56674.8977,28095.156,53970.5604,42254.2691,36782.2051,39331.6001,5919.5906,50354.8533,44152.9602,55952.9364,520.0356,-657.5435,26059.6275
56659.2515,28089.0316,53968.3253,42239.4723,36765.7095,39328.0238,5914.3156,50327.4947,44136.0176,55942.6546,502.5119,-670.4181,26053.0561
56663.8559,28093.5913,53971.0522,42242.0204,36779.0759,39334.327,5916.7296,50340.414,44145.7182,55955.7527,508.3233,-663.0868,26057.9288
56687.5488,28106.1083,53973.5556,42258.7395,36807.1944,39342.5971,5924.6421,50374.1652,44168.2488,55969.5661,530.6304,-642.9255,26069.4623
56701.3621,28109.2376,53975.0755,42266.205,36816.135,39343.4465,5926.6984,50389.275,44172.7191,55965.9451,531.8373,-639.7963,26071.3845
56686.9676,28099.8945,53973.7791,42253.6433,36799.2818,39337.7244,5918.6965,50372.69,44160.0233,55954.7246,519.2757,-656.7836,26064.5449
56662.5148,28086.1259,53968.7723,42241.1263,36774.1585,39327.7109,5913.8685,50343.4986,44147.104,55946.3203,504.8811,-674.0838,26055.783
56659.2515,28086.5729,53968.1464,42237.9971,36776.796,39324.8051,5913.1533,50337.6871,44150.8144,55952.0423,502.9589,-671.044,26053.2349
56674.3612,28093.949,53965.3301,42244.7473,36787.9719,39328.7838,5912.6616,50359.9942,44167.757,55957.1832,514.3583,-656.5154,26056.1407
56689.0687,28095.6477,53963.8102,42248.2789,36790.4752,39334.4164,5914.3156,50373.584,44176.0272,55961.4748,516.9958,-658.2141,26056.2301
56674.4506,28093.8148,53959.7422,42243.0485,36777.4218,39322.5253,5912.6616,50355.6132,44166.2818,55955.3504,504.8811,-669.1664,26048.9434
56649.0591,28088.1375,53955.0483,42225.3907,36750.7786,39309.8742,5908.8171,50331.1604,44147.2828,55948.019,488.0279,-683.6504,26040.3156
56658.5362,28089.0763,53960.5021,42227.7153,36753.5055,39314.7469,5911.3204,50347.1643,44154.4354,55952.9364,493.2135,-675.7826,26048.1834
56688.2193,28099.671,53968.9064,42249.8435,36789.8047,39331.6448,5920.5741,50378.9932,44175.8037,55963.7994,519.9462,-651.2851,26060.4322
56693.9861,28104.946,53970.0687,42255.4761,36802.1876,39340.049,5927.6372,50392.7171,44187.516,55968.5826,530.4515,-643.149,26067.093
56672.6625,28097.4805,53964.6149,42236.7007,36779.0312,39333.7011,5925.0444,50382.1224,44177.8153,55961.296,514.8053,-658.527,26062.8909
56660.3243,28097.9723,53966.4477,42233.2138,36759.7193,39327.3979,5924.955,50363.4363,44160.2916,55957.2726,503.4059,-669.077,26063.1591
56667.2981,28097.5252,53969.2193,42237.5947,36761.0604,39328.9179,5926.1173,50371.0359,44162.3479,55956.8256,512.7937,-660.8069,26063.6061
56679.0104,28102.5767,53969.1746,42248.2342,36784.4403,39334.774,5929.6042,50395.2652,44175.5354,55961.2066,527.8587,-646.6806,26066.8248
56684.8218,28101.4144,53967.8782,42252.1234,36800.2206,39336.428,5929.4254,50408.8104,44180.274,55972.6059,532.5973,-640.6903,26069.1941
56672.1261,28096.4077,53967.2971,42243.4062,36782.8757,39328.739,5923.1222,50387.2633,44169.9475,55966.4816,519.1416,-655.666,26065.0814
56657.4186,28096.2735,53972.0803,42241.171,36760.4792,39329.8566,5921.9152,50374.2993,44154.9271,55963.4417,503.1824,-668.63,26061.4157
56660.5926,28095.2454,53969.3087,42237.6394,36761.2839,39324.8051,5920.8423,50381.0495,44159.9786,55963.3523,502.6013,-668.1383,26062.7121
56680.7091,28101.1015,53968.1017,42253.4645,36793.1575,39329.3649,5922.4963,50403.133,44175.5801,55967.3756,519.5439,-652.6262,26064.5449
56680.0386,28101.4144,53965.5089,42256.4596,36803.8416,39333.2094,5917.3554,50412.5208,44181.6151,55970.5496,520.2591,-649.5863,26060.164
56663.7218,28093.8148,53963.4973,42243.8532,36781.3557,39323.777,5911.4099,50393.2536,44170.6628,55961.0724,503.093,-665.2772,26053.7714
56653.0824,28089.2551,53964.2125,42234.3314,36755.383,39318.3231,5911.4099,50366.655,44161.1409,55957.2726,490.7995,-676.5872,26049.0775
56659.3856,28088.0481,53967.1183,42244.1214,36767.9447,39327.1297,5914.3156,50377.7415,44162.9291,55961.4301,501.9754,-670.4181,26051.715
56688.4428,28099.671,53972.7062,42262.9416,36800.0418,39337.6797,5919.9929,50416.097,44180.1846,55970.4155,522.539,-646.8594,26060.0299
56696.2212,28108.3882,53972.3486,42268.4848,36812.9164,39343.223,5924.1503,50427.4517,44183.3138,55972.6506,530.988,-639.0363,26061.5945
56685.85,28107.9412,53973.4662,42262.1369,36798.9689,39341.5689,5923.748,50409.7044,44178.6647,55972.0248,521.2426,-648.4687,26060.164
56661.3525,28096.5865,53974.852,42253.7327,36772.7727,39334.1482,5919.0094,50383.4635,44164.2702,55966.0345,505.7752,-661.1645,26057.5712
56670.2932,28105.0354,53979.4117,42262.8075,36780.5064,39335.0869,5922.8092,50399.6015,44169.8581,55966.6604,514.8053,-659.6893,26061.4157
56699.7081,28126.359,53984.7314,42280.2418,36814.5257,39346.2628,5931.8393,50432.7714,44199.8988,55973.9023,533.6702,-645.4289,26072.1445
56702.5691,28128.2365,53986.3408,42281.1806,36828.8755,39348.7662,5934.5663,50438.9405,44207.2749,55970.1473,537.6935,-636.667,26072.5915
56686.7888,28116.8818,53984.3291,42269.513,36806.9708,39345.7264,5930.3641,50414.3536,44195.2944,55966.7051,523.8354,-647.8876,26067.3165
56674.8083,28108.3435,53983.7033,42254.2691,36778.7182,39339.1103,5928.3525,50403.5354,44182.9562,55963.1288,502.8695,-663.5785,26061.5051
56675.7023,28108.3435,53985.6255,42252.7492,36776.9301,39339.5573,5930.3194,50416.0523,44183.5374,55969.5214,505.507,-658.3482,26062.6674
56702.0327,28115.496,53987.6372,42268.7531,36808.2225,39347.8721,5932.8228,50437.5547,44200.6141,55975.4223,523.2543,-641.8079,26067.1824
56713.1191,28121.3522,53989.023,42269.96,36821.5889,39348.7662,5932.0182,50444.5285,44212.3264,55978.4174,528.127,-638.9022,26072.2786
56695.9977,28111.2939,53981.2893,42260.0359,36797.2702,39344.3406,5927.9501,50427.407,44196.9931,55974.0812,516.4146,-649.184,26070.8928
56672.5284,28103.1132,53977.3554,42247.5189,36777.7348,39341.8819,5927.7266,50409.7044,44185.2808,55966.3922,502.7354,-658.8846,26066.2884
56666.7169,28098.8216,53978.7412,42246.6695,36782.071,39341.1219,5923.9268,50411.0456,44190.6899,55964.9169,508.8151,-654.459,26065.9754
56690.5886,28109.014,53978.5624,42261.4664,36810.6365,39349.0344,5927.816,50434.0678,44208.3031,55973.7235,529.8257,-638.3657,26072.7704
56701.5857,28119.2511,53980.8869,42270.8541,36818.0573,39350.5991,5933.404,50449.6694,44211.3429,55978.328,534.1619,-632.5096,26074.9161
56685.1795,28115.6301,53984.5079,42264.3274,36795.6161,39345.7264,5930.1853,50438.0018,44201.8658,55975.1987,520.4827,-645.0713,26069.8199
56670.3379,28102.532,53983.748,42254.0009,36772.1021,39341.6584,5927.6372,50411.8055,44188.7677,55971.3095,507.2057,-660.8069,26064.0085
56679.368,28101.2356,53983.748,42254.6268,36778.1371,39345.5029,5928.8889,50420.1651,44196.1884,55973.6341,508.0104,-657.9906,26065.5284
56704.5808,28110.3998,53984.195,42263.031,36806.1662,39355.0694,5930.1406,50443.1427,44209.9124,55981.8149,525.4894,-642.9702,26068.3
56712.985,28113.5291,53984.7761,42268.5742,36817.5656,39356.7681,5930.9006,50464.6003,44207.2302,55982.2172,530.3621,-641.495,26066.6907
56696.2659,28109.5505,53985.8043,42264.1933,36797.002,39347.1569,5928.0843,50450.8317,44194.7579,55974.26,516.7276,-652.9838,26059.6275
56676.9987,28096.4971,53983.7927,42253.2856,36771.7892,39338.1268,5921.334,50420.925,44186.0855,55972.7401,499.9638,-664.0702,26056.8559
56672.0366,28094.3066,53980.5293,42246.4013,36766.5589,39339.5126,5917.8025,50410.6879,44184.7891,55972.1142,499.9191,-663.9808,26055.783
56688.6663,28102.5767,53978.7412,42259.0077,36787.346,39349.2132,5921.5128,50435.7219,44204.8162,55978.7303,518.0687,-651.2403,26055.4254
56702.4797,28107.0471,53976.8189,42266.5179,36803.3946,39352.7448,5919.1883,50451.5022,44213.7569,55978.1939,527.7693,-646.01,26053.1008
56690.4098,28101.2803,53973.9132,42256.9513,36782.518,39341.7031,5911.6334,50435.3195,44200.2565,55972.4271,513.0619,-656.2918,26045.0542
56669.1756,28088.8081,53977.4895,42246.0437,36767.6318,39338.0821,5913.8685,50411.0903,44194.0427,55971.0413,500.1426,-667.2442,26045.0989
56666.851,28082.6837,53975.7907,42242.2439,36770.0905,39339.4232,5912.0804,50418.4216,44197.5743,55964.9169,498.6674,-664.6067,26044.4283
56695.5954,28094.8877,53975.8354,42261.2876,36800.0418,39347.1569,5913.3321,50449.8035,44210.583,55969.432,516.9958,-648.8264,26050.1057
56704.8937,28103.6496,53975.3884,42264.5956,36809.5636,39350.4202,5911.6334,50466.612,44209.4207,55975.1987,524.3719,-643.3725,26054.0396
56690.9909,28093.3678,53975.5672,42259.8124,36796.3314,39348.3639,5913.0639,50452.3069,44200.3012,55972.9189,518.3369,-653.2073,26050.7315
56670.7402,28087.1093,53977.9812,42245.1943,36776.5725,39342.9995,5914.5838,50438.4488,44191.1817,55967.018,503.6741,-666.3948,26049.9716
56681.1562,28098.1511,53982.6304,42249.4859,36778.0477,39346.9781,5919.4565,50452.2175,44204.7268,55975.2882,508.6809,-659.2423,26057.0794
56700.2445,28106.5106,53984.2397,42260.7958,36806.792,39351.8955,5925.1338,50475.3739,44221.1777,55983.1113,526.4282,-644.356,26063.2485
56702.7926,28107.9859,53984.7314,42265.8473,36815.8668,39355.0694,5926.9667,50483.1076,44225.961,55986.5534,530.2727,-640.0645,26064.0085
56682.6314,28104.3649,53982.4516,42255.8784,36802.4111,39353.1919,5925.1785,50465.4944,44218.6743,55984.1394,517.6216,-650.4357,26060.5663
56665.957,28091.7585,53975.3884,42234.8678,36767.7659,39345.1452,5916.3272,50440.9075,44202.9834,55967.7333,497.2368,-666.7078,26050.1057
56672.886,28090.0151,53975.6119,42234.7784,36766.9165,39342.4183,5916.4166,50448.7306,44207.4984,55964.4699,495.9852,-666.4395,26050.3292
56693.3602,28094.9771,53977.1765,42249.7541,36791.0564,39349.9732,5920.0376,50487.6673,44227.3915,55979.4456,511.7208,-650.2122,26063.3379
56708.6488,28102.8003,53980.8869,42270.6753,36815.7327,39358.8692,5925.2679,50499.2455,44231.8618,55983.6924,524.953,-641.3609,26065.4837
56698.7246,28100.5651,53982.0939,42263.8357,36796.0632,39351.7166,5924.6421,50475.6868,44220.6413,55983.603,515.4759,-655.9342,26058.5099
56681.2903,28097.1229,53981.9598,42251.3187,36768.6152,39341.7925,5918.8753,50460.8005,44203.6092,55975.1093,493.3923,-671.7592,26050.0163
56687.3252,28100.431,53979.5458,42251.0058,36773.4432,39344.3406,5914.7179,50466.2097,44205.1739,55973.7235,492.1407,-669.6135,26050.9104
56696.9365,28109.8634,53975.8354,42263.8804,36801.964,39353.013,5916.7296,50481.99,44222.6529,55976.0481,515.0735,-654.8613,26054.0843
56706.4136,28113.5738,53975.2543,42269.2895,36815.9562,39355.9635,5916.3719,50492.7635,44228.4644,55978.0151,527.4564,-648.6028,26056.0066
56687.057,28099.5816,53967.2077,42255.2079,36791.3693,39344.7876,5910.337,50472.4234,44203.8327,55964.4252,510.022,-662.5503,26048.9881
56665.3758,28088.2269,53960.8151,42239.6958,36763.9661,39335.5787,5904.2126,50440.9522,44181.5704,55957.7197,488.3409,-678.5095,26042.372
56653.3506,28080.4485,53955.6295,42234.9125,36763.2508,39329.4096,5898.3117,50443.2321,44185.6831,55956.8703,485.8822,-677.7942,26036.3817
56668.8627,28084.2036,53954.8695,42241.618,36782.4286,39334.0141,5893.752,50463.7957,44192.1204,55959.9102,502.4225,-667.2889,26039.0192
56681.0668,28088.7187,53957.06,42246.4013,36792.6657,39335.0422,5892.7685,50471.9764,44203.1175,55962.6818,506.8481,-660.6281,26040.8521
56669.1309,28080.672,53954.5119,42237.3265,36772.7727,39329.3649,5887.1806,50451.9492,44192.9698,55956.3786,491.1125,-673.1004,26033.3419
56650.4896,28074.1453,53955.8083,42228.7434,36750.7786,39324.0005,5886.1077,50433.9784,44183.0456,55951.8188,477.165,-687.0478,26029.2292
56653.7082,28079.6438,53959.161,42231.1127,36758.7805,39324.4922,5890.7568,50446.2719,44186.8454,55955.3951,487.5809,-681.5493,26036.2476
56671.679,28089.9704,53963.2291,42241.931,36787.0778,39330.4825,5897.373,50469.2495,44205.4421,55966.8392,505.2388,-663.8914,26044.9648
56685.0454,28094.5748,53963.3185,42244.9708,36801.6511,39333.9694,5899.7422,50479.2184,44211.2535,55969.5214,513.956,-656.5601,26046.7529
56675.7917,28088.2269,53962.6479,42234.5996,36784.0827,39326.7274,5899.1164,50475.2398,44206.9173,55977.1657,503.1824,-667.0654,26044.2048
56662.2466,28084.1142,53962.782,42232.0962,36766.5142,39323.6428,5901.441,50458.2971,44194.1768,55969.7449,489.4137,-678.4201,26039.2427
56662.8277,28090.4621,53967.9229,42233.9737,36777.6901,39327.2638,5907.7442,50460.9793,44209.9571,55974.3941,496.164,-669.2111,26043.9813
56681.3797,28091.4009,53965.1066,42246.7142,36800.7571,39338.9761,5908.0124,50481.99,44221.4459,55979.7585,514.9841,-656.113,26048.9881
56687.8617,28096.6759,53967.6547,42252.6151,36804.5568,39342.7312,5907.923,50492.4953,44222.0271,55983.3348,520.3038,-652.2685,26050.9104
56682.0055,28094.2172,53971.4545,42244.9708,36793.5598,39337.2327,5906.6266,50482.0347,44212.5499,55976.6293,508.1445,-660.5834,26049.5245
56656.3457,28087.5564,53966.1795,42226.0612,36766.3354,39325.5651,5897.7753,50451.4575,44197.4401,55965.9004,491.1125,-675.7379,26043.4002
56663.4983,28091.4903,53964.8831,42233.482,36763.7426,39330.0354,5896.8365,50454.542,44198.6918,55971.3542,494.0182,-671.4463,26043.2661
56690.0969,28098.1958,53963.989,42254.6268,36796.3761,39342.6865,5902.2456,50481.2747,44219.8366,55979.2668,512.0784,-661.4774,26048.407
56692.9579,28103.7837,53964.6596,42256.4596,36809.5636,39346.3522,5902.0221,50494.0599,44222.6976,55982.3066,519.678,-658.3035,26047.5129
56677.3564,28097.6146,53968.5488,42246.5801,36794.6774,39343.67,5901.7092,50476.715,44208.4372,55978.5515,506.9822,-669.5241,26042.8637
56661.9784,28086.3494,53965.8666,42236.656,36770.1352,39338.4844,5900.1893,50456.062,44191.4499,55974.7517,489.0114,-682.9351,26039.2874
56661.576,28090.1492,53965.4642,42241.3498,36778.4947,39339.9149,5901.0834,50462.3204,44197.3507,55977.4339,492.6771,-675.112,26043.4002
56684.7771,28100.6545,53972.7062,42250.4693,36802.4111,39349.3474,5904.9278,50495.5798,44209.9571,55985.9276,515.3865,-657.32,26052.1173
56688.8452,28102.8897,53971.8121,42258.1136,36808.0437,39349.0791,5904.302,50503.09,44212.3264,55981.2337,522.3155,-654.1908,26055.2913
56682.4079,28099.7604,53970.6051,42254.4032,36794.7221,39345.4581,5907.2971,50489.8131,44207.8561,55977.3892,512.6148,-667.5124,26051.6703
56668.9521,28090.4174,53972.0356,42242.0204,36770.0905,39339.7808,5910.5605,50476.9832,44205.4421,55980.2055,498.3991,-674.1732,26049.5692
56665.5993,28088.6292,53974.9861,42243.2721,36771.9233,39339.8255,5912.3486,50483.1523,44210.6724,55980.8761,499.2485,-668.63,26050.2845
56685.6712,28093.8596,53971.0522,42255.6102,36799.9077,39343.5806,5913.5109,50504.2076,44224.7093,55987.3134,511.542,-655.4872,26052.5644
56692.1532,28098.5087,53967.4759,42259.7229,36810.3683,39348.8109,5911.544,50525.7994,44226.9892,55988.5204,512.8831,-654.459,26050.0163
56679.4574,28099.0005,53965.956,42252.4363,36797.449,39342.6865,5912.5274,50515.2047,44215.1427,55986.3746,500.9472,-664.7408,26046.1271
56663.0512,28091.9373,53964.749,42238.5335,36771.521,39332.9412,5908.4147,50493.8811,44211.03,55977.0763,482.9764,-675.2014,26038.8404
56658.4468,28087.8246,53964.7043,42237.4606,36771.7892,39332.7624,5904.9726,50493.2553,44211.477,55976.5399,481.7694,-676.9001,26038.2593
56683.8831,28094.396,53963.7208,42246.5801,36792.2634,39336.5622,5902.2456,50511.4496,44222.5635,55981.9043,495.8957,-665.2772,26039.3769
56698.0094,28095.8712,53965.643,42254.3138,36807.2391,39336.8751,5903.0503,50519.7197,44223.1894,55982.6642,504.9258,-662.7291,26042.9978
56683.749,28088.9869,53968.6382,42254.0009,36792.4869,39333.8352,5906.269,50505.2358,44220.1495,55978.9538,501.9307,-670.597,26044.1601
56664.75,28081.6108,53969.5323,42243.4062,36768.8388,39333.2094,5902.3798,50472.5575,44200.7482,55970.8625,487.2233,-682.8904,26039.7345
56674.4059,28086.0364,53968.6829,42243.138,36776.3937,39332.4494,5901.888,50462.7675,44198.1554,55968.4932,488.6091,-677.3919,26041.2544
56701.7198,28102.4426,53971.4545,42257.2196,36802.0535,39336.8751,5905.0173,50492.2271,44215.9474,55975.9587,511.0949,-660.3152,26045.1436
56703.9549,28099.9839,53971.1416,42264.4615,36806.0768,39336.9645,5902.4692,50506.711,44220.5518,55970.9072,521.5108,-657.7671,26046.0824
56685.0901,28094.396,53967.5653,42256.6831,36788.2401,39336.6516,5899.9211,50494.4175,44210.583,55971.4884,508.1445,-669.4347,26045.0542
56663.4983,28089.0316,53965.0172,42233.5267,36755.1595,39330.1696,5892.7238,50467.1484,44198.0213,55968.4038,485.0775,-685.8855,26038.9298
56675.7917,28092.8761,53971.1863,42245.1496,36767.2294,39336.5622,5897.1047,50471.8423,44204.3245,55968.5379,494.957,-674.1285,26041.0756
56700.0657,28101.7721,53973.1532,42265.2662,36799.9524,39350.4202,5896.7918,50506.3981,44225.5139,55974.1706,517.8899,-659.2423,26048.7199
56708.5147,28105.4378,53969.2193,42264.1486,36805.9427,39348.1404,5895.8977,50515.4282,44225.201,55972.1589,525.4447,-658.527,26045.4118
56691.2144,28099.0005,53970.2475,42252.0787,36783.3227,39343.9829,5889.9522,50494.507,44210.0465,55966.1686,507.4739,-671.3122,26041.5226
56674.6294,28084.9636,53970.6498,42233.3926,36755.7406,39342.016,5887.1806,50473.0046,44197.7084,55967.2415,486.1951,-685.3938,26040.0921
56668.7286,28075.7099,53966.0454,42225.2119,36749.8845,39341.4348,5881.5926,50475.7762,44197.8872,55963.0394,481.3671,-688.2995,26039.5557
56681.8714,28079.5097,53969.3534,42235.0019,36771.4316,39337.9927,5883.9172,50496.2057,44206.1126,55965.1405,498.578,-675.2461,26042.1932
56692.0191,28079.8227,53965.2854,42232.4985,36783.1886,39327.6662,5883.3808,50508.4097,44215.4109,55966.3028,503.7636,-668.1383,26042.7296
56684.956,28076.9616,53966.9394,42229.5928,36771.8786,39330.1696,5887.9852,50504.1182,44204.2798,55965.0511,495.0464,-669.6582,26045.3224
56668.3263,28075.6205,53968.3253,42217.1652,36755.6959,39328.9179,5890.3992,50480.2465,44184.4761,55957.9432,481.7247,-678.5542,26040.9415
56662.6489,28078.8392,53968.3253,42218.9087,36764.6366,39328.6049,5894.959,50475.8209,44189.4382,55959.0608,488.5197,-673.1004,26043.4449
56678.0269,28089.7915,53965.7325,42229.9951,36793.4257,39336.3833,5901.2622,50487.0415,44204.3245,55967.1968,507.9657,-659.8234,26045.3671
56682.4079,28093.189,53965.1513,42234.7784,36805.6297,39337.3221,5904.0338,50495.3563,44193.3274,55965.811,514.2689,-658.3929,26044.0707
56664.5265,28087.0646,53968.4147,42227.9388,36791.0117,39328.9179,5902.648,50484.6275,44178.4859,55954.501,506.6246,-671.6251,26042.1485
56637.7044,28081.7002,53968.6829,42210.5044,36760.971,39315.9986,5903.855,50453.6927,44152.4237,55954.9928,485.0328,-686.2432,26038.7957
56636.4527,28089.4339,53967.7441,42219.3557,36764.0555,39313.0034,5902.5139,50433.2185,44154.9271,55955.4845,488.0726,-684.5444,26039.1533
56658.5809,28106.4212,53972.7956,42235.9854,36802.1876,39326.3698,5910.4264,50451.2787,44169.0981,55965.0064,509.4856,-668.2724,26049.4351
56659.922,28112.4115,53973.2873,42234.3314,36810.4577,39327.0403,5918.1154,50455.0338,44158.7716,55967.3309,509.3515,-664.6067,26049.7481
56640.8336,28108.6117,53970.024,42219.8027,36784.9767,39316.7585,5915.6567,50426.513,44138.4763,55956.2892,491.336,-677.3472,26044.5178
56623.7122,28103.5602,53971.7674,42211.4432,36770.1352,39312.6458,5917.5789,50397.9474,44131.279,55950.3436,484.094,-677.3472,26046.1271
56625.0086,28107.0024,53972.4827,42214.5277,36780.5958,39321.6759,5921.6022,50390.7055,44125.1993,55947.572,491.5595,-672.0275,26048.8987
56645.9298,28120.7711,53970.1581,42220.2051,36800.9806,39328.0238,5919.9482,50404.6082,44131.1002,55947.8402,509.0386,-665.4114,26050.3292
56646.511,28121.1287,53970.2475,42218.3275,36803.6628,39325.0734,5919.3671,50395.2652,44131.5472,55944.7557,512.8831,-659.9128,26049.6587
56628.0484,28117.463,53970.471,42214.6618,36782.9204,39323.464,5918.8753,50372.2876,44118.4938,55941.8499,501.1708,-665.009,26046.9317
56606.5907,28113.0373,53967.7441,42206.8834,36759.764,39320.8712,5919.8588,50348.1925,44102.6241,55934.7421,484.854,-677.2131,26042.5061
56607.5295,28112.8138,53966.6712,42208.0904,36758.8252,39323.2405,5915.8355,50347.4772,44100.8806,55932.6857,485.6139,-678.6883,26041.0309
56626.9755,28116.1219,53967.4759,42218.1487,36787.3013,39330.6166,5914.8967,50366.5209,44119.6114,55941.7605,503.4953,-665.9031,26045.4118
56632.787,28120.6816,53965.643,42222.5744,36797.1808,39327.0403,5918.4283,50369.3819,44126.6298,55939.6595,513.5983,-657.2306,26049.7928
56625.3662,28112.9926,53968.3253,42218.3275,36783.4121,39318.9937,5915.7014,50340.5482,44114.1576,55927.6342,499.1144,-665.7243,26045.2777
56612.8492,28110.4892,53973.9132,42211.0409,36762.3568,39323.1511,5916.4166,50317.5259,44112.8165,55934.9209,489.5926,-676.9896,26043.3108
56608.3789,28108.3882,53968.1911,42204.8271,36756.5006,39316.6691,5913.0639,50311.0439,44110.4025,55927.3213,488.2514,-681.2364,26041.0756
56635.8268,28111.3833,53971.231,42229.414,36791.1458,39329.1414,5916.5061,50336.0778,44123.9923,55932.2387,507.5186,-666.0819,26046.7529
56643.5158,28109.2376,53971.7227,42233.7502,36800.1312,39326.2804,5917.9366,50335.7649,44125.3781,55933.848,509.9326,-664.562,26050.9104
56632.0717,28099.671,53967.7441,42224.586,36780.3276,39316.0433,5912.751,50317.0788,44110.9836,55927.0978,499.2485,-675.7379,26043.2214
56608.1107,28094.5301,53966.2689,42211.2197,36755.1595,39310.1871,5910.6052,50283.5512,44096.6785,55923.298,484.1834,-685.3938,26042.8637
56611.4187,28101.1909,53969.0852,42209.3868,36749.4375,39311.707,5914.5391,50278.2762,44093.7281,55928.126,490.576,-681.1917,26044.6519
56644.1864,28112.4115,53971.678,42226.7318,36783.278,39322.6594,5916.8637,50312.7873,44112.0118,55936.8432,512.5254,-663.9361,26051.2233
56658.1339,28112.0092,53969.8005,42226.8659,36791.6822,39318.8596,5916.1931,50322.8903,44116.8398,55932.0152,515.1629,-660.4493,26048.3176
56647.4497,28100.5204,53969.3534,42214.1701,36771.0292,39305.7168,5912.0804,50296.6493,44105.8427,55922.091,502.7801,-675.0226,26040.2709
56628.0037,28090.1492,53968.2359,42204.4694,36740.8991,39295.9267,5909.3982,50264.8652,44091.0459,55914.4914,490.129,-688.076,26034.3254
56633.9046,28095.1113,53969.8899,42207.4199,36744.6989,39295.8373,5911.4099,50262.4959,44086.5308,55917.0395,493.1241,-682.9351,26037.4993
56658.9385,28101.8615,53970.9628,42219.9368,36772.3256,39302.4981,5911.4099,50286.5463,44093.6834,55924.9967,505.507,-669.4794,26042.3273
